#  E (eV)   dos(E)     Int dos(E) EFermi =   7.984 eV
 -15.886  0.4647E-03  0.4647E-05
 -15.876  0.5091E-03  0.9739E-05
 -15.866  0.5576E-03  0.1531E-04
 -15.856  0.6103E-03  0.2142E-04
 -15.846  0.6678E-03  0.2810E-04
 -15.836  0.7304E-03  0.3540E-04
 -15.826  0.7986E-03  0.4339E-04
 -15.816  0.8727E-03  0.5211E-04
 -15.806  0.9533E-03  0.6165E-04
 -15.796  0.1041E-02  0.7205E-04
 -15.786  0.1136E-02  0.8342E-04
 -15.776  0.1240E-02  0.9581E-04
 -15.766  0.1352E-02  0.1093E-03
 -15.756  0.1474E-02  0.1241E-03
 -15.746  0.1606E-02  0.1401E-03
 -15.736  0.1749E-02  0.1576E-03
 -15.726  0.1904E-02  0.1767E-03
 -15.716  0.2072E-02  0.1974E-03
 -15.706  0.2254E-02  0.2199E-03
 -15.696  0.2452E-02  0.2444E-03
 -15.686  0.2665E-02  0.2711E-03
 -15.676  0.2895E-02  0.3000E-03
 -15.666  0.3144E-02  0.3315E-03
 -15.656  0.3414E-02  0.3656E-03
 -15.646  0.3704E-02  0.4027E-03
 -15.636  0.4018E-02  0.4428E-03
 -15.626  0.4357E-02  0.4864E-03
 -15.616  0.4722E-02  0.5336E-03
 -15.606  0.5116E-02  0.5848E-03
 -15.596  0.5540E-02  0.6402E-03
 -15.586  0.5997E-02  0.7002E-03
 -15.576  0.6489E-02  0.7651E-03
 -15.566  0.7019E-02  0.8353E-03
 -15.556  0.7589E-02  0.9111E-03
 -15.546  0.8201E-02  0.9931E-03
 -15.536  0.8859E-02  0.1082E-02
 -15.526  0.9567E-02  0.1177E-02
 -15.516  0.1033E-01  0.1281E-02
 -15.506  0.1114E-01  0.1392E-02
 -15.496  0.1202E-01  0.1512E-02
 -15.486  0.1295E-01  0.1642E-02
 -15.476  0.1396E-01  0.1781E-02
 -15.466  0.1504E-01  0.1932E-02
 -15.456  0.1619E-01  0.2094E-02
 -15.446  0.1743E-01  0.2268E-02
 -15.436  0.1875E-01  0.2455E-02
 -15.426  0.2016E-01  0.2657E-02
 -15.416  0.2167E-01  0.2874E-02
 -15.406  0.2329E-01  0.3107E-02
 -15.396  0.2501E-01  0.3357E-02
 -15.386  0.2686E-01  0.3625E-02
 -15.376  0.2882E-01  0.3914E-02
 -15.366  0.3092E-01  0.4223E-02
 -15.356  0.3316E-01  0.4554E-02
 -15.346  0.3554E-01  0.4910E-02
 -15.336  0.3808E-01  0.5291E-02
 -15.326  0.4079E-01  0.5698E-02
 -15.316  0.4367E-01  0.6135E-02
 -15.306  0.4673E-01  0.6603E-02
 -15.296  0.4999E-01  0.7102E-02
 -15.286  0.5346E-01  0.7637E-02
 -15.276  0.5714E-01  0.8208E-02
 -15.266  0.6105E-01  0.8819E-02
 -15.256  0.6520E-01  0.9471E-02
 -15.246  0.6961E-01  0.1017E-01
 -15.236  0.7428E-01  0.1091E-01
 -15.226  0.7923E-01  0.1170E-01
 -15.216  0.8449E-01  0.1255E-01
 -15.206  0.9005E-01  0.1345E-01
 -15.196  0.9594E-01  0.1441E-01
 -15.186  0.1022E+00  0.1543E-01
 -15.176  0.1088E+00  0.1652E-01
 -15.166  0.1157E+00  0.1767E-01
 -15.156  0.1231E+00  0.1890E-01
 -15.146  0.1309E+00  0.2021E-01
 -15.136  0.1391E+00  0.2161E-01
 -15.126  0.1478E+00  0.2308E-01
 -15.116  0.1570E+00  0.2465E-01
 -15.106  0.1666E+00  0.2632E-01
 -15.096  0.1768E+00  0.2809E-01
 -15.086  0.1876E+00  0.2996E-01
 -15.076  0.1989E+00  0.3195E-01
 -15.066  0.2108E+00  0.3406E-01
 -15.056  0.2233E+00  0.3629E-01
 -15.046  0.2365E+00  0.3866E-01
 -15.036  0.2503E+00  0.4116E-01
 -15.026  0.2649E+00  0.4381E-01
 -15.016  0.2802E+00  0.4661E-01
 -15.006  0.2962E+00  0.4957E-01
 -14.996  0.3131E+00  0.5270E-01
 -14.986  0.3308E+00  0.5601E-01
 -14.976  0.3493E+00  0.5950E-01
 -14.966  0.3687E+00  0.6319E-01
 -14.956  0.3891E+00  0.6708E-01
 -14.946  0.4104E+00  0.7119E-01
 -14.936  0.4327E+00  0.7551E-01
 -14.926  0.4560E+00  0.8007E-01
 -14.916  0.4804E+00  0.8488E-01
 -14.906  0.5059E+00  0.8994E-01
 -14.896  0.5326E+00  0.9526E-01
 -14.886  0.5604E+00  0.1009E+00
 -14.876  0.5895E+00  0.1068E+00
 -14.866  0.6198E+00  0.1130E+00
 -14.856  0.6514E+00  0.1195E+00
 -14.846  0.6844E+00  0.1263E+00
 -14.836  0.7187E+00  0.1335E+00
 -14.826  0.7545E+00  0.1410E+00
 -14.816  0.7917E+00  0.1490E+00
 -14.806  0.8305E+00  0.1573E+00
 -14.796  0.8707E+00  0.1660E+00
 -14.786  0.9126E+00  0.1751E+00
 -14.776  0.9562E+00  0.1847E+00
 -14.766  0.1001E+01  0.1947E+00
 -14.756  0.1048E+01  0.2052E+00
 -14.746  0.1097E+01  0.2161E+00
 -14.736  0.1147E+01  0.2276E+00
 -14.726  0.1200E+01  0.2396E+00
 -14.716  0.1254E+01  0.2521E+00
 -14.706  0.1310E+01  0.2652E+00
 -14.696  0.1368E+01  0.2789E+00
 -14.686  0.1429E+01  0.2932E+00
 -14.676  0.1491E+01  0.3081E+00
 -14.666  0.1555E+01  0.3237E+00
 -14.656  0.1622E+01  0.3399E+00
 -14.646  0.1690E+01  0.3568E+00
 -14.636  0.1761E+01  0.3744E+00
 -14.626  0.1835E+01  0.3928E+00
 -14.616  0.1910E+01  0.4119E+00
 -14.606  0.1988E+01  0.4317E+00
 -14.596  0.2068E+01  0.4524E+00
 -14.586  0.2150E+01  0.4739E+00
 -14.576  0.2235E+01  0.4963E+00
 -14.566  0.2323E+01  0.5195E+00
 -14.556  0.2413E+01  0.5436E+00
 -14.546  0.2505E+01  0.5687E+00
 -14.536  0.2600E+01  0.5947E+00
 -14.526  0.2697E+01  0.6217E+00
 -14.516  0.2797E+01  0.6496E+00
 -14.506  0.2900E+01  0.6786E+00
 -14.496  0.3005E+01  0.7087E+00
 -14.486  0.3113E+01  0.7398E+00
 -14.476  0.3223E+01  0.7720E+00
 -14.466  0.3336E+01  0.8054E+00
 -14.456  0.3452E+01  0.8399E+00
 -14.446  0.3570E+01  0.8756E+00
 -14.436  0.3691E+01  0.9125E+00
 -14.426  0.3815E+01  0.9507E+00
 -14.416  0.3941E+01  0.9901E+00
 -14.406  0.4070E+01  0.1031E+01
 -14.396  0.4201E+01  0.1073E+01
 -14.386  0.4335E+01  0.1116E+01
 -14.376  0.4472E+01  0.1161E+01
 -14.366  0.4610E+01  0.1207E+01
 -14.356  0.4752E+01  0.1255E+01
 -14.346  0.4896E+01  0.1303E+01
 -14.336  0.5042E+01  0.1354E+01
 -14.326  0.5191E+01  0.1406E+01
 -14.316  0.5342E+01  0.1459E+01
 -14.306  0.5495E+01  0.1514E+01
 -14.296  0.5651E+01  0.1571E+01
 -14.286  0.5809E+01  0.1629E+01
 -14.276  0.5968E+01  0.1688E+01
 -14.266  0.6130E+01  0.1750E+01
 -14.256  0.6294E+01  0.1813E+01
 -14.246  0.6460E+01  0.1877E+01
 -14.236  0.6628E+01  0.1944E+01
 -14.226  0.6797E+01  0.2012E+01
 -14.216  0.6968E+01  0.2081E+01
 -14.206  0.7140E+01  0.2153E+01
 -14.196  0.7315E+01  0.2226E+01
 -14.186  0.7490E+01  0.2301E+01
 -14.176  0.7667E+01  0.2377E+01
 -14.166  0.7845E+01  0.2456E+01
 -14.156  0.8024E+01  0.2536E+01
 -14.146  0.8204E+01  0.2618E+01
 -14.136  0.8384E+01  0.2702E+01
 -14.126  0.8566E+01  0.2788E+01
 -14.116  0.8748E+01  0.2875E+01
 -14.106  0.8930E+01  0.2964E+01
 -14.096  0.9113E+01  0.3055E+01
 -14.086  0.9296E+01  0.3148E+01
 -14.076  0.9480E+01  0.3243E+01
 -14.066  0.9663E+01  0.3340E+01
 -14.056  0.9846E+01  0.3438E+01
 -14.046  0.1003E+02  0.3539E+01
 -14.036  0.1021E+02  0.3641E+01
 -14.026  0.1039E+02  0.3745E+01
 -14.016  0.1057E+02  0.3850E+01
 -14.006  0.1075E+02  0.3958E+01
 -13.996  0.1093E+02  0.4067E+01
 -13.986  0.1111E+02  0.4178E+01
 -13.976  0.1128E+02  0.4291E+01
 -13.966  0.1146E+02  0.4406E+01
 -13.956  0.1163E+02  0.4522E+01
 -13.946  0.1180E+02  0.4640E+01
 -13.936  0.1197E+02  0.4760E+01
 -13.926  0.1214E+02  0.4881E+01
 -13.916  0.1230E+02  0.5004E+01
 -13.906  0.1246E+02  0.5129E+01
 -13.896  0.1262E+02  0.5255E+01
 -13.886  0.1278E+02  0.5383E+01
 -13.876  0.1293E+02  0.5512E+01
 -13.866  0.1308E+02  0.5643E+01
 -13.856  0.1323E+02  0.5775E+01
 -13.846  0.1337E+02  0.5909E+01
 -13.836  0.1352E+02  0.6044E+01
 -13.826  0.1365E+02  0.6181E+01
 -13.816  0.1378E+02  0.6319E+01
 -13.806  0.1391E+02  0.6458E+01
 -13.796  0.1404E+02  0.6598E+01
 -13.786  0.1416E+02  0.6740E+01
 -13.776  0.1427E+02  0.6882E+01
 -13.766  0.1439E+02  0.7026E+01
 -13.756  0.1449E+02  0.7171E+01
 -13.746  0.1460E+02  0.7317E+01
 -13.736  0.1469E+02  0.7464E+01
 -13.726  0.1479E+02  0.7612E+01
 -13.716  0.1487E+02  0.7761E+01
 -13.706  0.1496E+02  0.7910E+01
 -13.696  0.1503E+02  0.8061E+01
 -13.686  0.1510E+02  0.8212E+01
 -13.676  0.1517E+02  0.8363E+01
 -13.666  0.1523E+02  0.8516E+01
 -13.656  0.1529E+02  0.8669E+01
 -13.646  0.1534E+02  0.8822E+01
 -13.636  0.1538E+02  0.8976E+01
 -13.626  0.1542E+02  0.9130E+01
 -13.616  0.1545E+02  0.9284E+01
 -13.606  0.1548E+02  0.9439E+01
 -13.596  0.1550E+02  0.9594E+01
 -13.586  0.1552E+02  0.9750E+01
 -13.576  0.1553E+02  0.9905E+01
 -13.566  0.1553E+02  0.1006E+02
 -13.556  0.1553E+02  0.1022E+02
 -13.546  0.1552E+02  0.1037E+02
 -13.536  0.1551E+02  0.1053E+02
 -13.526  0.1549E+02  0.1068E+02
 -13.516  0.1546E+02  0.1084E+02
 -13.506  0.1543E+02  0.1099E+02
 -13.496  0.1540E+02  0.1114E+02
 -13.486  0.1535E+02  0.1130E+02
 -13.476  0.1531E+02  0.1145E+02
 -13.466  0.1525E+02  0.1160E+02
 -13.456  0.1519E+02  0.1175E+02
 -13.446  0.1513E+02  0.1191E+02
 -13.436  0.1506E+02  0.1206E+02
 -13.426  0.1498E+02  0.1221E+02
 -13.416  0.1490E+02  0.1236E+02
 -13.406  0.1482E+02  0.1250E+02
 -13.396  0.1473E+02  0.1265E+02
 -13.386  0.1463E+02  0.1280E+02
 -13.376  0.1453E+02  0.1294E+02
 -13.366  0.1442E+02  0.1309E+02
 -13.356  0.1431E+02  0.1323E+02
 -13.346  0.1420E+02  0.1337E+02
 -13.336  0.1408E+02  0.1351E+02
 -13.326  0.1396E+02  0.1365E+02
 -13.316  0.1383E+02  0.1379E+02
 -13.306  0.1370E+02  0.1393E+02
 -13.296  0.1356E+02  0.1406E+02
 -13.286  0.1342E+02  0.1420E+02
 -13.276  0.1328E+02  0.1433E+02
 -13.266  0.1313E+02  0.1446E+02
 -13.256  0.1298E+02  0.1459E+02
 -13.246  0.1283E+02  0.1472E+02
 -13.236  0.1267E+02  0.1485E+02
 -13.226  0.1252E+02  0.1497E+02
 -13.216  0.1235E+02  0.1509E+02
 -13.206  0.1219E+02  0.1522E+02
 -13.196  0.1202E+02  0.1534E+02
 -13.186  0.1186E+02  0.1546E+02
 -13.176  0.1168E+02  0.1557E+02
 -13.166  0.1151E+02  0.1569E+02
 -13.156  0.1134E+02  0.1580E+02
 -13.146  0.1116E+02  0.1591E+02
 -13.136  0.1098E+02  0.1602E+02
 -13.126  0.1081E+02  0.1613E+02
 -13.116  0.1063E+02  0.1624E+02
 -13.106  0.1044E+02  0.1634E+02
 -13.096  0.1026E+02  0.1644E+02
 -13.086  0.1008E+02  0.1654E+02
 -13.076  0.9898E+01  0.1664E+02
 -13.066  0.9715E+01  0.1674E+02
 -13.056  0.9531E+01  0.1684E+02
 -13.046  0.9347E+01  0.1693E+02
 -13.036  0.9164E+01  0.1702E+02
 -13.026  0.8980E+01  0.1711E+02
 -13.016  0.8797E+01  0.1720E+02
 -13.006  0.8614E+01  0.1728E+02
 -12.996  0.8432E+01  0.1737E+02
 -12.986  0.8251E+01  0.1745E+02
 -12.976  0.8070E+01  0.1753E+02
 -12.966  0.7890E+01  0.1761E+02
 -12.956  0.7711E+01  0.1769E+02
 -12.946  0.7534E+01  0.1776E+02
 -12.936  0.7358E+01  0.1784E+02
 -12.926  0.7183E+01  0.1791E+02
 -12.916  0.7009E+01  0.1798E+02
 -12.906  0.6837E+01  0.1805E+02
 -12.896  0.6667E+01  0.1811E+02
 -12.886  0.6498E+01  0.1818E+02
 -12.876  0.6332E+01  0.1824E+02
 -12.866  0.6167E+01  0.1830E+02
 -12.856  0.6004E+01  0.1836E+02
 -12.846  0.5843E+01  0.1842E+02
 -12.836  0.5684E+01  0.1848E+02
 -12.826  0.5528E+01  0.1853E+02
 -12.816  0.5374E+01  0.1859E+02
 -12.806  0.5221E+01  0.1864E+02
 -12.796  0.5072E+01  0.1869E+02
 -12.786  0.4924E+01  0.1874E+02
 -12.776  0.4780E+01  0.1879E+02
 -12.766  0.4637E+01  0.1883E+02
 -12.756  0.4497E+01  0.1888E+02
 -12.746  0.4360E+01  0.1892E+02
 -12.736  0.4225E+01  0.1897E+02
 -12.726  0.4093E+01  0.1901E+02
 -12.716  0.3963E+01  0.1905E+02
 -12.706  0.3836E+01  0.1908E+02
 -12.696  0.3711E+01  0.1912E+02
 -12.686  0.3590E+01  0.1916E+02
 -12.676  0.3471E+01  0.1919E+02
 -12.666  0.3354E+01  0.1923E+02
 -12.656  0.3240E+01  0.1926E+02
 -12.646  0.3129E+01  0.1929E+02
 -12.636  0.3020E+01  0.1932E+02
 -12.626  0.2914E+01  0.1935E+02
 -12.616  0.2811E+01  0.1938E+02
 -12.606  0.2710E+01  0.1940E+02
 -12.596  0.2612E+01  0.1943E+02
 -12.586  0.2517E+01  0.1946E+02
 -12.576  0.2423E+01  0.1948E+02
 -12.566  0.2333E+01  0.1950E+02
 -12.556  0.2245E+01  0.1953E+02
 -12.546  0.2159E+01  0.1955E+02
 -12.536  0.2076E+01  0.1957E+02
 -12.526  0.1996E+01  0.1959E+02
 -12.516  0.1917E+01  0.1961E+02
 -12.506  0.1841E+01  0.1963E+02
 -12.496  0.1768E+01  0.1964E+02
 -12.486  0.1696E+01  0.1966E+02
 -12.476  0.1627E+01  0.1968E+02
 -12.466  0.1560E+01  0.1969E+02
 -12.456  0.1495E+01  0.1971E+02
 -12.446  0.1433E+01  0.1972E+02
 -12.436  0.1372E+01  0.1973E+02
 -12.426  0.1314E+01  0.1975E+02
 -12.416  0.1257E+01  0.1976E+02
 -12.406  0.1203E+01  0.1977E+02
 -12.396  0.1150E+01  0.1978E+02
 -12.386  0.1099E+01  0.1980E+02
 -12.376  0.1050E+01  0.1981E+02
 -12.366  0.1003E+01  0.1982E+02
 -12.356  0.9575E+00  0.1983E+02
 -12.346  0.9138E+00  0.1983E+02
 -12.336  0.8717E+00  0.1984E+02
 -12.326  0.8312E+00  0.1985E+02
 -12.316  0.7923E+00  0.1986E+02
 -12.306  0.7549E+00  0.1987E+02
 -12.296  0.7189E+00  0.1987E+02
 -12.286  0.6845E+00  0.1988E+02
 -12.276  0.6514E+00  0.1989E+02
 -12.266  0.6196E+00  0.1989E+02
 -12.256  0.5892E+00  0.1990E+02
 -12.246  0.5600E+00  0.1991E+02
 -12.236  0.5321E+00  0.1991E+02
 -12.226  0.5054E+00  0.1992E+02
 -12.216  0.4798E+00  0.1992E+02
 -12.206  0.4553E+00  0.1992E+02
 -12.196  0.4319E+00  0.1993E+02
 -12.186  0.4096E+00  0.1993E+02
 -12.176  0.3882E+00  0.1994E+02
 -12.166  0.3678E+00  0.1994E+02
 -12.156  0.3483E+00  0.1994E+02
 -12.146  0.3298E+00  0.1995E+02
 -12.136  0.3121E+00  0.1995E+02
 -12.126  0.2952E+00  0.1995E+02
 -12.116  0.2791E+00  0.1996E+02
 -12.106  0.2638E+00  0.1996E+02
 -12.096  0.2493E+00  0.1996E+02
 -12.086  0.2354E+00  0.1996E+02
 -12.076  0.2222E+00  0.1997E+02
 -12.066  0.2097E+00  0.1997E+02
 -12.056  0.1978E+00  0.1997E+02
 -12.046  0.1865E+00  0.1997E+02
 -12.036  0.1758E+00  0.1997E+02
 -12.026  0.1656E+00  0.1998E+02
 -12.016  0.1560E+00  0.1998E+02
 -12.006  0.1468E+00  0.1998E+02
 -11.996  0.1382E+00  0.1998E+02
 -11.986  0.1300E+00  0.1998E+02
 -11.976  0.1222E+00  0.1998E+02
 -11.966  0.1149E+00  0.1998E+02
 -11.956  0.1079E+00  0.1998E+02
 -11.946  0.1013E+00  0.1999E+02
 -11.936  0.9512E-01  0.1999E+02
 -11.926  0.8925E-01  0.1999E+02
 -11.916  0.8371E-01  0.1999E+02
 -11.906  0.7849E-01  0.1999E+02
 -11.896  0.7356E-01  0.1999E+02
 -11.886  0.6891E-01  0.1999E+02
 -11.876  0.6453E-01  0.1999E+02
 -11.866  0.6040E-01  0.1999E+02
 -11.856  0.5651E-01  0.1999E+02
 -11.846  0.5286E-01  0.1999E+02
 -11.836  0.4941E-01  0.1999E+02
 -11.826  0.4618E-01  0.1999E+02
 -11.816  0.4314E-01  0.1999E+02
 -11.806  0.4028E-01  0.1999E+02
 -11.796  0.3760E-01  0.2000E+02
 -11.786  0.3508E-01  0.2000E+02
 -11.776  0.3271E-01  0.2000E+02
 -11.766  0.3049E-01  0.2000E+02
 -11.756  0.2842E-01  0.2000E+02
 -11.746  0.2647E-01  0.2000E+02
 -11.736  0.2464E-01  0.2000E+02
 -11.726  0.2294E-01  0.2000E+02
 -11.716  0.2134E-01  0.2000E+02
 -11.706  0.1984E-01  0.2000E+02
 -11.696  0.1845E-01  0.2000E+02
 -11.686  0.1714E-01  0.2000E+02
 -11.676  0.1592E-01  0.2000E+02
 -11.666  0.1478E-01  0.2000E+02
 -11.656  0.1372E-01  0.2000E+02
 -11.646  0.1272E-01  0.2000E+02
 -11.636  0.1180E-01  0.2000E+02
 -11.626  0.1093E-01  0.2000E+02
 -11.616  0.1013E-01  0.2000E+02
 -11.606  0.9383E-02  0.2000E+02
 -11.596  0.8686E-02  0.2000E+02
 -11.586  0.8038E-02  0.2000E+02
 -11.576  0.7435E-02  0.2000E+02
 -11.566  0.6874E-02  0.2000E+02
 -11.556  0.6353E-02  0.2000E+02
 -11.546  0.5869E-02  0.2000E+02
 -11.536  0.5420E-02  0.2000E+02
 -11.526  0.5003E-02  0.2000E+02
 -11.516  0.4616E-02  0.2000E+02
 -11.506  0.4258E-02  0.2000E+02
 -11.496  0.3925E-02  0.2000E+02
 -11.486  0.3617E-02  0.2000E+02
 -11.476  0.3332E-02  0.2000E+02
 -11.466  0.3068E-02  0.2000E+02
 -11.456  0.2824E-02  0.2000E+02
 -11.446  0.2598E-02  0.2000E+02
 -11.436  0.2389E-02  0.2000E+02
 -11.426  0.2197E-02  0.2000E+02
 -11.416  0.2018E-02  0.2000E+02
 -11.406  0.1854E-02  0.2000E+02
 -11.396  0.1702E-02  0.2000E+02
 -11.386  0.1562E-02  0.2000E+02
 -11.376  0.1433E-02  0.2000E+02
 -11.366  0.1314E-02  0.2000E+02
 -11.356  0.1204E-02  0.2000E+02
 -11.346  0.1104E-02  0.2000E+02
 -11.336  0.1011E-02  0.2000E+02
 -11.326  0.9252E-03  0.2000E+02
 -11.316  0.8467E-03  0.2000E+02
 -11.306  0.7744E-03  0.2000E+02
 -11.296  0.7081E-03  0.2000E+02
 -11.286  0.6471E-03  0.2000E+02
 -11.276  0.5912E-03  0.2000E+02
 -11.266  0.5399E-03  0.2000E+02
 -11.256  0.4928E-03  0.2000E+02
 -11.246  0.4496E-03  0.2000E+02
 -11.236  0.4101E-03  0.2000E+02
 -11.226  0.3739E-03  0.2000E+02
 -11.216  0.3407E-03  0.2000E+02
 -11.206  0.3103E-03  0.2000E+02
 -11.196  0.2826E-03  0.2000E+02
 -11.186  0.2572E-03  0.2000E+02
 -11.176  0.2340E-03  0.2000E+02
 -11.166  0.2128E-03  0.2000E+02
 -11.156  0.1934E-03  0.2000E+02
 -11.146  0.1757E-03  0.2000E+02
 -11.136  0.1596E-03  0.2000E+02
 -11.126  0.1449E-03  0.2000E+02
 -11.116  0.1315E-03  0.2000E+02
 -11.106  0.1193E-03  0.2000E+02
 -11.096  0.1082E-03  0.2000E+02
 -11.086  0.9803E-04  0.2000E+02
 -11.076  0.8882E-04  0.2000E+02
 -11.066  0.8043E-04  0.2000E+02
 -11.056  0.7281E-04  0.2000E+02
 -11.046  0.6588E-04  0.2000E+02
 -11.036  0.5958E-04  0.2000E+02
 -11.026  0.5387E-04  0.2000E+02
 -11.016  0.4868E-04  0.2000E+02
 -11.006  0.4398E-04  0.2000E+02
 -10.996  0.3971E-04  0.2000E+02
 -10.986  0.3584E-04  0.2000E+02
 -10.976  0.3233E-04  0.2000E+02
 -10.966  0.2916E-04  0.2000E+02
 -10.956  0.2628E-04  0.2000E+02
 -10.946  0.2368E-04  0.2000E+02
 -10.936  0.2133E-04  0.2000E+02
 -10.926  0.1920E-04  0.2000E+02
 -10.916  0.1728E-04  0.2000E+02
 -10.906  0.1555E-04  0.2000E+02
 -10.896  0.1398E-04  0.2000E+02
 -10.886  0.1256E-04  0.2000E+02
 -10.876  0.1129E-04  0.2000E+02
 -10.866  0.1014E-04  0.2000E+02
 -10.856  0.9099E-05  0.2000E+02
 -10.846  0.8165E-05  0.2000E+02
 -10.836  0.7323E-05  0.2000E+02
 -10.826  0.6565E-05  0.2000E+02
 -10.816  0.5883E-05  0.2000E+02
 -10.806  0.5270E-05  0.2000E+02
 -10.796  0.4719E-05  0.2000E+02
 -10.786  0.4224E-05  0.2000E+02
 -10.776  0.3779E-05  0.2000E+02
 -10.766  0.3379E-05  0.2000E+02
 -10.756  0.3020E-05  0.2000E+02
 -10.746  0.2699E-05  0.2000E+02
 -10.736  0.2410E-05  0.2000E+02
 -10.726  0.2152E-05  0.2000E+02
 -10.716  0.1920E-05  0.2000E+02
 -10.706  0.1713E-05  0.2000E+02
 -10.696  0.1527E-05  0.2000E+02
 -10.686  0.1361E-05  0.2000E+02
 -10.676  0.1213E-05  0.2000E+02
 -10.666  0.1080E-05  0.2000E+02
 -10.656  0.9613E-06  0.2000E+02
 -10.646  0.8553E-06  0.2000E+02
 -10.636  0.7607E-06  0.2000E+02
 -10.626  0.6763E-06  0.2000E+02
 -10.616  0.6010E-06  0.2000E+02
 -10.606  0.5338E-06  0.2000E+02
 -10.596  0.4740E-06  0.2000E+02
 -10.586  0.4206E-06  0.2000E+02
 -10.576  0.3732E-06  0.2000E+02
 -10.566  0.3309E-06  0.2000E+02
 -10.556  0.2933E-06  0.2000E+02
 -10.546  0.2599E-06  0.2000E+02
 -10.536  0.2302E-06  0.2000E+02
 -10.526  0.2038E-06  0.2000E+02
 -10.516  0.1803E-06  0.2000E+02
 -10.506  0.1595E-06  0.2000E+02
 -10.496  0.1410E-06  0.2000E+02
 -10.486  0.1246E-06  0.2000E+02
 -10.476  0.1101E-06  0.2000E+02
 -10.466  0.9720E-07  0.2000E+02
 -10.456  0.8580E-07  0.2000E+02
 -10.446  0.7570E-07  0.2000E+02
 -10.436  0.6676E-07  0.2000E+02
 -10.426  0.5885E-07  0.2000E+02
 -10.416  0.5185E-07  0.2000E+02
 -10.406  0.4567E-07  0.2000E+02
 -10.396  0.4021E-07  0.2000E+02
 -10.386  0.3539E-07  0.2000E+02
 -10.376  0.3113E-07  0.2000E+02
 -10.366  0.2737E-07  0.2000E+02
 -10.356  0.2406E-07  0.2000E+02
 -10.346  0.2113E-07  0.2000E+02
 -10.336  0.1856E-07  0.2000E+02
 -10.326  0.1629E-07  0.2000E+02
 -10.316  0.1429E-07  0.2000E+02
 -10.306  0.1254E-07  0.2000E+02
 -10.296  0.1099E-07  0.2000E+02
 -10.286  0.9632E-08  0.2000E+02
 -10.276  0.8437E-08  0.2000E+02
 -10.266  0.7387E-08  0.2000E+02
 -10.256  0.6465E-08  0.2000E+02
 -10.246  0.5656E-08  0.2000E+02
 -10.236  0.4946E-08  0.2000E+02
 -10.226  0.4323E-08  0.2000E+02
 -10.216  0.3777E-08  0.2000E+02
 -10.206  0.3299E-08  0.2000E+02
 -10.196  0.2880E-08  0.2000E+02
 -10.186  0.2513E-08  0.2000E+02
 -10.176  0.2192E-08  0.2000E+02
 -10.166  0.1911E-08  0.2000E+02
 -10.156  0.1665E-08  0.2000E+02
 -10.146  0.1451E-08  0.2000E+02
 -10.136  0.1263E-08  0.2000E+02
 -10.126  0.1100E-08  0.2000E+02
 -10.116  0.9566E-09  0.2000E+02
 -10.106  0.8319E-09  0.2000E+02
 -10.096  0.7232E-09  0.2000E+02
 -10.086  0.6284E-09  0.2000E+02
 -10.076  0.5458E-09  0.2000E+02
 -10.066  0.4738E-09  0.2000E+02
 -10.056  0.4112E-09  0.2000E+02
 -10.046  0.3567E-09  0.2000E+02
 -10.036  0.3093E-09  0.2000E+02
 -10.026  0.2680E-09  0.2000E+02
 -10.016  0.2322E-09  0.2000E+02
 -10.006  0.2011E-09  0.2000E+02
  -9.996  0.1741E-09  0.2000E+02
  -9.986  0.1506E-09  0.2000E+02
  -9.976  0.1302E-09  0.2000E+02
  -9.966  0.1126E-09  0.2000E+02
  -9.956  0.9729E-10  0.2000E+02
  -9.946  0.8404E-10  0.2000E+02
  -9.936  0.7256E-10  0.2000E+02
  -9.926  0.6262E-10  0.2000E+02
  -9.916  0.5402E-10  0.2000E+02
  -9.906  0.4658E-10  0.2000E+02
  -9.896  0.4015E-10  0.2000E+02
  -9.886  0.3459E-10  0.2000E+02
  -9.876  0.2979E-10  0.2000E+02
  -9.866  0.2564E-10  0.2000E+02
  -9.856  0.2206E-10  0.2000E+02
  -9.846  0.1898E-10  0.2000E+02
  -9.836  0.1631E-10  0.2000E+02
  -9.826  0.1402E-10  0.2000E+02
  -9.816  0.1204E-10  0.2000E+02
  -9.806  0.1034E-10  0.2000E+02
  -9.796  0.8874E-11  0.2000E+02
  -9.786  0.7613E-11  0.2000E+02
  -9.776  0.6528E-11  0.2000E+02
  -9.766  0.5596E-11  0.2000E+02
  -9.756  0.4794E-11  0.2000E+02
  -9.746  0.4106E-11  0.2000E+02
  -9.736  0.3515E-11  0.2000E+02
  -9.726  0.3008E-11  0.2000E+02
  -9.716  0.2573E-11  0.2000E+02
  -9.706  0.2199E-11  0.2000E+02
  -9.696  0.1880E-11  0.2000E+02
  -9.686  0.1606E-11  0.2000E+02
  -9.676  0.1371E-11  0.2000E+02
  -9.666  0.1170E-11  0.2000E+02
  -9.656  0.9983E-12  0.2000E+02
  -9.646  0.8513E-12  0.2000E+02
  -9.636  0.7257E-12  0.2000E+02
  -9.626  0.6183E-12  0.2000E+02
  -9.616  0.5266E-12  0.2000E+02
  -9.606  0.4483E-12  0.2000E+02
  -9.596  0.3815E-12  0.2000E+02
  -9.586  0.3245E-12  0.2000E+02
  -9.576  0.2759E-12  0.2000E+02
  -9.566  0.2345E-12  0.2000E+02
  -9.556  0.1992E-12  0.2000E+02
  -9.546  0.1692E-12  0.2000E+02
  -9.536  0.1436E-12  0.2000E+02
  -9.526  0.1218E-12  0.2000E+02
  -9.516  0.1033E-12  0.2000E+02
  -9.506  0.8757E-13  0.2000E+02
  -9.496  0.7420E-13  0.2000E+02
  -9.486  0.6285E-13  0.2000E+02
  -9.476  0.5321E-13  0.2000E+02
  -9.466  0.4503E-13  0.2000E+02
  -9.456  0.3809E-13  0.2000E+02
  -9.446  0.3220E-13  0.2000E+02
  -9.436  0.2722E-13  0.2000E+02
  -9.426  0.2299E-13  0.2000E+02
  -9.416  0.1942E-13  0.2000E+02
  -9.406  0.1639E-13  0.2000E+02
  -9.396  0.1383E-13  0.2000E+02
  -9.386  0.1166E-13  0.2000E+02
  -9.376  0.9831E-14  0.2000E+02
  -9.366  0.8284E-14  0.2000E+02
  -9.356  0.6978E-14  0.2000E+02
  -9.346  0.5875E-14  0.2000E+02
  -9.336  0.4944E-14  0.2000E+02
  -9.326  0.4159E-14  0.2000E+02
  -9.316  0.3497E-14  0.2000E+02
  -9.306  0.2939E-14  0.2000E+02
  -9.296  0.2469E-14  0.2000E+02
  -9.286  0.2073E-14  0.2000E+02
  -9.276  0.1740E-14  0.2000E+02
  -9.266  0.1460E-14  0.2000E+02
  -9.256  0.1225E-14  0.2000E+02
  -9.246  0.1027E-14  0.2000E+02
  -9.236  0.8604E-15  0.2000E+02
  -9.226  0.7207E-15  0.2000E+02
  -9.216  0.6034E-15  0.2000E+02
  -9.206  0.5050E-15  0.2000E+02
  -9.196  0.4224E-15  0.2000E+02
  -9.186  0.3532E-15  0.2000E+02
  -9.176  0.2952E-15  0.2000E+02
  -9.166  0.2467E-15  0.2000E+02
  -9.156  0.2060E-15  0.2000E+02
  -9.146  0.1719E-15  0.2000E+02
  -9.136  0.1435E-15  0.2000E+02
  -9.126  0.1197E-15  0.2000E+02
  -9.116  0.9976E-16  0.2000E+02
  -9.106  0.8313E-16  0.2000E+02
  -9.096  0.6924E-16  0.2000E+02
  -9.086  0.5765E-16  0.2000E+02
  -9.076  0.4798E-16  0.2000E+02
  -9.066  0.3992E-16  0.2000E+02
  -9.056  0.3319E-16  0.2000E+02
  -9.046  0.2759E-16  0.2000E+02
  -9.036  0.2292E-16  0.2000E+02
  -9.026  0.1904E-16  0.2000E+02
  -9.016  0.1580E-16  0.2000E+02
  -9.006  0.1311E-16  0.2000E+02
  -8.996  0.1087E-16  0.2000E+02
  -8.986  0.9016E-17  0.2000E+02
  -8.976  0.7471E-17  0.2000E+02
  -8.966  0.6189E-17  0.2000E+02
  -8.956  0.5124E-17  0.2000E+02
  -8.946  0.4241E-17  0.2000E+02
  -8.936  0.3508E-17  0.2000E+02
  -8.926  0.2901E-17  0.2000E+02
  -8.916  0.2398E-17  0.2000E+02
  -8.906  0.1981E-17  0.2000E+02
  -8.896  0.1636E-17  0.2000E+02
  -8.886  0.1351E-17  0.2000E+02
  -8.876  0.1115E-17  0.2000E+02
  -8.866  0.9193E-18  0.2000E+02
  -8.856  0.7579E-18  0.2000E+02
  -8.846  0.6246E-18  0.2000E+02
  -8.836  0.5145E-18  0.2000E+02
  -8.826  0.4236E-18  0.2000E+02
  -8.816  0.3487E-18  0.2000E+02
  -8.806  0.2868E-18  0.2000E+02
  -8.796  0.2359E-18  0.2000E+02
  -8.786  0.1939E-18  0.2000E+02
  -8.776  0.1593E-18  0.2000E+02
  -8.766  0.1308E-18  0.2000E+02
  -8.756  0.1074E-18  0.2000E+02
  -8.746  0.8812E-19  0.2000E+02
  -8.736  0.7228E-19  0.2000E+02
  -8.726  0.5926E-19  0.2000E+02
  -8.716  0.4856E-19  0.2000E+02
  -8.706  0.3978E-19  0.2000E+02
  -8.696  0.3257E-19  0.2000E+02
  -8.686  0.2666E-19  0.2000E+02
  -8.676  0.2181E-19  0.2000E+02
  -8.666  0.1784E-19  0.2000E+02
  -8.656  0.1458E-19  0.2000E+02
  -8.646  0.1191E-19  0.2000E+02
  -8.636  0.9728E-20  0.2000E+02
  -8.626  0.7942E-20  0.2000E+02
  -8.616  0.6480E-20  0.2000E+02
  -8.606  0.5286E-20  0.2000E+02
  -8.596  0.4310E-20  0.2000E+02
  -8.586  0.3512E-20  0.2000E+02
  -8.576  0.2861E-20  0.2000E+02
  -8.566  0.2330E-20  0.2000E+02
  -8.556  0.1896E-20  0.2000E+02
  -8.546  0.1542E-20  0.2000E+02
  -8.536  0.1254E-20  0.2000E+02
  -8.526  0.1020E-20  0.2000E+02
  -8.516  0.8284E-21  0.2000E+02
  -8.506  0.6728E-21  0.2000E+02
  -8.496  0.5462E-21  0.2000E+02
  -8.486  0.4432E-21  0.2000E+02
  -8.476  0.3595E-21  0.2000E+02
  -8.466  0.2915E-21  0.2000E+02
  -8.456  0.2362E-21  0.2000E+02
  -8.446  0.1914E-21  0.2000E+02
  -8.436  0.1549E-21  0.2000E+02
  -8.426  0.1254E-21  0.2000E+02
  -8.416  0.1015E-21  0.2000E+02
  -8.406  0.8205E-22  0.2000E+02
  -8.396  0.6632E-22  0.2000E+02
  -8.386  0.5359E-22  0.2000E+02
  -8.376  0.4328E-22  0.2000E+02
  -8.366  0.3494E-22  0.2000E+02
  -8.356  0.2819E-22  0.2000E+02
  -8.346  0.2274E-22  0.2000E+02
  -8.336  0.1833E-22  0.2000E+02
  -8.326  0.1478E-22  0.2000E+02
  -8.316  0.1190E-22  0.2000E+02
  -8.306  0.9584E-23  0.2000E+02
  -8.296  0.7714E-23  0.2000E+02
  -8.286  0.6206E-23  0.2000E+02
  -8.276  0.4991E-23  0.2000E+02
  -8.266  0.4012E-23  0.2000E+02
  -8.256  0.3223E-23  0.2000E+02
  -8.246  0.2589E-23  0.2000E+02
  -8.236  0.2078E-23  0.2000E+02
  -8.226  0.1668E-23  0.2000E+02
  -8.216  0.1338E-23  0.2000E+02
  -8.206  0.1073E-23  0.2000E+02
  -8.196  0.8595E-24  0.2000E+02
  -8.186  0.6886E-24  0.2000E+02
  -8.176  0.5513E-24  0.2000E+02
  -8.166  0.4413E-24  0.2000E+02
  -8.156  0.3530E-24  0.2000E+02
  -8.146  0.2823E-24  0.2000E+02
  -8.136  0.2257E-24  0.2000E+02
  -8.126  0.1803E-24  0.2000E+02
  -8.116  0.1440E-24  0.2000E+02
  -8.106  0.1150E-24  0.2000E+02
  -8.096  0.9175E-25  0.2000E+02
  -8.086  0.7319E-25  0.2000E+02
  -8.076  0.5835E-25  0.2000E+02
  -8.066  0.4651E-25  0.2000E+02
  -8.056  0.3705E-25  0.2000E+02
  -8.046  0.2951E-25  0.2000E+02
  -8.036  0.2349E-25  0.2000E+02
  -8.026  0.1870E-25  0.2000E+02
  -8.016  0.1488E-25  0.2000E+02
  -8.006  0.1184E-25  0.2000E+02
  -7.996  0.9421E-26  0.2000E+02
  -7.986  0.7500E-26  0.2000E+02
  -7.976  0.5977E-26  0.2000E+02
  -7.966  0.4772E-26  0.2000E+02
  -7.956  0.3822E-26  0.2000E+02
  -7.946  0.3076E-26  0.2000E+02
  -7.936  0.2496E-26  0.2000E+02
  -7.926  0.2049E-26  0.2000E+02
  -7.916  0.1713E-26  0.2000E+02
  -7.906  0.1470E-26  0.2000E+02
  -7.896  0.1306E-26  0.2000E+02
  -7.886  0.1212E-26  0.2000E+02
  -7.876  0.1182E-26  0.2000E+02
  -7.866  0.1214E-26  0.2000E+02
  -7.856  0.1310E-26  0.2000E+02
  -7.846  0.1473E-26  0.2000E+02
  -7.836  0.1712E-26  0.2000E+02
  -7.826  0.2037E-26  0.2000E+02
  -7.816  0.2463E-26  0.2000E+02
  -7.806  0.3012E-26  0.2000E+02
  -7.796  0.3709E-26  0.2000E+02
  -7.786  0.4589E-26  0.2000E+02
  -7.776  0.5692E-26  0.2000E+02
  -7.766  0.7071E-26  0.2000E+02
  -7.756  0.8792E-26  0.2000E+02
  -7.746  0.1094E-25  0.2000E+02
  -7.736  0.1361E-25  0.2000E+02
  -7.726  0.1692E-25  0.2000E+02
  -7.716  0.2105E-25  0.2000E+02
  -7.706  0.2616E-25  0.2000E+02
  -7.696  0.3252E-25  0.2000E+02
  -7.686  0.4040E-25  0.2000E+02
  -7.676  0.5016E-25  0.2000E+02
  -7.666  0.6227E-25  0.2000E+02
  -7.656  0.7726E-25  0.2000E+02
  -7.646  0.9583E-25  0.2000E+02
  -7.636  0.1188E-24  0.2000E+02
  -7.626  0.1472E-24  0.2000E+02
  -7.616  0.1824E-24  0.2000E+02
  -7.606  0.2258E-24  0.2000E+02
  -7.596  0.2795E-24  0.2000E+02
  -7.586  0.3458E-24  0.2000E+02
  -7.576  0.4276E-24  0.2000E+02
  -7.566  0.5285E-24  0.2000E+02
  -7.556  0.6530E-24  0.2000E+02
  -7.546  0.8065E-24  0.2000E+02
  -7.536  0.9957E-24  0.2000E+02
  -7.526  0.1229E-23  0.2000E+02
  -7.516  0.1515E-23  0.2000E+02
  -7.506  0.1868E-23  0.2000E+02
  -7.496  0.2303E-23  0.2000E+02
  -7.486  0.2837E-23  0.2000E+02
  -7.476  0.3493E-23  0.2000E+02
  -7.466  0.4299E-23  0.2000E+02
  -7.456  0.5289E-23  0.2000E+02
  -7.446  0.6505E-23  0.2000E+02
  -7.436  0.7996E-23  0.2000E+02
  -7.426  0.9825E-23  0.2000E+02
  -7.416  0.1207E-22  0.2000E+02
  -7.406  0.1482E-22  0.2000E+02
  -7.396  0.1818E-22  0.2000E+02
  -7.386  0.2230E-22  0.2000E+02
  -7.376  0.2734E-22  0.2000E+02
  -7.366  0.3351E-22  0.2000E+02
  -7.356  0.4106E-22  0.2000E+02
  -7.346  0.5028E-22  0.2000E+02
  -7.336  0.6154E-22  0.2000E+02
  -7.326  0.7530E-22  0.2000E+02
  -7.316  0.9209E-22  0.2000E+02
  -7.306  0.1126E-21  0.2000E+02
  -7.296  0.1376E-21  0.2000E+02
  -7.286  0.1680E-21  0.2000E+02
  -7.276  0.2051E-21  0.2000E+02
  -7.266  0.2504E-21  0.2000E+02
  -7.256  0.3054E-21  0.2000E+02
  -7.246  0.3724E-21  0.2000E+02
  -7.236  0.4539E-21  0.2000E+02
  -7.226  0.5530E-21  0.2000E+02
  -7.216  0.6735E-21  0.2000E+02
  -7.206  0.8198E-21  0.2000E+02
  -7.196  0.9975E-21  0.2000E+02
  -7.186  0.1213E-20  0.2000E+02
  -7.176  0.1475E-20  0.2000E+02
  -7.166  0.1792E-20  0.2000E+02
  -7.156  0.2177E-20  0.2000E+02
  -7.146  0.2644E-20  0.2000E+02
  -7.136  0.3209E-20  0.2000E+02
  -7.126  0.3892E-20  0.2000E+02
  -7.116  0.4720E-20  0.2000E+02
  -7.106  0.5721E-20  0.2000E+02
  -7.096  0.6932E-20  0.2000E+02
  -7.086  0.8396E-20  0.2000E+02
  -7.076  0.1016E-19  0.2000E+02
  -7.066  0.1230E-19  0.2000E+02
  -7.056  0.1488E-19  0.2000E+02
  -7.046  0.1799E-19  0.2000E+02
  -7.036  0.2174E-19  0.2000E+02
  -7.026  0.2626E-19  0.2000E+02
  -7.016  0.3171E-19  0.2000E+02
  -7.006  0.3827E-19  0.2000E+02
  -6.996  0.4617E-19  0.2000E+02
  -6.986  0.5568E-19  0.2000E+02
  -6.976  0.6712E-19  0.2000E+02
  -6.966  0.8088E-19  0.2000E+02
  -6.956  0.9741E-19  0.2000E+02
  -6.946  0.1173E-18  0.2000E+02
  -6.936  0.1411E-18  0.2000E+02
  -6.926  0.1698E-18  0.2000E+02
  -6.916  0.2041E-18  0.2000E+02
  -6.906  0.2453E-18  0.2000E+02
  -6.896  0.2947E-18  0.2000E+02
  -6.886  0.3539E-18  0.2000E+02
  -6.876  0.4248E-18  0.2000E+02
  -6.866  0.5097E-18  0.2000E+02
  -6.856  0.6114E-18  0.2000E+02
  -6.846  0.7329E-18  0.2000E+02
  -6.836  0.8783E-18  0.2000E+02
  -6.826  0.1052E-17  0.2000E+02
  -6.816  0.1260E-17  0.2000E+02
  -6.806  0.1507E-17  0.2000E+02
  -6.796  0.1803E-17  0.2000E+02
  -6.786  0.2156E-17  0.2000E+02
  -6.776  0.2577E-17  0.2000E+02
  -6.766  0.3079E-17  0.2000E+02
  -6.756  0.3678E-17  0.2000E+02
  -6.746  0.4390E-17  0.2000E+02
  -6.736  0.5239E-17  0.2000E+02
  -6.726  0.6248E-17  0.2000E+02
  -6.716  0.7450E-17  0.2000E+02
  -6.706  0.8878E-17  0.2000E+02
  -6.696  0.1058E-16  0.2000E+02
  -6.686  0.1259E-16  0.2000E+02
  -6.676  0.1499E-16  0.2000E+02
  -6.666  0.1783E-16  0.2000E+02
  -6.656  0.2121E-16  0.2000E+02
  -6.646  0.2521E-16  0.2000E+02
  -6.636  0.2995E-16  0.2000E+02
  -6.626  0.3557E-16  0.2000E+02
  -6.616  0.4223E-16  0.2000E+02
  -6.606  0.5012E-16  0.2000E+02
  -6.596  0.5945E-16  0.2000E+02
  -6.586  0.7049E-16  0.2000E+02
  -6.576  0.8354E-16  0.2000E+02
  -6.566  0.9897E-16  0.2000E+02
  -6.556  0.1172E-15  0.2000E+02
  -6.546  0.1387E-15  0.2000E+02
  -6.536  0.1641E-15  0.2000E+02
  -6.526  0.1941E-15  0.2000E+02
  -6.516  0.2295E-15  0.2000E+02
  -6.506  0.2712E-15  0.2000E+02
  -6.496  0.3203E-15  0.2000E+02
  -6.486  0.3782E-15  0.2000E+02
  -6.476  0.4464E-15  0.2000E+02
  -6.466  0.5266E-15  0.2000E+02
  -6.456  0.6210E-15  0.2000E+02
  -6.446  0.7319E-15  0.2000E+02
  -6.436  0.8624E-15  0.2000E+02
  -6.426  0.1016E-14  0.2000E+02
  -6.416  0.1196E-14  0.2000E+02
  -6.406  0.1407E-14  0.2000E+02
  -6.396  0.1655E-14  0.2000E+02
  -6.386  0.1946E-14  0.2000E+02
  -6.376  0.2286E-14  0.2000E+02
  -6.366  0.2686E-14  0.2000E+02
  -6.356  0.3154E-14  0.2000E+02
  -6.346  0.3702E-14  0.2000E+02
  -6.336  0.4343E-14  0.2000E+02
  -6.326  0.5094E-14  0.2000E+02
  -6.316  0.5971E-14  0.2000E+02
  -6.306  0.6996E-14  0.2000E+02
  -6.296  0.8195E-14  0.2000E+02
  -6.286  0.9594E-14  0.2000E+02
  -6.276  0.1123E-13  0.2000E+02
  -6.266  0.1313E-13  0.2000E+02
  -6.256  0.1536E-13  0.2000E+02
  -6.246  0.1795E-13  0.2000E+02
  -6.236  0.2097E-13  0.2000E+02
  -6.226  0.2449E-13  0.2000E+02
  -6.216  0.2859E-13  0.2000E+02
  -6.206  0.3336E-13  0.2000E+02
  -6.196  0.3891E-13  0.2000E+02
  -6.186  0.4536E-13  0.2000E+02
  -6.176  0.5286E-13  0.2000E+02
  -6.166  0.6157E-13  0.2000E+02
  -6.156  0.7169E-13  0.2000E+02
  -6.146  0.8344E-13  0.2000E+02
  -6.136  0.9708E-13  0.2000E+02
  -6.126  0.1129E-12  0.2000E+02
  -6.116  0.1312E-12  0.2000E+02
  -6.106  0.1525E-12  0.2000E+02
  -6.096  0.1771E-12  0.2000E+02
  -6.086  0.2056E-12  0.2000E+02
  -6.076  0.2386E-12  0.2000E+02
  -6.066  0.2768E-12  0.2000E+02
  -6.056  0.3209E-12  0.2000E+02
  -6.046  0.3719E-12  0.2000E+02
  -6.036  0.4309E-12  0.2000E+02
  -6.026  0.4990E-12  0.2000E+02
  -6.016  0.5776E-12  0.2000E+02
  -6.006  0.6683E-12  0.2000E+02
  -5.996  0.7729E-12  0.2000E+02
  -5.986  0.8936E-12  0.2000E+02
  -5.976  0.1033E-11  0.2000E+02
  -5.966  0.1193E-11  0.2000E+02
  -5.956  0.1377E-11  0.2000E+02
  -5.946  0.1590E-11  0.2000E+02
  -5.936  0.1834E-11  0.2000E+02
  -5.926  0.2115E-11  0.2000E+02
  -5.916  0.2438E-11  0.2000E+02
  -5.906  0.2809E-11  0.2000E+02
  -5.896  0.3235E-11  0.2000E+02
  -5.886  0.3724E-11  0.2000E+02
  -5.876  0.4286E-11  0.2000E+02
  -5.866  0.4930E-11  0.2000E+02
  -5.856  0.5668E-11  0.2000E+02
  -5.846  0.6515E-11  0.2000E+02
  -5.836  0.7484E-11  0.2000E+02
  -5.826  0.8594E-11  0.2000E+02
  -5.816  0.9865E-11  0.2000E+02
  -5.806  0.1132E-10  0.2000E+02
  -5.796  0.1298E-10  0.2000E+02
  -5.786  0.1488E-10  0.2000E+02
  -5.776  0.1706E-10  0.2000E+02
  -5.766  0.1954E-10  0.2000E+02
  -5.756  0.2237E-10  0.2000E+02
  -5.746  0.2560E-10  0.2000E+02
  -5.736  0.2929E-10  0.2000E+02
  -5.726  0.3350E-10  0.2000E+02
  -5.716  0.3829E-10  0.2000E+02
  -5.706  0.4375E-10  0.2000E+02
  -5.696  0.4997E-10  0.2000E+02
  -5.686  0.5705E-10  0.2000E+02
  -5.676  0.6510E-10  0.2000E+02
  -5.666  0.7426E-10  0.2000E+02
  -5.656  0.8467E-10  0.2000E+02
  -5.646  0.9651E-10  0.2000E+02
  -5.636  0.1099E-09  0.2000E+02
  -5.626  0.1252E-09  0.2000E+02
  -5.616  0.1425E-09  0.2000E+02
  -5.606  0.1622E-09  0.2000E+02
  -5.596  0.1845E-09  0.2000E+02
  -5.586  0.2097E-09  0.2000E+02
  -5.576  0.2383E-09  0.2000E+02
  -5.566  0.2707E-09  0.2000E+02
  -5.556  0.3074E-09  0.2000E+02
  -5.546  0.3489E-09  0.2000E+02
  -5.536  0.3958E-09  0.2000E+02
  -5.526  0.4489E-09  0.2000E+02
  -5.516  0.5089E-09  0.2000E+02
  -5.506  0.5766E-09  0.2000E+02
  -5.496  0.6531E-09  0.2000E+02
  -5.486  0.7395E-09  0.2000E+02
  -5.476  0.8369E-09  0.2000E+02
  -5.466  0.9467E-09  0.2000E+02
  -5.456  0.1071E-08  0.2000E+02
  -5.446  0.1210E-08  0.2000E+02
  -5.436  0.1367E-08  0.2000E+02
  -5.426  0.1544E-08  0.2000E+02
  -5.416  0.1743E-08  0.2000E+02
  -5.406  0.1967E-08  0.2000E+02
  -5.396  0.2218E-08  0.2000E+02
  -5.386  0.2501E-08  0.2000E+02
  -5.376  0.2819E-08  0.2000E+02
  -5.366  0.3176E-08  0.2000E+02
  -5.356  0.3576E-08  0.2000E+02
  -5.346  0.4026E-08  0.2000E+02
  -5.336  0.4529E-08  0.2000E+02
  -5.326  0.5094E-08  0.2000E+02
  -5.316  0.5727E-08  0.2000E+02
  -5.306  0.6436E-08  0.2000E+02
  -5.296  0.7229E-08  0.2000E+02
  -5.286  0.8117E-08  0.2000E+02
  -5.276  0.9111E-08  0.2000E+02
  -5.266  0.1022E-07  0.2000E+02
  -5.256  0.1146E-07  0.2000E+02
  -5.246  0.1285E-07  0.2000E+02
  -5.236  0.1440E-07  0.2000E+02
  -5.226  0.1613E-07  0.2000E+02
  -5.216  0.1806E-07  0.2000E+02
  -5.206  0.2021E-07  0.2000E+02
  -5.196  0.2260E-07  0.2000E+02
  -5.186  0.2528E-07  0.2000E+02
  -5.176  0.2825E-07  0.2000E+02
  -5.166  0.3157E-07  0.2000E+02
  -5.156  0.3525E-07  0.2000E+02
  -5.146  0.3936E-07  0.2000E+02
  -5.136  0.4392E-07  0.2000E+02
  -5.126  0.4899E-07  0.2000E+02
  -5.116  0.5462E-07  0.2000E+02
  -5.106  0.6088E-07  0.2000E+02
  -5.096  0.6782E-07  0.2000E+02
  -5.086  0.7553E-07  0.2000E+02
  -5.076  0.8407E-07  0.2000E+02
  -5.066  0.9355E-07  0.2000E+02
  -5.056  0.1040E-06  0.2000E+02
  -5.046  0.1157E-06  0.2000E+02
  -5.036  0.1286E-06  0.2000E+02
  -5.026  0.1428E-06  0.2000E+02
  -5.016  0.1586E-06  0.2000E+02
  -5.006  0.1760E-06  0.2000E+02
  -4.996  0.1953E-06  0.2000E+02
  -4.986  0.2166E-06  0.2000E+02
  -4.976  0.2401E-06  0.2000E+02
  -4.966  0.2661E-06  0.2000E+02
  -4.956  0.2948E-06  0.2000E+02
  -4.946  0.3264E-06  0.2000E+02
  -4.936  0.3612E-06  0.2000E+02
  -4.926  0.3996E-06  0.2000E+02
  -4.916  0.4419E-06  0.2000E+02
  -4.906  0.4885E-06  0.2000E+02
  -4.896  0.5398E-06  0.2000E+02
  -4.886  0.5963E-06  0.2000E+02
  -4.876  0.6583E-06  0.2000E+02
  -4.866  0.7266E-06  0.2000E+02
  -4.856  0.8015E-06  0.2000E+02
  -4.846  0.8839E-06  0.2000E+02
  -4.836  0.9743E-06  0.2000E+02
  -4.826  0.1074E-05  0.2000E+02
  -4.816  0.1182E-05  0.2000E+02
  -4.806  0.1302E-05  0.2000E+02
  -4.796  0.1433E-05  0.2000E+02
  -4.786  0.1576E-05  0.2000E+02
  -4.776  0.1733E-05  0.2000E+02
  -4.766  0.1905E-05  0.2000E+02
  -4.756  0.2093E-05  0.2000E+02
  -4.746  0.2298E-05  0.2000E+02
  -4.736  0.2523E-05  0.2000E+02
  -4.726  0.2769E-05  0.2000E+02
  -4.716  0.3037E-05  0.2000E+02
  -4.706  0.3330E-05  0.2000E+02
  -4.696  0.3650E-05  0.2000E+02
  -4.686  0.3999E-05  0.2000E+02
  -4.676  0.4380E-05  0.2000E+02
  -4.666  0.4795E-05  0.2000E+02
  -4.656  0.5247E-05  0.2000E+02
  -4.646  0.5739E-05  0.2000E+02
  -4.636  0.6275E-05  0.2000E+02
  -4.626  0.6859E-05  0.2000E+02
  -4.616  0.7493E-05  0.2000E+02
  -4.606  0.8183E-05  0.2000E+02
  -4.596  0.8933E-05  0.2000E+02
  -4.586  0.9748E-05  0.2000E+02
  -4.576  0.1063E-04  0.2000E+02
  -4.566  0.1159E-04  0.2000E+02
  -4.556  0.1264E-04  0.2000E+02
  -4.546  0.1377E-04  0.2000E+02
  -4.536  0.1499E-04  0.2000E+02
  -4.526  0.1632E-04  0.2000E+02
  -4.516  0.1776E-04  0.2000E+02
  -4.506  0.1932E-04  0.2000E+02
  -4.496  0.2100E-04  0.2000E+02
  -4.486  0.2283E-04  0.2000E+02
  -4.476  0.2480E-04  0.2000E+02
  -4.466  0.2693E-04  0.2000E+02
  -4.456  0.2923E-04  0.2000E+02
  -4.446  0.3172E-04  0.2000E+02
  -4.436  0.3441E-04  0.2000E+02
  -4.426  0.3731E-04  0.2000E+02
  -4.416  0.4044E-04  0.2000E+02
  -4.406  0.4381E-04  0.2000E+02
  -4.396  0.4744E-04  0.2000E+02
  -4.386  0.5136E-04  0.2000E+02
  -4.376  0.5557E-04  0.2000E+02
  -4.366  0.6011E-04  0.2000E+02
  -4.356  0.6500E-04  0.2000E+02
  -4.346  0.7025E-04  0.2000E+02
  -4.336  0.7590E-04  0.2000E+02
  -4.326  0.8197E-04  0.2000E+02
  -4.316  0.8849E-04  0.2000E+02
  -4.306  0.9549E-04  0.2000E+02
  -4.296  0.1030E-03  0.2000E+02
  -4.286  0.1111E-03  0.2000E+02
  -4.276  0.1197E-03  0.2000E+02
  -4.266  0.1290E-03  0.2000E+02
  -4.256  0.1389E-03  0.2000E+02
  -4.246  0.1496E-03  0.2000E+02
  -4.236  0.1609E-03  0.2000E+02
  -4.226  0.1731E-03  0.2000E+02
  -4.216  0.1862E-03  0.2000E+02
  -4.206  0.2001E-03  0.2000E+02
  -4.196  0.2150E-03  0.2000E+02
  -4.186  0.2309E-03  0.2000E+02
  -4.176  0.2479E-03  0.2000E+02
  -4.166  0.2661E-03  0.2000E+02
  -4.156  0.2855E-03  0.2000E+02
  -4.146  0.3061E-03  0.2000E+02
  -4.136  0.3282E-03  0.2000E+02
  -4.126  0.3517E-03  0.2000E+02
  -4.116  0.3767E-03  0.2000E+02
  -4.106  0.4033E-03  0.2000E+02
  -4.096  0.4317E-03  0.2000E+02
  -4.086  0.4619E-03  0.2000E+02
  -4.076  0.4939E-03  0.2000E+02
  -4.066  0.5281E-03  0.2000E+02
  -4.056  0.5643E-03  0.2000E+02
  -4.046  0.6029E-03  0.2000E+02
  -4.036  0.6438E-03  0.2000E+02
  -4.026  0.6872E-03  0.2000E+02
  -4.016  0.7332E-03  0.2000E+02
  -4.006  0.7821E-03  0.2000E+02
  -3.996  0.8339E-03  0.2000E+02
  -3.986  0.8887E-03  0.2000E+02
  -3.976  0.9469E-03  0.2000E+02
  -3.966  0.1008E-02  0.2000E+02
  -3.956  0.1074E-02  0.2000E+02
  -3.946  0.1142E-02  0.2000E+02
  -3.936  0.1215E-02  0.2000E+02
  -3.926  0.1292E-02  0.2000E+02
  -3.916  0.1374E-02  0.2000E+02
  -3.906  0.1460E-02  0.2000E+02
  -3.896  0.1550E-02  0.2000E+02
  -3.886  0.1646E-02  0.2000E+02
  -3.876  0.1747E-02  0.2000E+02
  -3.866  0.1854E-02  0.2000E+02
  -3.856  0.1966E-02  0.2000E+02
  -3.846  0.2085E-02  0.2000E+02
  -3.836  0.2209E-02  0.2000E+02
  -3.826  0.2340E-02  0.2000E+02
  -3.816  0.2478E-02  0.2000E+02
  -3.806  0.2624E-02  0.2000E+02
  -3.796  0.2776E-02  0.2000E+02
  -3.786  0.2937E-02  0.2000E+02
  -3.776  0.3106E-02  0.2000E+02
  -3.766  0.3283E-02  0.2000E+02
  -3.756  0.3469E-02  0.2000E+02
  -3.746  0.3664E-02  0.2000E+02
  -3.736  0.3868E-02  0.2000E+02
  -3.726  0.4083E-02  0.2000E+02
  -3.716  0.4308E-02  0.2000E+02
  -3.706  0.4544E-02  0.2000E+02
  -3.696  0.4791E-02  0.2000E+02
  -3.686  0.5049E-02  0.2000E+02
  -3.676  0.5319E-02  0.2000E+02
  -3.666  0.5602E-02  0.2000E+02
  -3.656  0.5898E-02  0.2000E+02
  -3.646  0.6207E-02  0.2000E+02
  -3.636  0.6530E-02  0.2000E+02
  -3.626  0.6867E-02  0.2000E+02
  -3.616  0.7219E-02  0.2000E+02
  -3.606  0.7587E-02  0.2000E+02
  -3.596  0.7970E-02  0.2000E+02
  -3.586  0.8370E-02  0.2000E+02
  -3.576  0.8786E-02  0.2000E+02
  -3.566  0.9220E-02  0.2000E+02
  -3.556  0.9672E-02  0.2000E+02
  -3.546  0.1014E-01  0.2000E+02
  -3.536  0.1063E-01  0.2000E+02
  -3.526  0.1114E-01  0.2000E+02
  -3.516  0.1167E-01  0.2000E+02
  -3.506  0.1222E-01  0.2000E+02
  -3.496  0.1279E-01  0.2000E+02
  -3.486  0.1339E-01  0.2000E+02
  -3.476  0.1400E-01  0.2000E+02
  -3.466  0.1465E-01  0.2000E+02
  -3.456  0.1531E-01  0.2000E+02
  -3.446  0.1600E-01  0.2000E+02
  -3.436  0.1671E-01  0.2000E+02
  -3.426  0.1745E-01  0.2000E+02
  -3.416  0.1822E-01  0.2000E+02
  -3.406  0.1901E-01  0.2000E+02
  -3.396  0.1983E-01  0.2000E+02
  -3.386  0.2068E-01  0.2000E+02
  -3.376  0.2156E-01  0.2000E+02
  -3.366  0.2247E-01  0.2000E+02
  -3.356  0.2341E-01  0.2001E+02
  -3.346  0.2438E-01  0.2001E+02
  -3.336  0.2538E-01  0.2001E+02
  -3.326  0.2641E-01  0.2001E+02
  -3.316  0.2748E-01  0.2001E+02
  -3.306  0.2858E-01  0.2001E+02
  -3.296  0.2971E-01  0.2001E+02
  -3.286  0.3088E-01  0.2001E+02
  -3.276  0.3209E-01  0.2001E+02
  -3.266  0.3333E-01  0.2001E+02
  -3.256  0.3461E-01  0.2001E+02
  -3.246  0.3592E-01  0.2001E+02
  -3.236  0.3727E-01  0.2001E+02
  -3.226  0.3866E-01  0.2001E+02
  -3.216  0.4009E-01  0.2001E+02
  -3.206  0.4156E-01  0.2001E+02
  -3.196  0.4307E-01  0.2001E+02
  -3.186  0.4462E-01  0.2001E+02
  -3.176  0.4621E-01  0.2001E+02
  -3.166  0.4785E-01  0.2001E+02
  -3.156  0.4952E-01  0.2001E+02
  -3.146  0.5124E-01  0.2001E+02
  -3.136  0.5300E-01  0.2001E+02
  -3.126  0.5480E-01  0.2001E+02
  -3.116  0.5665E-01  0.2001E+02
  -3.106  0.5854E-01  0.2001E+02
  -3.096  0.6048E-01  0.2002E+02
  -3.086  0.6246E-01  0.2002E+02
  -3.076  0.6449E-01  0.2002E+02
  -3.066  0.6656E-01  0.2002E+02
  -3.056  0.6868E-01  0.2002E+02
  -3.046  0.7084E-01  0.2002E+02
  -3.036  0.7306E-01  0.2002E+02
  -3.026  0.7531E-01  0.2002E+02
  -3.016  0.7762E-01  0.2002E+02
  -3.006  0.7997E-01  0.2002E+02
  -2.996  0.8237E-01  0.2002E+02
  -2.986  0.8481E-01  0.2002E+02
  -2.976  0.8731E-01  0.2002E+02
  -2.966  0.8985E-01  0.2003E+02
  -2.956  0.9244E-01  0.2003E+02
  -2.946  0.9507E-01  0.2003E+02
  -2.936  0.9775E-01  0.2003E+02
  -2.926  0.1005E+00  0.2003E+02
  -2.916  0.1033E+00  0.2003E+02
  -2.906  0.1061E+00  0.2003E+02
  -2.896  0.1090E+00  0.2003E+02
  -2.886  0.1119E+00  0.2003E+02
  -2.876  0.1148E+00  0.2003E+02
  -2.866  0.1179E+00  0.2004E+02
  -2.856  0.1209E+00  0.2004E+02
  -2.846  0.1240E+00  0.2004E+02
  -2.836  0.1272E+00  0.2004E+02
  -2.826  0.1304E+00  0.2004E+02
  -2.816  0.1336E+00  0.2004E+02
  -2.806  0.1369E+00  0.2004E+02
  -2.796  0.1402E+00  0.2004E+02
  -2.786  0.1436E+00  0.2005E+02
  -2.776  0.1470E+00  0.2005E+02
  -2.766  0.1505E+00  0.2005E+02
  -2.756  0.1540E+00  0.2005E+02
  -2.746  0.1575E+00  0.2005E+02
  -2.736  0.1611E+00  0.2005E+02
  -2.726  0.1648E+00  0.2006E+02
  -2.716  0.1684E+00  0.2006E+02
  -2.706  0.1722E+00  0.2006E+02
  -2.696  0.1759E+00  0.2006E+02
  -2.686  0.1797E+00  0.2006E+02
  -2.676  0.1835E+00  0.2006E+02
  -2.666  0.1874E+00  0.2007E+02
  -2.656  0.1913E+00  0.2007E+02
  -2.646  0.1952E+00  0.2007E+02
  -2.636  0.1992E+00  0.2007E+02
  -2.626  0.2032E+00  0.2007E+02
  -2.616  0.2073E+00  0.2008E+02
  -2.606  0.2114E+00  0.2008E+02
  -2.596  0.2155E+00  0.2008E+02
  -2.586  0.2196E+00  0.2008E+02
  -2.576  0.2238E+00  0.2009E+02
  -2.566  0.2280E+00  0.2009E+02
  -2.556  0.2323E+00  0.2009E+02
  -2.546  0.2365E+00  0.2009E+02
  -2.536  0.2408E+00  0.2009E+02
  -2.526  0.2452E+00  0.2010E+02
  -2.516  0.2495E+00  0.2010E+02
  -2.506  0.2539E+00  0.2010E+02
  -2.496  0.2583E+00  0.2010E+02
  -2.486  0.2627E+00  0.2011E+02
  -2.476  0.2672E+00  0.2011E+02
  -2.466  0.2717E+00  0.2011E+02
  -2.456  0.2762E+00  0.2012E+02
  -2.446  0.2807E+00  0.2012E+02
  -2.436  0.2853E+00  0.2012E+02
  -2.426  0.2899E+00  0.2012E+02
  -2.416  0.2945E+00  0.2013E+02
  -2.406  0.2991E+00  0.2013E+02
  -2.396  0.3037E+00  0.2013E+02
  -2.386  0.3084E+00  0.2014E+02
  -2.376  0.3130E+00  0.2014E+02
  -2.366  0.3177E+00  0.2014E+02
  -2.356  0.3224E+00  0.2015E+02
  -2.346  0.3272E+00  0.2015E+02
  -2.336  0.3319E+00  0.2015E+02
  -2.326  0.3367E+00  0.2016E+02
  -2.316  0.3414E+00  0.2016E+02
  -2.306  0.3462E+00  0.2016E+02
  -2.296  0.3510E+00  0.2017E+02
  -2.286  0.3558E+00  0.2017E+02
  -2.276  0.3606E+00  0.2017E+02
  -2.266  0.3655E+00  0.2018E+02
  -2.256  0.3703E+00  0.2018E+02
  -2.246  0.3752E+00  0.2018E+02
  -2.236  0.3801E+00  0.2019E+02
  -2.226  0.3850E+00  0.2019E+02
  -2.216  0.3899E+00  0.2020E+02
  -2.206  0.3948E+00  0.2020E+02
  -2.196  0.3997E+00  0.2020E+02
  -2.186  0.4046E+00  0.2021E+02
  -2.176  0.4095E+00  0.2021E+02
  -2.166  0.4145E+00  0.2022E+02
  -2.156  0.4194E+00  0.2022E+02
  -2.146  0.4244E+00  0.2022E+02
  -2.136  0.4294E+00  0.2023E+02
  -2.126  0.4343E+00  0.2023E+02
  -2.116  0.4393E+00  0.2024E+02
  -2.106  0.4443E+00  0.2024E+02
  -2.096  0.4493E+00  0.2025E+02
  -2.086  0.4543E+00  0.2025E+02
  -2.076  0.4593E+00  0.2026E+02
  -2.066  0.4644E+00  0.2026E+02
  -2.056  0.4694E+00  0.2026E+02
  -2.046  0.4744E+00  0.2027E+02
  -2.036  0.4794E+00  0.2027E+02
  -2.026  0.4845E+00  0.2028E+02
  -2.016  0.4895E+00  0.2028E+02
  -2.006  0.4946E+00  0.2029E+02
  -1.996  0.4997E+00  0.2029E+02
  -1.986  0.5047E+00  0.2030E+02
  -1.976  0.5098E+00  0.2030E+02
  -1.966  0.5149E+00  0.2031E+02
  -1.956  0.5199E+00  0.2031E+02
  -1.946  0.5250E+00  0.2032E+02
  -1.936  0.5301E+00  0.2033E+02
  -1.926  0.5352E+00  0.2033E+02
  -1.916  0.5403E+00  0.2034E+02
  -1.906  0.5454E+00  0.2034E+02
  -1.896  0.5505E+00  0.2035E+02
  -1.886  0.5556E+00  0.2035E+02
  -1.876  0.5607E+00  0.2036E+02
  -1.866  0.5658E+00  0.2036E+02
  -1.856  0.5709E+00  0.2037E+02
  -1.846  0.5760E+00  0.2038E+02
  -1.836  0.5811E+00  0.2038E+02
  -1.826  0.5862E+00  0.2039E+02
  -1.816  0.5913E+00  0.2039E+02
  -1.806  0.5964E+00  0.2040E+02
  -1.796  0.6015E+00  0.2040E+02
  -1.786  0.6066E+00  0.2041E+02
  -1.776  0.6117E+00  0.2042E+02
  -1.766  0.6167E+00  0.2042E+02
  -1.756  0.6218E+00  0.2043E+02
  -1.746  0.6269E+00  0.2044E+02
  -1.736  0.6320E+00  0.2044E+02
  -1.726  0.6371E+00  0.2045E+02
  -1.716  0.6421E+00  0.2045E+02
  -1.706  0.6472E+00  0.2046E+02
  -1.696  0.6522E+00  0.2047E+02
  -1.686  0.6572E+00  0.2047E+02
  -1.676  0.6623E+00  0.2048E+02
  -1.666  0.6673E+00  0.2049E+02
  -1.656  0.6723E+00  0.2049E+02
  -1.646  0.6773E+00  0.2050E+02
  -1.636  0.6822E+00  0.2051E+02
  -1.626  0.6872E+00  0.2051E+02
  -1.616  0.6921E+00  0.2052E+02
  -1.606  0.6970E+00  0.2053E+02
  -1.596  0.7019E+00  0.2054E+02
  -1.586  0.7068E+00  0.2054E+02
  -1.576  0.7117E+00  0.2055E+02
  -1.566  0.7165E+00  0.2056E+02
  -1.556  0.7213E+00  0.2056E+02
  -1.546  0.7261E+00  0.2057E+02
  -1.536  0.7308E+00  0.2058E+02
  -1.526  0.7356E+00  0.2059E+02
  -1.516  0.7402E+00  0.2059E+02
  -1.506  0.7449E+00  0.2060E+02
  -1.496  0.7495E+00  0.2061E+02
  -1.486  0.7541E+00  0.2062E+02
  -1.476  0.7587E+00  0.2062E+02
  -1.466  0.7632E+00  0.2063E+02
  -1.456  0.7677E+00  0.2064E+02
  -1.446  0.7721E+00  0.2065E+02
  -1.436  0.7765E+00  0.2065E+02
  -1.426  0.7809E+00  0.2066E+02
  -1.416  0.7852E+00  0.2067E+02
  -1.406  0.7894E+00  0.2068E+02
  -1.396  0.7936E+00  0.2069E+02
  -1.386  0.7978E+00  0.2069E+02
  -1.376  0.8018E+00  0.2070E+02
  -1.366  0.8059E+00  0.2071E+02
  -1.356  0.8099E+00  0.2072E+02
  -1.346  0.8138E+00  0.2073E+02
  -1.336  0.8176E+00  0.2073E+02
  -1.326  0.8214E+00  0.2074E+02
  -1.316  0.8252E+00  0.2075E+02
  -1.306  0.8288E+00  0.2076E+02
  -1.296  0.8324E+00  0.2077E+02
  -1.286  0.8360E+00  0.2078E+02
  -1.276  0.8394E+00  0.2078E+02
  -1.266  0.8428E+00  0.2079E+02
  -1.256  0.8461E+00  0.2080E+02
  -1.246  0.8493E+00  0.2081E+02
  -1.236  0.8525E+00  0.2082E+02
  -1.226  0.8555E+00  0.2083E+02
  -1.216  0.8585E+00  0.2084E+02
  -1.206  0.8614E+00  0.2084E+02
  -1.196  0.8642E+00  0.2085E+02
  -1.186  0.8669E+00  0.2086E+02
  -1.176  0.8696E+00  0.2087E+02
  -1.166  0.8721E+00  0.2088E+02
  -1.156  0.8746E+00  0.2089E+02
  -1.146  0.8769E+00  0.2090E+02
  -1.136  0.8792E+00  0.2090E+02
  -1.126  0.8814E+00  0.2091E+02
  -1.116  0.8834E+00  0.2092E+02
  -1.106  0.8854E+00  0.2093E+02
  -1.096  0.8873E+00  0.2094E+02
  -1.086  0.8890E+00  0.2095E+02
  -1.076  0.8907E+00  0.2096E+02
  -1.066  0.8922E+00  0.2097E+02
  -1.056  0.8937E+00  0.2098E+02
  -1.046  0.8950E+00  0.2098E+02
  -1.036  0.8963E+00  0.2099E+02
  -1.026  0.8974E+00  0.2100E+02
  -1.016  0.8984E+00  0.2101E+02
  -1.006  0.8993E+00  0.2102E+02
  -0.996  0.9001E+00  0.2103E+02
  -0.986  0.9008E+00  0.2104E+02
  -0.976  0.9014E+00  0.2105E+02
  -0.966  0.9019E+00  0.2106E+02
  -0.956  0.9022E+00  0.2107E+02
  -0.946  0.9024E+00  0.2107E+02
  -0.936  0.9026E+00  0.2108E+02
  -0.926  0.9026E+00  0.2109E+02
  -0.916  0.9025E+00  0.2110E+02
  -0.906  0.9022E+00  0.2111E+02
  -0.896  0.9019E+00  0.2112E+02
  -0.886  0.9015E+00  0.2113E+02
  -0.876  0.9009E+00  0.2114E+02
  -0.866  0.9002E+00  0.2115E+02
  -0.856  0.8994E+00  0.2116E+02
  -0.846  0.8985E+00  0.2116E+02
  -0.836  0.8975E+00  0.2117E+02
  -0.826  0.8963E+00  0.2118E+02
  -0.816  0.8951E+00  0.2119E+02
  -0.806  0.8937E+00  0.2120E+02
  -0.796  0.8922E+00  0.2121E+02
  -0.786  0.8907E+00  0.2122E+02
  -0.776  0.8890E+00  0.2123E+02
  -0.766  0.8871E+00  0.2124E+02
  -0.756  0.8852E+00  0.2125E+02
  -0.746  0.8832E+00  0.2125E+02
  -0.736  0.8810E+00  0.2126E+02
  -0.726  0.8788E+00  0.2127E+02
  -0.716  0.8764E+00  0.2128E+02
  -0.706  0.8740E+00  0.2129E+02
  -0.696  0.8714E+00  0.2130E+02
  -0.686  0.8688E+00  0.2131E+02
  -0.676  0.8660E+00  0.2132E+02
  -0.666  0.8631E+00  0.2132E+02
  -0.656  0.8602E+00  0.2133E+02
  -0.646  0.8571E+00  0.2134E+02
  -0.636  0.8539E+00  0.2135E+02
  -0.626  0.8507E+00  0.2136E+02
  -0.616  0.8474E+00  0.2137E+02
  -0.606  0.8439E+00  0.2137E+02
  -0.596  0.8404E+00  0.2138E+02
  -0.586  0.8368E+00  0.2139E+02
  -0.576  0.8331E+00  0.2140E+02
  -0.566  0.8293E+00  0.2141E+02
  -0.556  0.8254E+00  0.2142E+02
  -0.546  0.8215E+00  0.2142E+02
  -0.536  0.8174E+00  0.2143E+02
  -0.526  0.8133E+00  0.2144E+02
  -0.516  0.8092E+00  0.2145E+02
  -0.506  0.8049E+00  0.2146E+02
  -0.496  0.8006E+00  0.2147E+02
  -0.486  0.7962E+00  0.2147E+02
  -0.476  0.7917E+00  0.2148E+02
  -0.466  0.7872E+00  0.2149E+02
  -0.456  0.7826E+00  0.2150E+02
  -0.446  0.7780E+00  0.2150E+02
  -0.436  0.7733E+00  0.2151E+02
  -0.426  0.7685E+00  0.2152E+02
  -0.416  0.7637E+00  0.2153E+02
  -0.406  0.7589E+00  0.2154E+02
  -0.396  0.7540E+00  0.2154E+02
  -0.386  0.7490E+00  0.2155E+02
  -0.376  0.7440E+00  0.2156E+02
  -0.366  0.7390E+00  0.2157E+02
  -0.356  0.7339E+00  0.2157E+02
  -0.346  0.7288E+00  0.2158E+02
  -0.336  0.7237E+00  0.2159E+02
  -0.326  0.7185E+00  0.2159E+02
  -0.316  0.7133E+00  0.2160E+02
  -0.306  0.7081E+00  0.2161E+02
  -0.296  0.7028E+00  0.2162E+02
  -0.286  0.6975E+00  0.2162E+02
  -0.276  0.6922E+00  0.2163E+02
  -0.266  0.6869E+00  0.2164E+02
  -0.256  0.6816E+00  0.2164E+02
  -0.246  0.6763E+00  0.2165E+02
  -0.236  0.6710E+00  0.2166E+02
  -0.226  0.6657E+00  0.2166E+02
  -0.216  0.6603E+00  0.2167E+02
  -0.206  0.6550E+00  0.2168E+02
  -0.196  0.6497E+00  0.2168E+02
  -0.186  0.6443E+00  0.2169E+02
  -0.176  0.6390E+00  0.2170E+02
  -0.166  0.6337E+00  0.2170E+02
  -0.156  0.6285E+00  0.2171E+02
  -0.146  0.6232E+00  0.2171E+02
  -0.136  0.6180E+00  0.2172E+02
  -0.126  0.6128E+00  0.2173E+02
  -0.116  0.6076E+00  0.2173E+02
  -0.106  0.6024E+00  0.2174E+02
  -0.096  0.5973E+00  0.2174E+02
  -0.086  0.5922E+00  0.2175E+02
  -0.076  0.5871E+00  0.2176E+02
  -0.066  0.5821E+00  0.2176E+02
  -0.056  0.5772E+00  0.2177E+02
  -0.046  0.5723E+00  0.2177E+02
  -0.036  0.5674E+00  0.2178E+02
  -0.026  0.5626E+00  0.2179E+02
  -0.016  0.5578E+00  0.2179E+02
  -0.006  0.5531E+00  0.2180E+02
   0.004  0.5485E+00  0.2180E+02
   0.014  0.5439E+00  0.2181E+02
   0.024  0.5394E+00  0.2181E+02
   0.034  0.5349E+00  0.2182E+02
   0.044  0.5305E+00  0.2182E+02
   0.054  0.5262E+00  0.2183E+02
   0.064  0.5220E+00  0.2183E+02
   0.074  0.5179E+00  0.2184E+02
   0.084  0.5138E+00  0.2184E+02
   0.094  0.5098E+00  0.2185E+02
   0.104  0.5059E+00  0.2185E+02
   0.114  0.5021E+00  0.2186E+02
   0.124  0.4984E+00  0.2186E+02
   0.134  0.4948E+00  0.2187E+02
   0.144  0.4912E+00  0.2187E+02
   0.154  0.4878E+00  0.2188E+02
   0.164  0.4845E+00  0.2188E+02
   0.174  0.4813E+00  0.2189E+02
   0.184  0.4781E+00  0.2189E+02
   0.194  0.4751E+00  0.2190E+02
   0.204  0.4722E+00  0.2190E+02
   0.214  0.4694E+00  0.2191E+02
   0.224  0.4667E+00  0.2191E+02
   0.234  0.4641E+00  0.2192E+02
   0.244  0.4616E+00  0.2192E+02
   0.254  0.4593E+00  0.2193E+02
   0.264  0.4571E+00  0.2193E+02
   0.274  0.4549E+00  0.2194E+02
   0.284  0.4530E+00  0.2194E+02
   0.294  0.4511E+00  0.2194E+02
   0.304  0.4493E+00  0.2195E+02
   0.314  0.4477E+00  0.2195E+02
   0.324  0.4462E+00  0.2196E+02
   0.334  0.4448E+00  0.2196E+02
   0.344  0.4436E+00  0.2197E+02
   0.354  0.4425E+00  0.2197E+02
   0.364  0.4415E+00  0.2198E+02
   0.374  0.4406E+00  0.2198E+02
   0.384  0.4399E+00  0.2198E+02
   0.394  0.4393E+00  0.2199E+02
   0.404  0.4388E+00  0.2199E+02
   0.414  0.4385E+00  0.2200E+02
   0.424  0.4383E+00  0.2200E+02
   0.434  0.4382E+00  0.2201E+02
   0.444  0.4383E+00  0.2201E+02
   0.454  0.4385E+00  0.2201E+02
   0.464  0.4388E+00  0.2202E+02
   0.474  0.4393E+00  0.2202E+02
   0.484  0.4399E+00  0.2203E+02
   0.494  0.4406E+00  0.2203E+02
   0.504  0.4415E+00  0.2204E+02
   0.514  0.4424E+00  0.2204E+02
   0.524  0.4436E+00  0.2205E+02
   0.534  0.4448E+00  0.2205E+02
   0.544  0.4462E+00  0.2205E+02
   0.554  0.4477E+00  0.2206E+02
   0.564  0.4493E+00  0.2206E+02
   0.574  0.4510E+00  0.2207E+02
   0.584  0.4529E+00  0.2207E+02
   0.594  0.4549E+00  0.2208E+02
   0.604  0.4570E+00  0.2208E+02
   0.614  0.4593E+00  0.2209E+02
   0.624  0.4616E+00  0.2209E+02
   0.634  0.4641E+00  0.2210E+02
   0.644  0.4667E+00  0.2210E+02
   0.654  0.4694E+00  0.2211E+02
   0.664  0.4722E+00  0.2211E+02
   0.674  0.4751E+00  0.2211E+02
   0.684  0.4781E+00  0.2212E+02
   0.694  0.4813E+00  0.2212E+02
   0.704  0.4845E+00  0.2213E+02
   0.714  0.4879E+00  0.2213E+02
   0.724  0.4913E+00  0.2214E+02
   0.734  0.4948E+00  0.2214E+02
   0.744  0.4985E+00  0.2215E+02
   0.754  0.5022E+00  0.2215E+02
   0.764  0.5060E+00  0.2216E+02
   0.774  0.5099E+00  0.2216E+02
   0.784  0.5139E+00  0.2217E+02
   0.794  0.5179E+00  0.2217E+02
   0.804  0.5221E+00  0.2218E+02
   0.814  0.5263E+00  0.2218E+02
   0.824  0.5306E+00  0.2219E+02
   0.834  0.5349E+00  0.2220E+02
   0.844  0.5393E+00  0.2220E+02
   0.854  0.5438E+00  0.2221E+02
   0.864  0.5484E+00  0.2221E+02
   0.874  0.5530E+00  0.2222E+02
   0.884  0.5576E+00  0.2222E+02
   0.894  0.5623E+00  0.2223E+02
   0.904  0.5671E+00  0.2223E+02
   0.914  0.5719E+00  0.2224E+02
   0.924  0.5767E+00  0.2225E+02
   0.934  0.5815E+00  0.2225E+02
   0.944  0.5864E+00  0.2226E+02
   0.954  0.5914E+00  0.2226E+02
   0.964  0.5963E+00  0.2227E+02
   0.974  0.6013E+00  0.2228E+02
   0.984  0.6063E+00  0.2228E+02
   0.994  0.6113E+00  0.2229E+02
   1.004  0.6163E+00  0.2229E+02
   1.014  0.6213E+00  0.2230E+02
   1.024  0.6263E+00  0.2231E+02
   1.034  0.6314E+00  0.2231E+02
   1.044  0.6364E+00  0.2232E+02
   1.054  0.6414E+00  0.2232E+02
   1.064  0.6464E+00  0.2233E+02
   1.074  0.6514E+00  0.2234E+02
   1.084  0.6564E+00  0.2234E+02
   1.094  0.6613E+00  0.2235E+02
   1.104  0.6662E+00  0.2236E+02
   1.114  0.6711E+00  0.2236E+02
   1.124  0.6760E+00  0.2237E+02
   1.134  0.6808E+00  0.2238E+02
   1.144  0.6855E+00  0.2238E+02
   1.154  0.6903E+00  0.2239E+02
   1.164  0.6950E+00  0.2240E+02
   1.174  0.6996E+00  0.2241E+02
   1.184  0.7042E+00  0.2241E+02
   1.194  0.7087E+00  0.2242E+02
   1.204  0.7131E+00  0.2243E+02
   1.214  0.7175E+00  0.2243E+02
   1.224  0.7219E+00  0.2244E+02
   1.234  0.7261E+00  0.2245E+02
   1.244  0.7303E+00  0.2246E+02
   1.254  0.7344E+00  0.2246E+02
   1.264  0.7384E+00  0.2247E+02
   1.274  0.7423E+00  0.2248E+02
   1.284  0.7462E+00  0.2249E+02
   1.294  0.7500E+00  0.2249E+02
   1.304  0.7536E+00  0.2250E+02
   1.314  0.7572E+00  0.2251E+02
   1.324  0.7607E+00  0.2252E+02
   1.334  0.7640E+00  0.2252E+02
   1.344  0.7673E+00  0.2253E+02
   1.354  0.7705E+00  0.2254E+02
   1.364  0.7735E+00  0.2255E+02
   1.374  0.7765E+00  0.2255E+02
   1.384  0.7793E+00  0.2256E+02
   1.394  0.7820E+00  0.2257E+02
   1.404  0.7847E+00  0.2258E+02
   1.414  0.7871E+00  0.2259E+02
   1.424  0.7895E+00  0.2259E+02
   1.434  0.7918E+00  0.2260E+02
   1.444  0.7939E+00  0.2261E+02
   1.454  0.7959E+00  0.2262E+02
   1.464  0.7978E+00  0.2263E+02
   1.474  0.7995E+00  0.2263E+02
   1.484  0.8011E+00  0.2264E+02
   1.494  0.8026E+00  0.2265E+02
   1.504  0.8040E+00  0.2266E+02
   1.514  0.8052E+00  0.2267E+02
   1.524  0.8064E+00  0.2267E+02
   1.534  0.8073E+00  0.2268E+02
   1.544  0.8082E+00  0.2269E+02
   1.554  0.8089E+00  0.2270E+02
   1.564  0.8095E+00  0.2271E+02
   1.574  0.8099E+00  0.2271E+02
   1.584  0.8102E+00  0.2272E+02
   1.594  0.8104E+00  0.2273E+02
   1.604  0.8105E+00  0.2274E+02
   1.614  0.8104E+00  0.2275E+02
   1.624  0.8102E+00  0.2275E+02
   1.634  0.8098E+00  0.2276E+02
   1.644  0.8094E+00  0.2277E+02
   1.654  0.8088E+00  0.2278E+02
   1.664  0.8080E+00  0.2279E+02
   1.674  0.8072E+00  0.2279E+02
   1.684  0.8062E+00  0.2280E+02
   1.694  0.8051E+00  0.2281E+02
   1.704  0.8039E+00  0.2282E+02
   1.714  0.8025E+00  0.2283E+02
   1.724  0.8011E+00  0.2284E+02
   1.734  0.7995E+00  0.2284E+02
   1.744  0.7978E+00  0.2285E+02
   1.754  0.7959E+00  0.2286E+02
   1.764  0.7940E+00  0.2287E+02
   1.774  0.7920E+00  0.2287E+02
   1.784  0.7898E+00  0.2288E+02
   1.794  0.7875E+00  0.2289E+02
   1.804  0.7852E+00  0.2290E+02
   1.814  0.7827E+00  0.2291E+02
   1.824  0.7801E+00  0.2291E+02
   1.834  0.7774E+00  0.2292E+02
   1.844  0.7747E+00  0.2293E+02
   1.854  0.7718E+00  0.2294E+02
   1.864  0.7688E+00  0.2295E+02
   1.874  0.7658E+00  0.2295E+02
   1.884  0.7626E+00  0.2296E+02
   1.894  0.7594E+00  0.2297E+02
   1.904  0.7561E+00  0.2298E+02
   1.914  0.7527E+00  0.2298E+02
   1.924  0.7493E+00  0.2299E+02
   1.934  0.7457E+00  0.2300E+02
   1.944  0.7421E+00  0.2301E+02
   1.954  0.7384E+00  0.2301E+02
   1.964  0.7347E+00  0.2302E+02
   1.974  0.7309E+00  0.2303E+02
   1.984  0.7270E+00  0.2303E+02
   1.994  0.7231E+00  0.2304E+02
   2.004  0.7191E+00  0.2305E+02
   2.014  0.7151E+00  0.2306E+02
   2.024  0.7110E+00  0.2306E+02
   2.034  0.7069E+00  0.2307E+02
   2.044  0.7027E+00  0.2308E+02
   2.054  0.6985E+00  0.2308E+02
   2.064  0.6942E+00  0.2309E+02
   2.074  0.6899E+00  0.2310E+02
   2.084  0.6856E+00  0.2311E+02
   2.094  0.6813E+00  0.2311E+02
   2.104  0.6769E+00  0.2312E+02
   2.114  0.6725E+00  0.2313E+02
   2.124  0.6680E+00  0.2313E+02
   2.134  0.6636E+00  0.2314E+02
   2.144  0.6591E+00  0.2315E+02
   2.154  0.6546E+00  0.2315E+02
   2.164  0.6501E+00  0.2316E+02
   2.174  0.6455E+00  0.2316E+02
   2.184  0.6410E+00  0.2317E+02
   2.194  0.6365E+00  0.2318E+02
   2.204  0.6319E+00  0.2318E+02
   2.214  0.6274E+00  0.2319E+02
   2.224  0.6228E+00  0.2320E+02
   2.234  0.6183E+00  0.2320E+02
   2.244  0.6137E+00  0.2321E+02
   2.254  0.6091E+00  0.2321E+02
   2.264  0.6046E+00  0.2322E+02
   2.274  0.6001E+00  0.2323E+02
   2.284  0.5955E+00  0.2323E+02
   2.294  0.5910E+00  0.2324E+02
   2.304  0.5865E+00  0.2324E+02
   2.314  0.5820E+00  0.2325E+02
   2.324  0.5775E+00  0.2326E+02
   2.334  0.5731E+00  0.2326E+02
   2.344  0.5686E+00  0.2327E+02
   2.354  0.5642E+00  0.2327E+02
   2.364  0.5598E+00  0.2328E+02
   2.374  0.5554E+00  0.2328E+02
   2.384  0.5511E+00  0.2329E+02
   2.394  0.5467E+00  0.2330E+02
   2.404  0.5424E+00  0.2330E+02
   2.414  0.5381E+00  0.2331E+02
   2.424  0.5339E+00  0.2331E+02
   2.434  0.5296E+00  0.2332E+02
   2.444  0.5254E+00  0.2332E+02
   2.454  0.5212E+00  0.2333E+02
   2.464  0.5171E+00  0.2333E+02
   2.474  0.5130E+00  0.2334E+02
   2.484  0.5089E+00  0.2334E+02
   2.494  0.5048E+00  0.2335E+02
   2.504  0.5008E+00  0.2335E+02
   2.514  0.4968E+00  0.2336E+02
   2.524  0.4928E+00  0.2336E+02
   2.534  0.4889E+00  0.2337E+02
   2.544  0.4850E+00  0.2337E+02
   2.554  0.4812E+00  0.2338E+02
   2.564  0.4773E+00  0.2338E+02
   2.574  0.4735E+00  0.2339E+02
   2.584  0.4698E+00  0.2339E+02
   2.594  0.4660E+00  0.2340E+02
   2.604  0.4624E+00  0.2340E+02
   2.614  0.4587E+00  0.2341E+02
   2.624  0.4551E+00  0.2341E+02
   2.634  0.4515E+00  0.2341E+02
   2.644  0.4479E+00  0.2342E+02
   2.654  0.4444E+00  0.2342E+02
   2.664  0.4409E+00  0.2343E+02
   2.674  0.4375E+00  0.2343E+02
   2.684  0.4341E+00  0.2344E+02
   2.694  0.4307E+00  0.2344E+02
   2.704  0.4273E+00  0.2345E+02
   2.714  0.4240E+00  0.2345E+02
   2.724  0.4208E+00  0.2345E+02
   2.734  0.4175E+00  0.2346E+02
   2.744  0.4143E+00  0.2346E+02
   2.754  0.4111E+00  0.2347E+02
   2.764  0.4080E+00  0.2347E+02
   2.774  0.4049E+00  0.2347E+02
   2.784  0.4018E+00  0.2348E+02
   2.794  0.3988E+00  0.2348E+02
   2.804  0.3957E+00  0.2349E+02
   2.814  0.3928E+00  0.2349E+02
   2.824  0.3898E+00  0.2349E+02
   2.834  0.3869E+00  0.2350E+02
   2.844  0.3840E+00  0.2350E+02
   2.854  0.3812E+00  0.2351E+02
   2.864  0.3784E+00  0.2351E+02
   2.874  0.3756E+00  0.2351E+02
   2.884  0.3728E+00  0.2352E+02
   2.894  0.3701E+00  0.2352E+02
   2.904  0.3674E+00  0.2352E+02
   2.914  0.3647E+00  0.2353E+02
   2.924  0.3621E+00  0.2353E+02
   2.934  0.3595E+00  0.2353E+02
   2.944  0.3569E+00  0.2354E+02
   2.954  0.3544E+00  0.2354E+02
   2.964  0.3519E+00  0.2355E+02
   2.974  0.3494E+00  0.2355E+02
   2.984  0.3469E+00  0.2355E+02
   2.994  0.3445E+00  0.2356E+02
   3.004  0.3421E+00  0.2356E+02
   3.014  0.3397E+00  0.2356E+02
   3.024  0.3374E+00  0.2357E+02
   3.034  0.3351E+00  0.2357E+02
   3.044  0.3328E+00  0.2357E+02
   3.054  0.3306E+00  0.2358E+02
   3.064  0.3283E+00  0.2358E+02
   3.074  0.3262E+00  0.2358E+02
   3.084  0.3240E+00  0.2359E+02
   3.094  0.3219E+00  0.2359E+02
   3.104  0.3198E+00  0.2359E+02
   3.114  0.3177E+00  0.2360E+02
   3.124  0.3157E+00  0.2360E+02
   3.134  0.3137E+00  0.2360E+02
   3.144  0.3117E+00  0.2360E+02
   3.154  0.3098E+00  0.2361E+02
   3.164  0.3079E+00  0.2361E+02
   3.174  0.3060E+00  0.2361E+02
   3.184  0.3041E+00  0.2362E+02
   3.194  0.3023E+00  0.2362E+02
   3.204  0.3006E+00  0.2362E+02
   3.214  0.2988E+00  0.2363E+02
   3.224  0.2971E+00  0.2363E+02
   3.234  0.2954E+00  0.2363E+02
   3.244  0.2938E+00  0.2364E+02
   3.254  0.2922E+00  0.2364E+02
   3.264  0.2907E+00  0.2364E+02
   3.274  0.2891E+00  0.2364E+02
   3.284  0.2877E+00  0.2365E+02
   3.294  0.2862E+00  0.2365E+02
   3.304  0.2848E+00  0.2365E+02
   3.314  0.2835E+00  0.2366E+02
   3.324  0.2822E+00  0.2366E+02
   3.334  0.2809E+00  0.2366E+02
   3.344  0.2797E+00  0.2366E+02
   3.354  0.2785E+00  0.2367E+02
   3.364  0.2774E+00  0.2367E+02
   3.374  0.2763E+00  0.2367E+02
   3.384  0.2753E+00  0.2367E+02
   3.394  0.2743E+00  0.2368E+02
   3.404  0.2734E+00  0.2368E+02
   3.414  0.2725E+00  0.2368E+02
   3.424  0.2717E+00  0.2369E+02
   3.434  0.2709E+00  0.2369E+02
   3.444  0.2702E+00  0.2369E+02
   3.454  0.2696E+00  0.2369E+02
   3.464  0.2690E+00  0.2370E+02
   3.474  0.2685E+00  0.2370E+02
   3.484  0.2681E+00  0.2370E+02
   3.494  0.2677E+00  0.2370E+02
   3.504  0.2674E+00  0.2371E+02
   3.514  0.2671E+00  0.2371E+02
   3.524  0.2670E+00  0.2371E+02
   3.534  0.2669E+00  0.2372E+02
   3.544  0.2668E+00  0.2372E+02
   3.554  0.2669E+00  0.2372E+02
   3.564  0.2670E+00  0.2372E+02
   3.574  0.2672E+00  0.2373E+02
   3.584  0.2675E+00  0.2373E+02
   3.594  0.2679E+00  0.2373E+02
   3.604  0.2684E+00  0.2373E+02
   3.614  0.2689E+00  0.2374E+02
   3.624  0.2696E+00  0.2374E+02
   3.634  0.2703E+00  0.2374E+02
   3.644  0.2712E+00  0.2374E+02
   3.654  0.2721E+00  0.2375E+02
   3.664  0.2731E+00  0.2375E+02
   3.674  0.2743E+00  0.2375E+02
   3.684  0.2755E+00  0.2376E+02
   3.694  0.2769E+00  0.2376E+02
   3.704  0.2783E+00  0.2376E+02
   3.714  0.2799E+00  0.2376E+02
   3.724  0.2816E+00  0.2377E+02
   3.734  0.2833E+00  0.2377E+02
   3.744  0.2853E+00  0.2377E+02
   3.754  0.2873E+00  0.2378E+02
   3.764  0.2894E+00  0.2378E+02
   3.774  0.2917E+00  0.2378E+02
   3.784  0.2941E+00  0.2378E+02
   3.794  0.2966E+00  0.2379E+02
   3.804  0.2992E+00  0.2379E+02
   3.814  0.3020E+00  0.2379E+02
   3.824  0.3049E+00  0.2380E+02
   3.834  0.3080E+00  0.2380E+02
   3.844  0.3111E+00  0.2380E+02
   3.854  0.3144E+00  0.2381E+02
   3.864  0.3179E+00  0.2381E+02
   3.874  0.3215E+00  0.2381E+02
   3.884  0.3252E+00  0.2382E+02
   3.894  0.3291E+00  0.2382E+02
   3.904  0.3331E+00  0.2382E+02
   3.914  0.3373E+00  0.2383E+02
   3.924  0.3416E+00  0.2383E+02
   3.934  0.3461E+00  0.2383E+02
   3.944  0.3507E+00  0.2384E+02
   3.954  0.3554E+00  0.2384E+02
   3.964  0.3603E+00  0.2384E+02
   3.974  0.3654E+00  0.2385E+02
   3.984  0.3706E+00  0.2385E+02
   3.994  0.3760E+00  0.2385E+02
   4.004  0.3815E+00  0.2386E+02
   4.014  0.3872E+00  0.2386E+02
   4.024  0.3930E+00  0.2387E+02
   4.034  0.3990E+00  0.2387E+02
   4.044  0.4051E+00  0.2387E+02
   4.054  0.4114E+00  0.2388E+02
   4.064  0.4179E+00  0.2388E+02
   4.074  0.4245E+00  0.2389E+02
   4.084  0.4312E+00  0.2389E+02
   4.094  0.4381E+00  0.2389E+02
   4.104  0.4452E+00  0.2390E+02
   4.114  0.4524E+00  0.2390E+02
   4.124  0.4597E+00  0.2391E+02
   4.134  0.4672E+00  0.2391E+02
   4.144  0.4748E+00  0.2392E+02
   4.154  0.4826E+00  0.2392E+02
   4.164  0.4906E+00  0.2393E+02
   4.174  0.4986E+00  0.2393E+02
   4.184  0.5069E+00  0.2394E+02
   4.194  0.5152E+00  0.2394E+02
   4.204  0.5237E+00  0.2395E+02
   4.214  0.5323E+00  0.2395E+02
   4.224  0.5411E+00  0.2396E+02
   4.234  0.5499E+00  0.2396E+02
   4.244  0.5589E+00  0.2397E+02
   4.254  0.5681E+00  0.2398E+02
   4.264  0.5773E+00  0.2398E+02
   4.274  0.5867E+00  0.2399E+02
   4.284  0.5962E+00  0.2399E+02
   4.294  0.6058E+00  0.2400E+02
   4.304  0.6155E+00  0.2401E+02
   4.314  0.6253E+00  0.2401E+02
   4.324  0.6352E+00  0.2402E+02
   4.334  0.6452E+00  0.2402E+02
   4.344  0.6552E+00  0.2403E+02
   4.354  0.6654E+00  0.2404E+02
   4.364  0.6757E+00  0.2404E+02
   4.374  0.6860E+00  0.2405E+02
   4.384  0.6965E+00  0.2406E+02
   4.394  0.7070E+00  0.2407E+02
   4.404  0.7175E+00  0.2407E+02
   4.414  0.7282E+00  0.2408E+02
   4.424  0.7389E+00  0.2409E+02
   4.434  0.7496E+00  0.2409E+02
   4.444  0.7604E+00  0.2410E+02
   4.454  0.7713E+00  0.2411E+02
   4.464  0.7822E+00  0.2412E+02
   4.474  0.7931E+00  0.2413E+02
   4.484  0.8041E+00  0.2413E+02
   4.494  0.8151E+00  0.2414E+02
   4.504  0.8261E+00  0.2415E+02
   4.514  0.8371E+00  0.2416E+02
   4.524  0.8482E+00  0.2417E+02
   4.534  0.8592E+00  0.2418E+02
   4.544  0.8703E+00  0.2418E+02
   4.554  0.8814E+00  0.2419E+02
   4.564  0.8925E+00  0.2420E+02
   4.574  0.9036E+00  0.2421E+02
   4.584  0.9146E+00  0.2422E+02
   4.594  0.9257E+00  0.2423E+02
   4.604  0.9367E+00  0.2424E+02
   4.614  0.9477E+00  0.2425E+02
   4.624  0.9587E+00  0.2426E+02
   4.634  0.9697E+00  0.2427E+02
   4.644  0.9806E+00  0.2428E+02
   4.654  0.9915E+00  0.2429E+02
   4.664  0.1002E+01  0.2430E+02
   4.674  0.1013E+01  0.2431E+02
   4.684  0.1024E+01  0.2432E+02
   4.694  0.1035E+01  0.2433E+02
   4.704  0.1045E+01  0.2434E+02
   4.714  0.1056E+01  0.2435E+02
   4.724  0.1066E+01  0.2436E+02
   4.734  0.1077E+01  0.2437E+02
   4.744  0.1087E+01  0.2438E+02
   4.754  0.1098E+01  0.2439E+02
   4.764  0.1108E+01  0.2440E+02
   4.774  0.1118E+01  0.2441E+02
   4.784  0.1128E+01  0.2443E+02
   4.794  0.1138E+01  0.2444E+02
   4.804  0.1148E+01  0.2445E+02
   4.814  0.1158E+01  0.2446E+02
   4.824  0.1168E+01  0.2447E+02
   4.834  0.1177E+01  0.2448E+02
   4.844  0.1187E+01  0.2450E+02
   4.854  0.1196E+01  0.2451E+02
   4.864  0.1206E+01  0.2452E+02
   4.874  0.1215E+01  0.2453E+02
   4.884  0.1224E+01  0.2454E+02
   4.894  0.1233E+01  0.2456E+02
   4.904  0.1242E+01  0.2457E+02
   4.914  0.1251E+01  0.2458E+02
   4.924  0.1260E+01  0.2459E+02
   4.934  0.1269E+01  0.2461E+02
   4.944  0.1277E+01  0.2462E+02
   4.954  0.1286E+01  0.2463E+02
   4.964  0.1294E+01  0.2464E+02
   4.974  0.1303E+01  0.2466E+02
   4.984  0.1311E+01  0.2467E+02
   4.994  0.1319E+01  0.2468E+02
   5.004  0.1327E+01  0.2470E+02
   5.014  0.1335E+01  0.2471E+02
   5.024  0.1342E+01  0.2472E+02
   5.034  0.1350E+01  0.2474E+02
   5.044  0.1357E+01  0.2475E+02
   5.054  0.1365E+01  0.2477E+02
   5.064  0.1372E+01  0.2478E+02
   5.074  0.1379E+01  0.2479E+02
   5.084  0.1386E+01  0.2481E+02
   5.094  0.1393E+01  0.2482E+02
   5.104  0.1400E+01  0.2483E+02
   5.114  0.1407E+01  0.2485E+02
   5.124  0.1414E+01  0.2486E+02
   5.134  0.1420E+01  0.2488E+02
   5.144  0.1427E+01  0.2489E+02
   5.154  0.1433E+01  0.2491E+02
   5.164  0.1439E+01  0.2492E+02
   5.174  0.1445E+01  0.2493E+02
   5.184  0.1451E+01  0.2495E+02
   5.194  0.1457E+01  0.2496E+02
   5.204  0.1463E+01  0.2498E+02
   5.214  0.1468E+01  0.2499E+02
   5.224  0.1474E+01  0.2501E+02
   5.234  0.1479E+01  0.2502E+02
   5.244  0.1485E+01  0.2504E+02
   5.254  0.1490E+01  0.2505E+02
   5.264  0.1495E+01  0.2507E+02
   5.274  0.1500E+01  0.2508E+02
   5.284  0.1505E+01  0.2510E+02
   5.294  0.1510E+01  0.2511E+02
   5.304  0.1514E+01  0.2513E+02
   5.314  0.1519E+01  0.2514E+02
   5.324  0.1523E+01  0.2516E+02
   5.334  0.1528E+01  0.2517E+02
   5.344  0.1532E+01  0.2519E+02
   5.354  0.1536E+01  0.2520E+02
   5.364  0.1540E+01  0.2522E+02
   5.374  0.1544E+01  0.2523E+02
   5.384  0.1548E+01  0.2525E+02
   5.394  0.1552E+01  0.2527E+02
   5.404  0.1555E+01  0.2528E+02
   5.414  0.1559E+01  0.2530E+02
   5.424  0.1562E+01  0.2531E+02
   5.434  0.1566E+01  0.2533E+02
   5.444  0.1569E+01  0.2534E+02
   5.454  0.1572E+01  0.2536E+02
   5.464  0.1575E+01  0.2537E+02
   5.474  0.1578E+01  0.2539E+02
   5.484  0.1581E+01  0.2541E+02
   5.494  0.1583E+01  0.2542E+02
   5.504  0.1586E+01  0.2544E+02
   5.514  0.1588E+01  0.2545E+02
   5.524  0.1591E+01  0.2547E+02
   5.534  0.1593E+01  0.2549E+02
   5.544  0.1595E+01  0.2550E+02
   5.554  0.1597E+01  0.2552E+02
   5.564  0.1599E+01  0.2553E+02
   5.574  0.1601E+01  0.2555E+02
   5.584  0.1602E+01  0.2557E+02
   5.594  0.1604E+01  0.2558E+02
   5.604  0.1605E+01  0.2560E+02
   5.614  0.1607E+01  0.2561E+02
   5.624  0.1608E+01  0.2563E+02
   5.634  0.1609E+01  0.2565E+02
   5.644  0.1610E+01  0.2566E+02
   5.654  0.1611E+01  0.2568E+02
   5.664  0.1612E+01  0.2569E+02
   5.674  0.1613E+01  0.2571E+02
   5.684  0.1613E+01  0.2573E+02
   5.694  0.1614E+01  0.2574E+02
   5.704  0.1614E+01  0.2576E+02
   5.714  0.1614E+01  0.2578E+02
   5.724  0.1614E+01  0.2579E+02
   5.734  0.1615E+01  0.2581E+02
   5.744  0.1614E+01  0.2582E+02
   5.754  0.1614E+01  0.2584E+02
   5.764  0.1614E+01  0.2586E+02
   5.774  0.1614E+01  0.2587E+02
   5.784  0.1613E+01  0.2589E+02
   5.794  0.1613E+01  0.2590E+02
   5.804  0.1612E+01  0.2592E+02
   5.814  0.1611E+01  0.2594E+02
   5.824  0.1610E+01  0.2595E+02
   5.834  0.1609E+01  0.2597E+02
   5.844  0.1608E+01  0.2598E+02
   5.854  0.1607E+01  0.2600E+02
   5.864  0.1605E+01  0.2602E+02
   5.874  0.1604E+01  0.2603E+02
   5.884  0.1602E+01  0.2605E+02
   5.894  0.1601E+01  0.2606E+02
   5.904  0.1599E+01  0.2608E+02
   5.914  0.1597E+01  0.2610E+02
   5.924  0.1595E+01  0.2611E+02
   5.934  0.1593E+01  0.2613E+02
   5.944  0.1591E+01  0.2614E+02
   5.954  0.1589E+01  0.2616E+02
   5.964  0.1586E+01  0.2618E+02
   5.974  0.1584E+01  0.2619E+02
   5.984  0.1581E+01  0.2621E+02
   5.994  0.1579E+01  0.2622E+02
   6.004  0.1576E+01  0.2624E+02
   6.014  0.1573E+01  0.2626E+02
   6.024  0.1570E+01  0.2627E+02
   6.034  0.1567E+01  0.2629E+02
   6.044  0.1563E+01  0.2630E+02
   6.054  0.1560E+01  0.2632E+02
   6.064  0.1557E+01  0.2633E+02
   6.074  0.1553E+01  0.2635E+02
   6.084  0.1550E+01  0.2636E+02
   6.094  0.1546E+01  0.2638E+02
   6.104  0.1542E+01  0.2640E+02
   6.114  0.1538E+01  0.2641E+02
   6.124  0.1534E+01  0.2643E+02
   6.134  0.1530E+01  0.2644E+02
   6.144  0.1526E+01  0.2646E+02
   6.154  0.1522E+01  0.2647E+02
   6.164  0.1517E+01  0.2649E+02
   6.174  0.1513E+01  0.2650E+02
   6.184  0.1508E+01  0.2652E+02
   6.194  0.1504E+01  0.2653E+02
   6.204  0.1499E+01  0.2655E+02
   6.214  0.1494E+01  0.2656E+02
   6.224  0.1489E+01  0.2658E+02
   6.234  0.1484E+01  0.2659E+02
   6.244  0.1479E+01  0.2661E+02
   6.254  0.1473E+01  0.2662E+02
   6.264  0.1468E+01  0.2664E+02
   6.274  0.1463E+01  0.2665E+02
   6.284  0.1457E+01  0.2667E+02
   6.294  0.1451E+01  0.2668E+02
   6.304  0.1446E+01  0.2669E+02
   6.314  0.1440E+01  0.2671E+02
   6.324  0.1434E+01  0.2672E+02
   6.334  0.1428E+01  0.2674E+02
   6.344  0.1422E+01  0.2675E+02
   6.354  0.1416E+01  0.2677E+02
   6.364  0.1409E+01  0.2678E+02
   6.374  0.1403E+01  0.2679E+02
   6.384  0.1396E+01  0.2681E+02
   6.394  0.1390E+01  0.2682E+02
   6.404  0.1383E+01  0.2684E+02
   6.414  0.1377E+01  0.2685E+02
   6.424  0.1370E+01  0.2686E+02
   6.434  0.1363E+01  0.2688E+02
   6.444  0.1356E+01  0.2689E+02
   6.454  0.1349E+01  0.2690E+02
   6.464  0.1342E+01  0.2692E+02
   6.474  0.1334E+01  0.2693E+02
   6.484  0.1327E+01  0.2694E+02
   6.494  0.1320E+01  0.2696E+02
   6.504  0.1312E+01  0.2697E+02
   6.514  0.1304E+01  0.2698E+02
   6.524  0.1297E+01  0.2700E+02
   6.534  0.1289E+01  0.2701E+02
   6.544  0.1281E+01  0.2702E+02
   6.554  0.1273E+01  0.2703E+02
   6.564  0.1265E+01  0.2705E+02
   6.574  0.1257E+01  0.2706E+02
   6.584  0.1249E+01  0.2707E+02
   6.594  0.1241E+01  0.2708E+02
   6.604  0.1233E+01  0.2710E+02
   6.614  0.1224E+01  0.2711E+02
   6.624  0.1216E+01  0.2712E+02
   6.634  0.1207E+01  0.2713E+02
   6.644  0.1199E+01  0.2715E+02
   6.654  0.1190E+01  0.2716E+02
   6.664  0.1182E+01  0.2717E+02
   6.674  0.1173E+01  0.2718E+02
   6.684  0.1164E+01  0.2719E+02
   6.694  0.1155E+01  0.2720E+02
   6.704  0.1146E+01  0.2722E+02
   6.714  0.1137E+01  0.2723E+02
   6.724  0.1128E+01  0.2724E+02
   6.734  0.1119E+01  0.2725E+02
   6.744  0.1110E+01  0.2726E+02
   6.754  0.1101E+01  0.2727E+02
   6.764  0.1092E+01  0.2728E+02
   6.774  0.1083E+01  0.2729E+02
   6.784  0.1073E+01  0.2730E+02
   6.794  0.1064E+01  0.2731E+02
   6.804  0.1055E+01  0.2733E+02
   6.814  0.1045E+01  0.2734E+02
   6.824  0.1036E+01  0.2735E+02
   6.834  0.1026E+01  0.2736E+02
   6.844  0.1017E+01  0.2737E+02
   6.854  0.1007E+01  0.2738E+02
   6.864  0.9978E+00  0.2739E+02
   6.874  0.9882E+00  0.2740E+02
   6.884  0.9786E+00  0.2741E+02
   6.894  0.9690E+00  0.2742E+02
   6.904  0.9594E+00  0.2743E+02
   6.914  0.9498E+00  0.2743E+02
   6.924  0.9401E+00  0.2744E+02
   6.934  0.9305E+00  0.2745E+02
   6.944  0.9208E+00  0.2746E+02
   6.954  0.9112E+00  0.2747E+02
   6.964  0.9015E+00  0.2748E+02
   6.974  0.8919E+00  0.2749E+02
   6.984  0.8822E+00  0.2750E+02
   6.994  0.8726E+00  0.2751E+02
   7.004  0.8629E+00  0.2752E+02
   7.014  0.8533E+00  0.2752E+02
   7.024  0.8437E+00  0.2753E+02
   7.034  0.8341E+00  0.2754E+02
   7.044  0.8245E+00  0.2755E+02
   7.054  0.8150E+00  0.2756E+02
   7.064  0.8055E+00  0.2757E+02
   7.074  0.7960E+00  0.2757E+02
   7.084  0.7865E+00  0.2758E+02
   7.094  0.7771E+00  0.2759E+02
   7.104  0.7676E+00  0.2760E+02
   7.114  0.7583E+00  0.2760E+02
   7.124  0.7489E+00  0.2761E+02
   7.134  0.7396E+00  0.2762E+02
   7.144  0.7304E+00  0.2763E+02
   7.154  0.7212E+00  0.2763E+02
   7.164  0.7120E+00  0.2764E+02
   7.174  0.7029E+00  0.2765E+02
   7.184  0.6938E+00  0.2766E+02
   7.194  0.6848E+00  0.2766E+02
   7.204  0.6759E+00  0.2767E+02
   7.214  0.6670E+00  0.2768E+02
   7.224  0.6582E+00  0.2768E+02
   7.234  0.6494E+00  0.2769E+02
   7.244  0.6407E+00  0.2769E+02
   7.254  0.6320E+00  0.2770E+02
   7.264  0.6235E+00  0.2771E+02
   7.274  0.6149E+00  0.2771E+02
   7.284  0.6065E+00  0.2772E+02
   7.294  0.5982E+00  0.2773E+02
   7.304  0.5899E+00  0.2773E+02
   7.314  0.5817E+00  0.2774E+02
   7.324  0.5735E+00  0.2774E+02
   7.334  0.5655E+00  0.2775E+02
   7.344  0.5575E+00  0.2775E+02
   7.354  0.5496E+00  0.2776E+02
   7.364  0.5418E+00  0.2777E+02
   7.374  0.5341E+00  0.2777E+02
   7.384  0.5265E+00  0.2778E+02
   7.394  0.5190E+00  0.2778E+02
   7.404  0.5116E+00  0.2779E+02
   7.414  0.5042E+00  0.2779E+02
   7.424  0.4970E+00  0.2780E+02
   7.434  0.4899E+00  0.2780E+02
   7.444  0.4828E+00  0.2781E+02
   7.454  0.4759E+00  0.2781E+02
   7.464  0.4691E+00  0.2782E+02
   7.474  0.4623E+00  0.2782E+02
   7.484  0.4557E+00  0.2782E+02
   7.494  0.4492E+00  0.2783E+02
   7.504  0.4428E+00  0.2783E+02
   7.514  0.4365E+00  0.2784E+02
   7.524  0.4303E+00  0.2784E+02
   7.534  0.4242E+00  0.2785E+02
   7.544  0.4183E+00  0.2785E+02
   7.554  0.4124E+00  0.2785E+02
   7.564  0.4067E+00  0.2786E+02
   7.574  0.4011E+00  0.2786E+02
   7.584  0.3956E+00  0.2787E+02
   7.594  0.3902E+00  0.2787E+02
   7.604  0.3850E+00  0.2787E+02
   7.614  0.3799E+00  0.2788E+02
   7.624  0.3749E+00  0.2788E+02
   7.634  0.3700E+00  0.2789E+02
   7.644  0.3653E+00  0.2789E+02
   7.654  0.3607E+00  0.2789E+02
   7.664  0.3562E+00  0.2790E+02
   7.674  0.3519E+00  0.2790E+02
   7.684  0.3477E+00  0.2790E+02
   7.694  0.3436E+00  0.2791E+02
   7.704  0.3397E+00  0.2791E+02
   7.714  0.3359E+00  0.2791E+02
   7.724  0.3322E+00  0.2792E+02
   7.734  0.3287E+00  0.2792E+02
   7.744  0.3253E+00  0.2792E+02
   7.754  0.3221E+00  0.2793E+02
   7.764  0.3190E+00  0.2793E+02
   7.774  0.3160E+00  0.2793E+02
   7.784  0.3132E+00  0.2794E+02
   7.794  0.3106E+00  0.2794E+02
   7.804  0.3081E+00  0.2794E+02
   7.814  0.3057E+00  0.2795E+02
   7.824  0.3035E+00  0.2795E+02
   7.834  0.3014E+00  0.2795E+02
   7.844  0.2995E+00  0.2795E+02
   7.854  0.2978E+00  0.2796E+02
   7.864  0.2962E+00  0.2796E+02
   7.874  0.2948E+00  0.2796E+02
   7.884  0.2935E+00  0.2797E+02
   7.894  0.2924E+00  0.2797E+02
   7.904  0.2915E+00  0.2797E+02
   7.914  0.2907E+00  0.2798E+02
   7.924  0.2900E+00  0.2798E+02
   7.934  0.2896E+00  0.2798E+02
   7.944  0.2893E+00  0.2798E+02
   7.954  0.2892E+00  0.2799E+02
   7.964  0.2892E+00  0.2799E+02
   7.974  0.2894E+00  0.2799E+02
   7.984  0.2898E+00  0.2800E+02
   7.994  0.2903E+00  0.2800E+02
   8.004  0.2910E+00  0.2800E+02
   8.014  0.2919E+00  0.2800E+02
   8.024  0.2930E+00  0.2801E+02
   8.034  0.2942E+00  0.2801E+02
   8.044  0.2957E+00  0.2801E+02
   8.054  0.2973E+00  0.2802E+02
   8.064  0.2990E+00  0.2802E+02
   8.074  0.3010E+00  0.2802E+02
   8.084  0.3031E+00  0.2803E+02
   8.094  0.3054E+00  0.2803E+02
   8.104  0.3079E+00  0.2803E+02
   8.114  0.3106E+00  0.2803E+02
   8.124  0.3134E+00  0.2804E+02
   8.134  0.3164E+00  0.2804E+02
   8.144  0.3196E+00  0.2804E+02
   8.154  0.3230E+00  0.2805E+02
   8.164  0.3266E+00  0.2805E+02
   8.174  0.3304E+00  0.2805E+02
   8.184  0.3343E+00  0.2806E+02
   8.194  0.3384E+00  0.2806E+02
   8.204  0.3428E+00  0.2806E+02
   8.214  0.3473E+00  0.2807E+02
   8.224  0.3519E+00  0.2807E+02
   8.234  0.3568E+00  0.2807E+02
   8.244  0.3619E+00  0.2808E+02
   8.254  0.3671E+00  0.2808E+02
   8.264  0.3725E+00  0.2809E+02
   8.274  0.3781E+00  0.2809E+02
   8.284  0.3839E+00  0.2809E+02
   8.294  0.3898E+00  0.2810E+02
   8.304  0.3960E+00  0.2810E+02
   8.314  0.4023E+00  0.2810E+02
   8.324  0.4088E+00  0.2811E+02
   8.334  0.4155E+00  0.2811E+02
   8.344  0.4224E+00  0.2812E+02
   8.354  0.4294E+00  0.2812E+02
   8.364  0.4366E+00  0.2813E+02
   8.374  0.4440E+00  0.2813E+02
   8.384  0.4516E+00  0.2813E+02
   8.394  0.4593E+00  0.2814E+02
   8.404  0.4672E+00  0.2814E+02
   8.414  0.4753E+00  0.2815E+02
   8.424  0.4836E+00  0.2815E+02
   8.434  0.4920E+00  0.2816E+02
   8.444  0.5005E+00  0.2816E+02
   8.454  0.5093E+00  0.2817E+02
   8.464  0.5182E+00  0.2817E+02
   8.474  0.5272E+00  0.2818E+02
   8.484  0.5364E+00  0.2818E+02
   8.494  0.5458E+00  0.2819E+02
   8.504  0.5553E+00  0.2820E+02
   8.514  0.5649E+00  0.2820E+02
   8.524  0.5747E+00  0.2821E+02
   8.534  0.5846E+00  0.2821E+02
   8.544  0.5947E+00  0.2822E+02
   8.554  0.6049E+00  0.2822E+02
   8.564  0.6152E+00  0.2823E+02
   8.574  0.6256E+00  0.2824E+02
   8.584  0.6362E+00  0.2824E+02
   8.594  0.6469E+00  0.2825E+02
   8.604  0.6577E+00  0.2826E+02
   8.614  0.6686E+00  0.2826E+02
   8.624  0.6796E+00  0.2827E+02
   8.634  0.6908E+00  0.2828E+02
   8.644  0.7020E+00  0.2828E+02
   8.654  0.7133E+00  0.2829E+02
   8.664  0.7247E+00  0.2830E+02
   8.674  0.7361E+00  0.2831E+02
   8.684  0.7477E+00  0.2831E+02
   8.694  0.7593E+00  0.2832E+02
   8.704  0.7710E+00  0.2833E+02
   8.714  0.7828E+00  0.2834E+02
   8.724  0.7946E+00  0.2834E+02
   8.734  0.8064E+00  0.2835E+02
   8.744  0.8183E+00  0.2836E+02
   8.754  0.8303E+00  0.2837E+02
   8.764  0.8423E+00  0.2838E+02
   8.774  0.8543E+00  0.2839E+02
   8.784  0.8663E+00  0.2839E+02
   8.794  0.8783E+00  0.2840E+02
   8.804  0.8904E+00  0.2841E+02
   8.814  0.9025E+00  0.2842E+02
   8.824  0.9145E+00  0.2843E+02
   8.834  0.9266E+00  0.2844E+02
   8.844  0.9386E+00  0.2845E+02
   8.854  0.9506E+00  0.2846E+02
   8.864  0.9626E+00  0.2847E+02
   8.874  0.9746E+00  0.2848E+02
   8.884  0.9865E+00  0.2849E+02
   8.894  0.9984E+00  0.2850E+02
   8.904  0.1010E+01  0.2851E+02
   8.914  0.1022E+01  0.2852E+02
   8.924  0.1034E+01  0.2853E+02
   8.934  0.1045E+01  0.2854E+02
   8.944  0.1057E+01  0.2855E+02
   8.954  0.1068E+01  0.2856E+02
   8.964  0.1080E+01  0.2857E+02
   8.974  0.1091E+01  0.2858E+02
   8.984  0.1102E+01  0.2859E+02
   8.994  0.1113E+01  0.2860E+02
   9.004  0.1124E+01  0.2862E+02
   9.014  0.1135E+01  0.2863E+02
   9.024  0.1146E+01  0.2864E+02
   9.034  0.1156E+01  0.2865E+02
   9.044  0.1167E+01  0.2866E+02
   9.054  0.1177E+01  0.2867E+02
   9.064  0.1187E+01  0.2868E+02
   9.074  0.1197E+01  0.2870E+02
   9.084  0.1207E+01  0.2871E+02
   9.094  0.1217E+01  0.2872E+02
   9.104  0.1226E+01  0.2873E+02
   9.114  0.1236E+01  0.2875E+02
   9.124  0.1245E+01  0.2876E+02
   9.134  0.1254E+01  0.2877E+02
   9.144  0.1263E+01  0.2878E+02
   9.154  0.1271E+01  0.2880E+02
   9.164  0.1280E+01  0.2881E+02
   9.174  0.1288E+01  0.2882E+02
   9.184  0.1296E+01  0.2883E+02
   9.194  0.1304E+01  0.2885E+02
   9.204  0.1311E+01  0.2886E+02
   9.214  0.1319E+01  0.2887E+02
   9.224  0.1326E+01  0.2889E+02
   9.234  0.1333E+01  0.2890E+02
   9.244  0.1340E+01  0.2891E+02
   9.254  0.1346E+01  0.2893E+02
   9.264  0.1353E+01  0.2894E+02
   9.274  0.1359E+01  0.2895E+02
   9.284  0.1365E+01  0.2897E+02
   9.294  0.1370E+01  0.2898E+02
   9.304  0.1376E+01  0.2900E+02
   9.314  0.1381E+01  0.2901E+02
   9.324  0.1386E+01  0.2902E+02
   9.334  0.1391E+01  0.2904E+02
   9.344  0.1395E+01  0.2905E+02
   9.354  0.1400E+01  0.2907E+02
   9.364  0.1404E+01  0.2908E+02
   9.374  0.1408E+01  0.2909E+02
   9.384  0.1412E+01  0.2911E+02
   9.394  0.1415E+01  0.2912E+02
   9.404  0.1418E+01  0.2914E+02
   9.414  0.1421E+01  0.2915E+02
   9.424  0.1424E+01  0.2916E+02
   9.434  0.1427E+01  0.2918E+02
   9.444  0.1429E+01  0.2919E+02
   9.454  0.1431E+01  0.2921E+02
   9.464  0.1433E+01  0.2922E+02
   9.474  0.1435E+01  0.2924E+02
   9.484  0.1437E+01  0.2925E+02
   9.494  0.1438E+01  0.2926E+02
   9.504  0.1440E+01  0.2928E+02
   9.514  0.1441E+01  0.2929E+02
   9.524  0.1441E+01  0.2931E+02
   9.534  0.1442E+01  0.2932E+02
   9.544  0.1443E+01  0.2934E+02
   9.554  0.1443E+01  0.2935E+02
   9.564  0.1443E+01  0.2937E+02
   9.574  0.1443E+01  0.2938E+02
   9.584  0.1443E+01  0.2939E+02
   9.594  0.1443E+01  0.2941E+02
   9.604  0.1442E+01  0.2942E+02
   9.614  0.1442E+01  0.2944E+02
   9.624  0.1441E+01  0.2945E+02
   9.634  0.1440E+01  0.2947E+02
   9.644  0.1439E+01  0.2948E+02
   9.654  0.1438E+01  0.2950E+02
   9.664  0.1437E+01  0.2951E+02
   9.674  0.1435E+01  0.2952E+02
   9.684  0.1434E+01  0.2954E+02
   9.694  0.1432E+01  0.2955E+02
   9.704  0.1431E+01  0.2957E+02
   9.714  0.1429E+01  0.2958E+02
   9.724  0.1427E+01  0.2960E+02
   9.734  0.1425E+01  0.2961E+02
   9.744  0.1423E+01  0.2962E+02
   9.754  0.1421E+01  0.2964E+02
   9.764  0.1419E+01  0.2965E+02
   9.774  0.1417E+01  0.2967E+02
   9.784  0.1414E+01  0.2968E+02
   9.794  0.1412E+01  0.2969E+02
   9.804  0.1410E+01  0.2971E+02
   9.814  0.1407E+01  0.2972E+02
   9.824  0.1405E+01  0.2974E+02
   9.834  0.1402E+01  0.2975E+02
   9.844  0.1400E+01  0.2976E+02
   9.854  0.1397E+01  0.2978E+02
   9.864  0.1395E+01  0.2979E+02
   9.874  0.1392E+01  0.2981E+02
   9.884  0.1389E+01  0.2982E+02
   9.894  0.1387E+01  0.2983E+02
   9.904  0.1384E+01  0.2985E+02
   9.914  0.1382E+01  0.2986E+02
   9.924  0.1379E+01  0.2988E+02
   9.934  0.1376E+01  0.2989E+02
   9.944  0.1374E+01  0.2990E+02
   9.954  0.1371E+01  0.2992E+02
   9.964  0.1369E+01  0.2993E+02
   9.974  0.1366E+01  0.2994E+02
   9.984  0.1364E+01  0.2996E+02
   9.994  0.1361E+01  0.2997E+02
  10.004  0.1359E+01  0.2999E+02
  10.014  0.1357E+01  0.3000E+02
  10.024  0.1354E+01  0.3001E+02
  10.034  0.1352E+01  0.3003E+02
  10.044  0.1350E+01  0.3004E+02
  10.054  0.1348E+01  0.3005E+02
  10.064  0.1346E+01  0.3007E+02
  10.074  0.1343E+01  0.3008E+02
  10.084  0.1341E+01  0.3009E+02
  10.094  0.1340E+01  0.3011E+02
  10.104  0.1338E+01  0.3012E+02
  10.114  0.1336E+01  0.3013E+02
  10.124  0.1334E+01  0.3015E+02
  10.134  0.1333E+01  0.3016E+02
  10.144  0.1331E+01  0.3017E+02
  10.154  0.1330E+01  0.3019E+02
  10.164  0.1328E+01  0.3020E+02
  10.174  0.1327E+01  0.3021E+02
  10.184  0.1326E+01  0.3023E+02
  10.194  0.1325E+01  0.3024E+02
  10.204  0.1324E+01  0.3025E+02
  10.214  0.1323E+01  0.3027E+02
  10.224  0.1322E+01  0.3028E+02
  10.234  0.1321E+01  0.3029E+02
  10.244  0.1320E+01  0.3031E+02
  10.254  0.1320E+01  0.3032E+02
  10.264  0.1320E+01  0.3033E+02
  10.274  0.1319E+01  0.3035E+02
  10.284  0.1319E+01  0.3036E+02
  10.294  0.1319E+01  0.3037E+02
  10.304  0.1319E+01  0.3039E+02
  10.314  0.1319E+01  0.3040E+02
  10.324  0.1319E+01  0.3041E+02
  10.334  0.1319E+01  0.3042E+02
  10.344  0.1320E+01  0.3044E+02
  10.354  0.1320E+01  0.3045E+02
  10.364  0.1321E+01  0.3046E+02
  10.374  0.1321E+01  0.3048E+02
  10.384  0.1322E+01  0.3049E+02
  10.394  0.1323E+01  0.3050E+02
  10.404  0.1324E+01  0.3052E+02
  10.414  0.1325E+01  0.3053E+02
  10.424  0.1327E+01  0.3054E+02
  10.434  0.1328E+01  0.3056E+02
  10.444  0.1329E+01  0.3057E+02
  10.454  0.1331E+01  0.3058E+02
  10.464  0.1332E+01  0.3060E+02
  10.474  0.1334E+01  0.3061E+02
  10.484  0.1336E+01  0.3062E+02
  10.494  0.1338E+01  0.3064E+02
  10.504  0.1340E+01  0.3065E+02
  10.514  0.1342E+01  0.3066E+02
  10.524  0.1344E+01  0.3068E+02
  10.534  0.1346E+01  0.3069E+02
  10.544  0.1349E+01  0.3070E+02
  10.554  0.1351E+01  0.3072E+02
  10.564  0.1354E+01  0.3073E+02
  10.574  0.1356E+01  0.3074E+02
  10.584  0.1359E+01  0.3076E+02
  10.594  0.1362E+01  0.3077E+02
  10.604  0.1365E+01  0.3079E+02
  10.614  0.1368E+01  0.3080E+02
  10.624  0.1371E+01  0.3081E+02
  10.634  0.1374E+01  0.3083E+02
  10.644  0.1377E+01  0.3084E+02
  10.654  0.1380E+01  0.3085E+02
  10.664  0.1383E+01  0.3087E+02
  10.674  0.1386E+01  0.3088E+02
  10.684  0.1389E+01  0.3090E+02
  10.694  0.1393E+01  0.3091E+02
  10.704  0.1396E+01  0.3092E+02
  10.714  0.1399E+01  0.3094E+02
  10.724  0.1403E+01  0.3095E+02
  10.734  0.1406E+01  0.3097E+02
  10.744  0.1410E+01  0.3098E+02
  10.754  0.1413E+01  0.3099E+02
  10.764  0.1417E+01  0.3101E+02
  10.774  0.1420E+01  0.3102E+02
  10.784  0.1424E+01  0.3104E+02
  10.794  0.1427E+01  0.3105E+02
  10.804  0.1431E+01  0.3107E+02
  10.814  0.1434E+01  0.3108E+02
  10.824  0.1438E+01  0.3109E+02
  10.834  0.1441E+01  0.3111E+02
  10.844  0.1445E+01  0.3112E+02
  10.854  0.1448E+01  0.3114E+02
  10.864  0.1451E+01  0.3115E+02
  10.874  0.1455E+01  0.3117E+02
  10.884  0.1458E+01  0.3118E+02
  10.894  0.1462E+01  0.3120E+02
  10.904  0.1465E+01  0.3121E+02
  10.914  0.1468E+01  0.3122E+02
  10.924  0.1471E+01  0.3124E+02
  10.934  0.1475E+01  0.3125E+02
  10.944  0.1478E+01  0.3127E+02
  10.954  0.1481E+01  0.3128E+02
  10.964  0.1484E+01  0.3130E+02
  10.974  0.1487E+01  0.3131E+02
  10.984  0.1490E+01  0.3133E+02
  10.994  0.1492E+01  0.3134E+02
  11.004  0.1495E+01  0.3136E+02
  11.014  0.1498E+01  0.3137E+02
  11.024  0.1501E+01  0.3139E+02
  11.034  0.1503E+01  0.3140E+02
  11.044  0.1506E+01  0.3142E+02
  11.054  0.1508E+01  0.3143E+02
  11.064  0.1511E+01  0.3145E+02
  11.074  0.1513E+01  0.3146E+02
  11.084  0.1515E+01  0.3148E+02
  11.094  0.1518E+01  0.3149E+02
  11.104  0.1520E+01  0.3151E+02
  11.114  0.1522E+01  0.3152E+02
  11.124  0.1524E+01  0.3154E+02
  11.134  0.1526E+01  0.3156E+02
  11.144  0.1528E+01  0.3157E+02
  11.154  0.1530E+01  0.3159E+02
  11.164  0.1531E+01  0.3160E+02
  11.174  0.1533E+01  0.3162E+02
  11.184  0.1535E+01  0.3163E+02
  11.194  0.1536E+01  0.3165E+02
  11.204  0.1538E+01  0.3166E+02
  11.214  0.1539E+01  0.3168E+02
  11.224  0.1540E+01  0.3169E+02
  11.234  0.1542E+01  0.3171E+02
  11.244  0.1543E+01  0.3172E+02
  11.254  0.1544E+01  0.3174E+02
  11.264  0.1545E+01  0.3175E+02
  11.274  0.1547E+01  0.3177E+02
  11.284  0.1548E+01  0.3179E+02
  11.294  0.1549E+01  0.3180E+02
  11.304  0.1550E+01  0.3182E+02
  11.314  0.1551E+01  0.3183E+02
  11.324  0.1552E+01  0.3185E+02
  11.334  0.1552E+01  0.3186E+02
  11.344  0.1553E+01  0.3188E+02
  11.354  0.1554E+01  0.3189E+02
  11.364  0.1555E+01  0.3191E+02
  11.374  0.1556E+01  0.3193E+02
  11.384  0.1556E+01  0.3194E+02
  11.394  0.1557E+01  0.3196E+02
  11.404  0.1558E+01  0.3197E+02
  11.414  0.1558E+01  0.3199E+02
  11.424  0.1559E+01  0.3200E+02
  11.434  0.1560E+01  0.3202E+02
  11.444  0.1560E+01  0.3203E+02
  11.454  0.1561E+01  0.3205E+02
  11.464  0.1561E+01  0.3207E+02
  11.474  0.1562E+01  0.3208E+02
  11.484  0.1562E+01  0.3210E+02
  11.494  0.1563E+01  0.3211E+02
  11.504  0.1563E+01  0.3213E+02
  11.514  0.1564E+01  0.3214E+02
  11.524  0.1565E+01  0.3216E+02
  11.534  0.1565E+01  0.3218E+02
  11.544  0.1566E+01  0.3219E+02
  11.554  0.1566E+01  0.3221E+02
  11.564  0.1567E+01  0.3222E+02
  11.574  0.1567E+01  0.3224E+02
  11.584  0.1568E+01  0.3225E+02
  11.594  0.1568E+01  0.3227E+02
  11.604  0.1569E+01  0.3229E+02
  11.614  0.1569E+01  0.3230E+02
  11.624  0.1570E+01  0.3232E+02
  11.634  0.1571E+01  0.3233E+02
  11.644  0.1571E+01  0.3235E+02
  11.654  0.1572E+01  0.3236E+02
  11.664  0.1572E+01  0.3238E+02
  11.674  0.1573E+01  0.3239E+02
  11.684  0.1573E+01  0.3241E+02
  11.694  0.1574E+01  0.3243E+02
  11.704  0.1575E+01  0.3244E+02
  11.714  0.1575E+01  0.3246E+02
  11.724  0.1576E+01  0.3247E+02
  11.734  0.1576E+01  0.3249E+02
  11.744  0.1577E+01  0.3251E+02
  11.754  0.1577E+01  0.3252E+02
  11.764  0.1578E+01  0.3254E+02
  11.774  0.1579E+01  0.3255E+02
  11.784  0.1579E+01  0.3257E+02
  11.794  0.1580E+01  0.3258E+02
  11.804  0.1580E+01  0.3260E+02
  11.814  0.1581E+01  0.3262E+02
  11.824  0.1581E+01  0.3263E+02
  11.834  0.1582E+01  0.3265E+02
  11.844  0.1582E+01  0.3266E+02
  11.854  0.1582E+01  0.3268E+02
  11.864  0.1583E+01  0.3269E+02
  11.874  0.1583E+01  0.3271E+02
  11.884  0.1584E+01  0.3273E+02
  11.894  0.1584E+01  0.3274E+02
  11.904  0.1584E+01  0.3276E+02
  11.914  0.1585E+01  0.3277E+02
  11.924  0.1585E+01  0.3279E+02
  11.934  0.1585E+01  0.3281E+02
  11.944  0.1585E+01  0.3282E+02
  11.954  0.1585E+01  0.3284E+02
  11.964  0.1585E+01  0.3285E+02
  11.974  0.1585E+01  0.3287E+02
  11.984  0.1585E+01  0.3289E+02
  11.994  0.1585E+01  0.3290E+02
  12.004  0.1585E+01  0.3292E+02
  12.014  0.1585E+01  0.3293E+02
  12.024  0.1585E+01  0.3295E+02
  12.034  0.1585E+01  0.3296E+02
  12.044  0.1584E+01  0.3298E+02
  12.054  0.1584E+01  0.3300E+02
  12.064  0.1584E+01  0.3301E+02
  12.074  0.1583E+01  0.3303E+02
  12.084  0.1583E+01  0.3304E+02
  12.094  0.1582E+01  0.3306E+02
  12.104  0.1582E+01  0.3308E+02
  12.114  0.1581E+01  0.3309E+02
  12.124  0.1580E+01  0.3311E+02
  12.134  0.1579E+01  0.3312E+02
  12.144  0.1578E+01  0.3314E+02
  12.154  0.1577E+01  0.3315E+02
  12.164  0.1576E+01  0.3317E+02
  12.174  0.1575E+01  0.3319E+02
  12.184  0.1574E+01  0.3320E+02
  12.194  0.1573E+01  0.3322E+02
  12.204  0.1572E+01  0.3323E+02
  12.214  0.1570E+01  0.3325E+02
  12.224  0.1569E+01  0.3326E+02
  12.234  0.1568E+01  0.3328E+02
  12.244  0.1566E+01  0.3330E+02
  12.254  0.1565E+01  0.3331E+02
  12.264  0.1563E+01  0.3333E+02
  12.274  0.1561E+01  0.3334E+02
  12.284  0.1559E+01  0.3336E+02
  12.294  0.1558E+01  0.3337E+02
  12.304  0.1556E+01  0.3339E+02
  12.314  0.1554E+01  0.3340E+02
  12.324  0.1552E+01  0.3342E+02
  12.334  0.1550E+01  0.3344E+02
  12.344  0.1547E+01  0.3345E+02
  12.354  0.1545E+01  0.3347E+02
  12.364  0.1543E+01  0.3348E+02
  12.374  0.1541E+01  0.3350E+02
  12.384  0.1538E+01  0.3351E+02
  12.394  0.1536E+01  0.3353E+02
  12.404  0.1533E+01  0.3354E+02
  12.414  0.1531E+01  0.3356E+02
  12.424  0.1528E+01  0.3357E+02
  12.434  0.1525E+01  0.3359E+02
  12.444  0.1523E+01  0.3360E+02
  12.454  0.1520E+01  0.3362E+02
  12.464  0.1517E+01  0.3363E+02
  12.474  0.1514E+01  0.3365E+02
  12.484  0.1511E+01  0.3367E+02
  12.494  0.1508E+01  0.3368E+02
  12.504  0.1505E+01  0.3370E+02
  12.514  0.1502E+01  0.3371E+02
  12.524  0.1499E+01  0.3373E+02
  12.534  0.1496E+01  0.3374E+02
  12.544  0.1493E+01  0.3376E+02
  12.554  0.1490E+01  0.3377E+02
  12.564  0.1487E+01  0.3379E+02
  12.574  0.1484E+01  0.3380E+02
  12.584  0.1480E+01  0.3381E+02
  12.594  0.1477E+01  0.3383E+02
  12.604  0.1474E+01  0.3384E+02
  12.614  0.1470E+01  0.3386E+02
  12.624  0.1467E+01  0.3387E+02
  12.634  0.1464E+01  0.3389E+02
  12.644  0.1460E+01  0.3390E+02
  12.654  0.1457E+01  0.3392E+02
  12.664  0.1454E+01  0.3393E+02
  12.674  0.1450E+01  0.3395E+02
  12.684  0.1447E+01  0.3396E+02
  12.694  0.1443E+01  0.3398E+02
  12.704  0.1440E+01  0.3399E+02
  12.714  0.1436E+01  0.3400E+02
  12.724  0.1433E+01  0.3402E+02
  12.734  0.1430E+01  0.3403E+02
  12.744  0.1426E+01  0.3405E+02
  12.754  0.1423E+01  0.3406E+02
  12.764  0.1419E+01  0.3408E+02
  12.774  0.1416E+01  0.3409E+02
  12.784  0.1412E+01  0.3410E+02
  12.794  0.1409E+01  0.3412E+02
  12.804  0.1406E+01  0.3413E+02
  12.814  0.1402E+01  0.3415E+02
  12.824  0.1399E+01  0.3416E+02
  12.834  0.1396E+01  0.3417E+02
  12.844  0.1392E+01  0.3419E+02
  12.854  0.1389E+01  0.3420E+02
  12.864  0.1386E+01  0.3422E+02
  12.874  0.1382E+01  0.3423E+02
  12.884  0.1379E+01  0.3424E+02
  12.894  0.1376E+01  0.3426E+02
  12.904  0.1373E+01  0.3427E+02
  12.914  0.1370E+01  0.3428E+02
  12.924  0.1367E+01  0.3430E+02
  12.934  0.1363E+01  0.3431E+02
  12.944  0.1360E+01  0.3433E+02
  12.954  0.1357E+01  0.3434E+02
  12.964  0.1354E+01  0.3435E+02
  12.974  0.1351E+01  0.3437E+02
  12.984  0.1349E+01  0.3438E+02
  12.994  0.1346E+01  0.3439E+02
  13.004  0.1343E+01  0.3441E+02
  13.014  0.1340E+01  0.3442E+02
  13.024  0.1337E+01  0.3443E+02
  13.034  0.1335E+01  0.3445E+02
  13.044  0.1332E+01  0.3446E+02
  13.054  0.1330E+01  0.3447E+02
  13.064  0.1327E+01  0.3449E+02
  13.074  0.1325E+01  0.3450E+02
  13.084  0.1322E+01  0.3451E+02
  13.094  0.1320E+01  0.3453E+02
  13.104  0.1317E+01  0.3454E+02
  13.114  0.1315E+01  0.3455E+02
  13.124  0.1313E+01  0.3457E+02
  13.134  0.1311E+01  0.3458E+02
  13.144  0.1308E+01  0.3459E+02
  13.154  0.1306E+01  0.3460E+02
  13.164  0.1304E+01  0.3462E+02
  13.174  0.1302E+01  0.3463E+02
  13.184  0.1300E+01  0.3464E+02
  13.194  0.1299E+01  0.3466E+02
  13.204  0.1297E+01  0.3467E+02
  13.214  0.1295E+01  0.3468E+02
  13.224  0.1293E+01  0.3470E+02
  13.234  0.1292E+01  0.3471E+02
  13.244  0.1290E+01  0.3472E+02
  13.254  0.1288E+01  0.3473E+02
  13.264  0.1287E+01  0.3475E+02
  13.274  0.1286E+01  0.3476E+02
  13.284  0.1284E+01  0.3477E+02
  13.294  0.1283E+01  0.3479E+02
  13.304  0.1282E+01  0.3480E+02
  13.314  0.1280E+01  0.3481E+02
  13.324  0.1279E+01  0.3482E+02
  13.334  0.1278E+01  0.3484E+02
  13.344  0.1277E+01  0.3485E+02
  13.354  0.1276E+01  0.3486E+02
  13.364  0.1275E+01  0.3488E+02
  13.374  0.1274E+01  0.3489E+02
  13.384  0.1273E+01  0.3490E+02
  13.394  0.1273E+01  0.3491E+02
  13.404  0.1272E+01  0.3493E+02
  13.414  0.1271E+01  0.3494E+02
  13.424  0.1270E+01  0.3495E+02
  13.434  0.1270E+01  0.3496E+02
  13.444  0.1269E+01  0.3498E+02
  13.454  0.1269E+01  0.3499E+02
  13.464  0.1268E+01  0.3500E+02
  13.474  0.1268E+01  0.3501E+02
  13.484  0.1268E+01  0.3503E+02
  13.494  0.1267E+01  0.3504E+02
  13.504  0.1267E+01  0.3505E+02
  13.514  0.1267E+01  0.3507E+02
  13.524  0.1267E+01  0.3508E+02
  13.534  0.1267E+01  0.3509E+02
  13.544  0.1267E+01  0.3510E+02
  13.554  0.1267E+01  0.3512E+02
  13.564  0.1267E+01  0.3513E+02
  13.574  0.1267E+01  0.3514E+02
  13.584  0.1267E+01  0.3515E+02
  13.594  0.1267E+01  0.3517E+02
  13.604  0.1267E+01  0.3518E+02
  13.614  0.1268E+01  0.3519E+02
  13.624  0.1268E+01  0.3520E+02
  13.634  0.1268E+01  0.3522E+02
  13.644  0.1269E+01  0.3523E+02
  13.654  0.1269E+01  0.3524E+02
  13.664  0.1270E+01  0.3526E+02
  13.674  0.1270E+01  0.3527E+02
  13.684  0.1271E+01  0.3528E+02
  13.694  0.1271E+01  0.3529E+02
  13.704  0.1272E+01  0.3531E+02
  13.714  0.1273E+01  0.3532E+02
  13.724  0.1273E+01  0.3533E+02
  13.734  0.1274E+01  0.3534E+02
  13.744  0.1275E+01  0.3536E+02
  13.754  0.1276E+01  0.3537E+02
  13.764  0.1277E+01  0.3538E+02
  13.774  0.1278E+01  0.3540E+02
  13.784  0.1279E+01  0.3541E+02
  13.794  0.1280E+01  0.3542E+02
  13.804  0.1281E+01  0.3543E+02
  13.814  0.1282E+01  0.3545E+02
  13.824  0.1283E+01  0.3546E+02
  13.834  0.1285E+01  0.3547E+02
  13.844  0.1286E+01  0.3549E+02
  13.854  0.1287E+01  0.3550E+02
  13.864  0.1289E+01  0.3551E+02
  13.874  0.1290E+01  0.3552E+02
  13.884  0.1292E+01  0.3554E+02
  13.894  0.1293E+01  0.3555E+02
  13.904  0.1295E+01  0.3556E+02
  13.914  0.1296E+01  0.3558E+02
  13.924  0.1298E+01  0.3559E+02
  13.934  0.1300E+01  0.3560E+02
  13.944  0.1301E+01  0.3561E+02
  13.954  0.1303E+01  0.3563E+02
  13.964  0.1305E+01  0.3564E+02
  13.974  0.1307E+01  0.3565E+02
  13.984  0.1309E+01  0.3567E+02
  13.994  0.1311E+01  0.3568E+02
  14.004  0.1313E+01  0.3569E+02
  14.014  0.1315E+01  0.3571E+02
  14.024  0.1317E+01  0.3572E+02
  14.034  0.1319E+01  0.3573E+02
  14.044  0.1321E+01  0.3575E+02
  14.054  0.1324E+01  0.3576E+02
  14.064  0.1326E+01  0.3577E+02
  14.074  0.1328E+01  0.3579E+02
  14.084  0.1331E+01  0.3580E+02
  14.094  0.1333E+01  0.3581E+02
  14.104  0.1336E+01  0.3583E+02
  14.114  0.1338E+01  0.3584E+02
  14.124  0.1341E+01  0.3585E+02
  14.134  0.1344E+01  0.3587E+02
  14.144  0.1346E+01  0.3588E+02
  14.154  0.1349E+01  0.3589E+02
  14.164  0.1352E+01  0.3591E+02
  14.174  0.1355E+01  0.3592E+02
  14.184  0.1358E+01  0.3593E+02
  14.194  0.1360E+01  0.3595E+02
  14.204  0.1363E+01  0.3596E+02
  14.214  0.1366E+01  0.3597E+02
  14.224  0.1369E+01  0.3599E+02
  14.234  0.1373E+01  0.3600E+02
  14.244  0.1376E+01  0.3602E+02
  14.254  0.1379E+01  0.3603E+02
  14.264  0.1382E+01  0.3604E+02
  14.274  0.1385E+01  0.3606E+02
  14.284  0.1389E+01  0.3607E+02
  14.294  0.1392E+01  0.3609E+02
  14.304  0.1395E+01  0.3610E+02
  14.314  0.1399E+01  0.3611E+02
  14.324  0.1402E+01  0.3613E+02
  14.334  0.1405E+01  0.3614E+02
  14.344  0.1409E+01  0.3616E+02
  14.354  0.1412E+01  0.3617E+02
  14.364  0.1416E+01  0.3618E+02
  14.374  0.1419E+01  0.3620E+02
  14.384  0.1423E+01  0.3621E+02
  14.394  0.1427E+01  0.3623E+02
  14.404  0.1430E+01  0.3624E+02
  14.414  0.1434E+01  0.3625E+02
  14.424  0.1438E+01  0.3627E+02
  14.434  0.1441E+01  0.3628E+02
  14.444  0.1445E+01  0.3630E+02
  14.454  0.1449E+01  0.3631E+02
  14.464  0.1452E+01  0.3633E+02
  14.474  0.1456E+01  0.3634E+02
  14.484  0.1460E+01  0.3636E+02
  14.494  0.1464E+01  0.3637E+02
  14.504  0.1468E+01  0.3639E+02
  14.514  0.1471E+01  0.3640E+02
  14.524  0.1475E+01  0.3641E+02
  14.534  0.1479E+01  0.3643E+02
  14.544  0.1483E+01  0.3644E+02
  14.554  0.1487E+01  0.3646E+02
  14.564  0.1491E+01  0.3647E+02
  14.574  0.1494E+01  0.3649E+02
  14.584  0.1498E+01  0.3650E+02
  14.594  0.1502E+01  0.3652E+02
  14.604  0.1506E+01  0.3653E+02
  14.614  0.1510E+01  0.3655E+02
  14.624  0.1514E+01  0.3656E+02
  14.634  0.1518E+01  0.3658E+02
  14.644  0.1521E+01  0.3659E+02
  14.654  0.1525E+01  0.3661E+02
  14.664  0.1529E+01  0.3663E+02
  14.674  0.1533E+01  0.3664E+02
  14.684  0.1537E+01  0.3666E+02
  14.694  0.1540E+01  0.3667E+02
  14.704  0.1544E+01  0.3669E+02
  14.714  0.1548E+01  0.3670E+02
  14.724  0.1552E+01  0.3672E+02
  14.734  0.1555E+01  0.3673E+02
  14.744  0.1559E+01  0.3675E+02
  14.754  0.1563E+01  0.3676E+02
  14.764  0.1566E+01  0.3678E+02
  14.774  0.1570E+01  0.3680E+02
  14.784  0.1574E+01  0.3681E+02
  14.794  0.1577E+01  0.3683E+02
  14.804  0.1581E+01  0.3684E+02
  14.814  0.1585E+01  0.3686E+02
  14.824  0.1588E+01  0.3688E+02
  14.834  0.1592E+01  0.3689E+02
  14.844  0.1595E+01  0.3691E+02
  14.854  0.1599E+01  0.3692E+02
  14.864  0.1602E+01  0.3694E+02
  14.874  0.1605E+01  0.3696E+02
  14.884  0.1609E+01  0.3697E+02
  14.894  0.1612E+01  0.3699E+02
  14.904  0.1615E+01  0.3700E+02
  14.914  0.1619E+01  0.3702E+02
  14.924  0.1622E+01  0.3704E+02
  14.934  0.1625E+01  0.3705E+02
  14.944  0.1628E+01  0.3707E+02
  14.954  0.1631E+01  0.3708E+02
  14.964  0.1635E+01  0.3710E+02
  14.974  0.1638E+01  0.3712E+02
  14.984  0.1641E+01  0.3713E+02
  14.994  0.1644E+01  0.3715E+02
  15.004  0.1647E+01  0.3717E+02
  15.014  0.1649E+01  0.3718E+02
  15.024  0.1652E+01  0.3720E+02
  15.034  0.1655E+01  0.3722E+02
  15.044  0.1658E+01  0.3723E+02
  15.054  0.1661E+01  0.3725E+02
  15.064  0.1663E+01  0.3727E+02
  15.074  0.1666E+01  0.3728E+02
  15.084  0.1669E+01  0.3730E+02
  15.094  0.1671E+01  0.3732E+02
  15.104  0.1674E+01  0.3733E+02
  15.114  0.1676E+01  0.3735E+02
  15.124  0.1679E+01  0.3737E+02
  15.134  0.1681E+01  0.3738E+02
  15.144  0.1683E+01  0.3740E+02
  15.154  0.1685E+01  0.3742E+02
  15.164  0.1688E+01  0.3743E+02
  15.174  0.1690E+01  0.3745E+02
  15.184  0.1692E+01  0.3747E+02
  15.194  0.1694E+01  0.3748E+02
  15.204  0.1696E+01  0.3750E+02
  15.214  0.1698E+01  0.3752E+02
  15.224  0.1700E+01  0.3754E+02
  15.234  0.1702E+01  0.3755E+02
  15.244  0.1704E+01  0.3757E+02
  15.254  0.1705E+01  0.3759E+02
  15.264  0.1707E+01  0.3760E+02
  15.274  0.1709E+01  0.3762E+02
  15.284  0.1710E+01  0.3764E+02
  15.294  0.1712E+01  0.3766E+02
  15.304  0.1713E+01  0.3767E+02
  15.314  0.1715E+01  0.3769E+02
  15.324  0.1716E+01  0.3771E+02
  15.334  0.1717E+01  0.3772E+02
  15.344  0.1719E+01  0.3774E+02
  15.354  0.1720E+01  0.3776E+02
  15.364  0.1721E+01  0.3778E+02
  15.374  0.1722E+01  0.3779E+02
  15.384  0.1723E+01  0.3781E+02
  15.394  0.1724E+01  0.3783E+02
  15.404  0.1725E+01  0.3784E+02
  15.414  0.1726E+01  0.3786E+02
  15.424  0.1727E+01  0.3788E+02
  15.434  0.1728E+01  0.3790E+02
  15.444  0.1729E+01  0.3791E+02
  15.454  0.1729E+01  0.3793E+02
  15.464  0.1730E+01  0.3795E+02
  15.474  0.1731E+01  0.3797E+02
  15.484  0.1731E+01  0.3798E+02
  15.494  0.1732E+01  0.3800E+02
  15.504  0.1732E+01  0.3802E+02
  15.514  0.1733E+01  0.3803E+02
  15.524  0.1733E+01  0.3805E+02
  15.534  0.1734E+01  0.3807E+02
  15.544  0.1734E+01  0.3809E+02
  15.554  0.1735E+01  0.3810E+02
  15.564  0.1735E+01  0.3812E+02
  15.574  0.1735E+01  0.3814E+02
  15.584  0.1735E+01  0.3816E+02
  15.594  0.1736E+01  0.3817E+02
  15.604  0.1736E+01  0.3819E+02
  15.614  0.1736E+01  0.3821E+02
  15.624  0.1736E+01  0.3823E+02
  15.634  0.1736E+01  0.3824E+02
  15.644  0.1736E+01  0.3826E+02
  15.654  0.1736E+01  0.3828E+02
  15.664  0.1737E+01  0.3829E+02
  15.674  0.1737E+01  0.3831E+02
  15.684  0.1737E+01  0.3833E+02
  15.694  0.1737E+01  0.3835E+02
  15.704  0.1737E+01  0.3836E+02
  15.714  0.1737E+01  0.3838E+02
  15.724  0.1737E+01  0.3840E+02
  15.734  0.1737E+01  0.3842E+02
  15.744  0.1737E+01  0.3843E+02
  15.754  0.1737E+01  0.3845E+02
  15.764  0.1737E+01  0.3847E+02
  15.774  0.1737E+01  0.3849E+02
  15.784  0.1737E+01  0.3850E+02
  15.794  0.1737E+01  0.3852E+02
  15.804  0.1737E+01  0.3854E+02
  15.814  0.1737E+01  0.3856E+02
  15.824  0.1737E+01  0.3857E+02
  15.834  0.1737E+01  0.3859E+02
  15.844  0.1737E+01  0.3861E+02
  15.854  0.1737E+01  0.3862E+02
  15.864  0.1737E+01  0.3864E+02
  15.874  0.1738E+01  0.3866E+02
  15.884  0.1738E+01  0.3868E+02
  15.894  0.1738E+01  0.3869E+02
  15.904  0.1738E+01  0.3871E+02
  15.914  0.1738E+01  0.3873E+02
  15.924  0.1739E+01  0.3875E+02
  15.934  0.1739E+01  0.3876E+02
  15.944  0.1739E+01  0.3878E+02
  15.954  0.1740E+01  0.3880E+02
  15.964  0.1740E+01  0.3882E+02
  15.974  0.1741E+01  0.3883E+02
  15.984  0.1741E+01  0.3885E+02
  15.994  0.1741E+01  0.3887E+02
  16.004  0.1742E+01  0.3889E+02
  16.014  0.1743E+01  0.3890E+02
  16.024  0.1743E+01  0.3892E+02
  16.034  0.1744E+01  0.3894E+02
  16.044  0.1744E+01  0.3896E+02
  16.054  0.1745E+01  0.3897E+02
  16.064  0.1746E+01  0.3899E+02
  16.074  0.1747E+01  0.3901E+02
  16.084  0.1748E+01  0.3903E+02
  16.094  0.1748E+01  0.3904E+02
  16.104  0.1749E+01  0.3906E+02
  16.114  0.1750E+01  0.3908E+02
  16.124  0.1751E+01  0.3910E+02
  16.134  0.1752E+01  0.3911E+02
  16.144  0.1753E+01  0.3913E+02
  16.154  0.1755E+01  0.3915E+02
  16.164  0.1756E+01  0.3917E+02
  16.174  0.1757E+01  0.3918E+02
  16.184  0.1758E+01  0.3920E+02
  16.194  0.1759E+01  0.3922E+02
  16.204  0.1761E+01  0.3924E+02
  16.214  0.1762E+01  0.3925E+02
  16.224  0.1764E+01  0.3927E+02
  16.234  0.1765E+01  0.3929E+02
  16.244  0.1766E+01  0.3931E+02
  16.254  0.1768E+01  0.3932E+02
  16.264  0.1770E+01  0.3934E+02
  16.274  0.1771E+01  0.3936E+02
  16.284  0.1773E+01  0.3938E+02
  16.294  0.1774E+01  0.3939E+02
  16.304  0.1776E+01  0.3941E+02
  16.314  0.1778E+01  0.3943E+02
  16.324  0.1780E+01  0.3945E+02
  16.334  0.1781E+01  0.3947E+02
  16.344  0.1783E+01  0.3948E+02
  16.354  0.1785E+01  0.3950E+02
  16.364  0.1787E+01  0.3952E+02
  16.374  0.1789E+01  0.3954E+02
  16.384  0.1791E+01  0.3956E+02
  16.394  0.1793E+01  0.3957E+02
  16.404  0.1795E+01  0.3959E+02
  16.414  0.1797E+01  0.3961E+02
  16.424  0.1799E+01  0.3963E+02
  16.434  0.1801E+01  0.3965E+02
  16.444  0.1803E+01  0.3966E+02
  16.454  0.1805E+01  0.3968E+02
  16.464  0.1807E+01  0.3970E+02
  16.474  0.1809E+01  0.3972E+02
  16.484  0.1812E+01  0.3974E+02
  16.494  0.1814E+01  0.3975E+02
  16.504  0.1816E+01  0.3977E+02
  16.514  0.1818E+01  0.3979E+02
  16.524  0.1820E+01  0.3981E+02
  16.534  0.1823E+01  0.3983E+02
  16.544  0.1825E+01  0.3984E+02
  16.554  0.1827E+01  0.3986E+02
  16.564  0.1829E+01  0.3988E+02
  16.574  0.1832E+01  0.3990E+02
  16.584  0.1834E+01  0.3992E+02
  16.594  0.1836E+01  0.3994E+02
  16.604  0.1839E+01  0.3995E+02
  16.614  0.1841E+01  0.3997E+02
  16.624  0.1843E+01  0.3999E+02
  16.634  0.1846E+01  0.4001E+02
  16.644  0.1848E+01  0.4003E+02
  16.654  0.1850E+01  0.4005E+02
  16.664  0.1853E+01  0.4007E+02
  16.674  0.1855E+01  0.4008E+02
  16.684  0.1857E+01  0.4010E+02
  16.694  0.1860E+01  0.4012E+02
  16.704  0.1862E+01  0.4014E+02
  16.714  0.1864E+01  0.4016E+02
  16.724  0.1866E+01  0.4018E+02
  16.734  0.1869E+01  0.4020E+02
  16.744  0.1871E+01  0.4021E+02
  16.754  0.1873E+01  0.4023E+02
  16.764  0.1875E+01  0.4025E+02
  16.774  0.1878E+01  0.4027E+02
  16.784  0.1880E+01  0.4029E+02
  16.794  0.1882E+01  0.4031E+02
  16.804  0.1884E+01  0.4033E+02
  16.814  0.1887E+01  0.4035E+02
  16.824  0.1889E+01  0.4037E+02
  16.834  0.1891E+01  0.4038E+02
  16.844  0.1893E+01  0.4040E+02
  16.854  0.1895E+01  0.4042E+02
  16.864  0.1897E+01  0.4044E+02
  16.874  0.1899E+01  0.4046E+02
  16.884  0.1902E+01  0.4048E+02
  16.894  0.1904E+01  0.4050E+02
  16.904  0.1906E+01  0.4052E+02
  16.914  0.1908E+01  0.4054E+02
  16.924  0.1910E+01  0.4056E+02
  16.934  0.1912E+01  0.4057E+02
  16.944  0.1914E+01  0.4059E+02
  16.954  0.1915E+01  0.4061E+02
  16.964  0.1917E+01  0.4063E+02
  16.974  0.1919E+01  0.4065E+02
  16.984  0.1921E+01  0.4067E+02
  16.994  0.1923E+01  0.4069E+02
  17.004  0.1925E+01  0.4071E+02
  17.014  0.1927E+01  0.4073E+02
  17.024  0.1928E+01  0.4075E+02
  17.034  0.1930E+01  0.4077E+02
  17.044  0.1932E+01  0.4079E+02
  17.054  0.1933E+01  0.4081E+02
  17.064  0.1935E+01  0.4082E+02
  17.074  0.1937E+01  0.4084E+02
  17.084  0.1938E+01  0.4086E+02
  17.094  0.1940E+01  0.4088E+02
  17.104  0.1941E+01  0.4090E+02
  17.114  0.1943E+01  0.4092E+02
  17.124  0.1944E+01  0.4094E+02
  17.134  0.1946E+01  0.4096E+02
  17.144  0.1947E+01  0.4098E+02
  17.154  0.1949E+01  0.4100E+02
  17.164  0.1950E+01  0.4102E+02
  17.174  0.1951E+01  0.4104E+02
  17.184  0.1953E+01  0.4106E+02
  17.194  0.1954E+01  0.4108E+02
  17.204  0.1955E+01  0.4110E+02
  17.214  0.1956E+01  0.4112E+02
  17.224  0.1958E+01  0.4114E+02
  17.234  0.1959E+01  0.4116E+02
  17.244  0.1960E+01  0.4118E+02
  17.254  0.1961E+01  0.4119E+02
  17.264  0.1962E+01  0.4121E+02
  17.274  0.1963E+01  0.4123E+02
  17.284  0.1964E+01  0.4125E+02
  17.294  0.1965E+01  0.4127E+02
  17.304  0.1966E+01  0.4129E+02
  17.314  0.1967E+01  0.4131E+02
  17.324  0.1968E+01  0.4133E+02
  17.334  0.1969E+01  0.4135E+02
  17.344  0.1969E+01  0.4137E+02
  17.354  0.1970E+01  0.4139E+02
  17.364  0.1971E+01  0.4141E+02
  17.374  0.1972E+01  0.4143E+02
  17.384  0.1972E+01  0.4145E+02
  17.394  0.1973E+01  0.4147E+02
  17.404  0.1973E+01  0.4149E+02
  17.414  0.1974E+01  0.4151E+02
  17.424  0.1974E+01  0.4153E+02
  17.434  0.1975E+01  0.4155E+02
  17.444  0.1975E+01  0.4157E+02
  17.454  0.1976E+01  0.4159E+02
  17.464  0.1976E+01  0.4161E+02
  17.474  0.1976E+01  0.4163E+02
  17.484  0.1977E+01  0.4165E+02
  17.494  0.1977E+01  0.4167E+02
  17.504  0.1977E+01  0.4169E+02
  17.514  0.1977E+01  0.4171E+02
  17.524  0.1978E+01  0.4173E+02
  17.534  0.1978E+01  0.4175E+02
  17.544  0.1978E+01  0.4177E+02
  17.554  0.1978E+01  0.4179E+02
  17.564  0.1978E+01  0.4181E+02
  17.574  0.1978E+01  0.4183E+02
  17.584  0.1978E+01  0.4185E+02
  17.594  0.1978E+01  0.4187E+02
  17.604  0.1977E+01  0.4189E+02
  17.614  0.1977E+01  0.4191E+02
  17.624  0.1977E+01  0.4193E+02
  17.634  0.1977E+01  0.4194E+02
  17.644  0.1976E+01  0.4196E+02
  17.654  0.1976E+01  0.4198E+02
  17.664  0.1976E+01  0.4200E+02
  17.674  0.1975E+01  0.4202E+02
  17.684  0.1975E+01  0.4204E+02
  17.694  0.1974E+01  0.4206E+02
  17.704  0.1974E+01  0.4208E+02
  17.714  0.1973E+01  0.4210E+02
  17.724  0.1973E+01  0.4212E+02
  17.734  0.1972E+01  0.4214E+02
  17.744  0.1971E+01  0.4216E+02
  17.754  0.1971E+01  0.4218E+02
  17.764  0.1970E+01  0.4220E+02
  17.774  0.1969E+01  0.4222E+02
  17.784  0.1968E+01  0.4224E+02
  17.794  0.1967E+01  0.4226E+02
  17.804  0.1966E+01  0.4228E+02
  17.814  0.1965E+01  0.4230E+02
  17.824  0.1964E+01  0.4232E+02
  17.834  0.1963E+01  0.4234E+02
  17.844  0.1962E+01  0.4236E+02
  17.854  0.1961E+01  0.4238E+02
  17.864  0.1960E+01  0.4240E+02
  17.874  0.1959E+01  0.4242E+02
  17.884  0.1958E+01  0.4244E+02
  17.894  0.1956E+01  0.4246E+02
  17.904  0.1955E+01  0.4248E+02
  17.914  0.1954E+01  0.4250E+02
  17.924  0.1952E+01  0.4252E+02
  17.934  0.1951E+01  0.4253E+02
  17.944  0.1950E+01  0.4255E+02
  17.954  0.1948E+01  0.4257E+02
  17.964  0.1947E+01  0.4259E+02
  17.974  0.1945E+01  0.4261E+02
  17.984  0.1943E+01  0.4263E+02
  17.994  0.1942E+01  0.4265E+02
  18.004  0.1940E+01  0.4267E+02
  18.014  0.1939E+01  0.4269E+02
  18.024  0.1937E+01  0.4271E+02
  18.034  0.1935E+01  0.4273E+02
  18.044  0.1933E+01  0.4275E+02
  18.054  0.1932E+01  0.4277E+02
  18.064  0.1930E+01  0.4279E+02
  18.074  0.1928E+01  0.4281E+02
  18.084  0.1926E+01  0.4283E+02
  18.094  0.1924E+01  0.4284E+02
  18.104  0.1922E+01  0.4286E+02
  18.114  0.1920E+01  0.4288E+02
  18.124  0.1918E+01  0.4290E+02
  18.134  0.1916E+01  0.4292E+02
  18.144  0.1914E+01  0.4294E+02
  18.154  0.1912E+01  0.4296E+02
  18.164  0.1910E+01  0.4298E+02
  18.174  0.1908E+01  0.4300E+02
  18.184  0.1906E+01  0.4302E+02
  18.194  0.1904E+01  0.4304E+02
  18.204  0.1901E+01  0.4306E+02
  18.214  0.1899E+01  0.4307E+02
  18.224  0.1897E+01  0.4309E+02
  18.234  0.1895E+01  0.4311E+02
  18.244  0.1892E+01  0.4313E+02
  18.254  0.1890E+01  0.4315E+02
  18.264  0.1888E+01  0.4317E+02
  18.274  0.1885E+01  0.4319E+02
  18.284  0.1883E+01  0.4321E+02
  18.294  0.1880E+01  0.4323E+02
  18.304  0.1878E+01  0.4324E+02
  18.314  0.1875E+01  0.4326E+02
  18.324  0.1873E+01  0.4328E+02
  18.334  0.1870E+01  0.4330E+02
  18.344  0.1868E+01  0.4332E+02
  18.354  0.1865E+01  0.4334E+02
  18.364  0.1862E+01  0.4336E+02
  18.374  0.1860E+01  0.4337E+02
