#  E (eV)   dos(E)     Int dos(E) EFermi =   7.985 eV
 -14.866  0.5780E-03  0.5780E-05
 -14.856  0.6930E-03  0.1271E-04
 -14.846  0.8294E-03  0.2100E-04
 -14.836  0.9911E-03  0.3091E-04
 -14.826  0.1182E-02  0.4274E-04
 -14.816  0.1408E-02  0.5682E-04
 -14.806  0.1674E-02  0.7356E-04
 -14.796  0.1987E-02  0.9343E-04
 -14.786  0.2354E-02  0.1170E-03
 -14.776  0.2785E-02  0.1448E-03
 -14.766  0.3289E-02  0.1777E-03
 -14.756  0.3878E-02  0.2165E-03
 -14.746  0.4565E-02  0.2621E-03
 -14.736  0.5364E-02  0.3158E-03
 -14.726  0.6293E-02  0.3787E-03
 -14.716  0.7370E-02  0.4524E-03
 -14.706  0.8618E-02  0.5386E-03
 -14.696  0.1006E-01  0.6392E-03
 -14.686  0.1172E-01  0.7564E-03
 -14.676  0.1364E-01  0.8928E-03
 -14.666  0.1584E-01  0.1051E-02
 -14.656  0.1837E-01  0.1235E-02
 -14.646  0.2127E-01  0.1448E-02
 -14.636  0.2458E-01  0.1693E-02
 -14.626  0.2836E-01  0.1977E-02
 -14.616  0.3267E-01  0.2304E-02
 -14.606  0.3758E-01  0.2680E-02
 -14.596  0.4315E-01  0.3111E-02
 -14.586  0.4946E-01  0.3606E-02
 -14.576  0.5660E-01  0.4172E-02
 -14.566  0.6467E-01  0.4818E-02
 -14.556  0.7378E-01  0.5556E-02
 -14.546  0.8402E-01  0.6396E-02
 -14.536  0.9553E-01  0.7352E-02
 -14.526  0.1084E+00  0.8436E-02
 -14.516  0.1229E+00  0.9665E-02
 -14.506  0.1391E+00  0.1106E-01
 -14.496  0.1571E+00  0.1263E-01
 -14.486  0.1772E+00  0.1440E-01
 -14.476  0.1995E+00  0.1639E-01
 -14.466  0.2243E+00  0.1864E-01
 -14.456  0.2518E+00  0.2115E-01
 -14.446  0.2821E+00  0.2398E-01
 -14.436  0.3157E+00  0.2713E-01
 -14.426  0.3526E+00  0.3066E-01
 -14.416  0.3933E+00  0.3459E-01
 -14.406  0.4379E+00  0.3897E-01
 -14.396  0.4869E+00  0.4384E-01
 -14.386  0.5404E+00  0.4924E-01
 -14.376  0.5989E+00  0.5523E-01
 -14.366  0.6627E+00  0.6186E-01
 -14.356  0.7322E+00  0.6918E-01
 -14.346  0.8077E+00  0.7726E-01
 -14.336  0.8896E+00  0.8615E-01
 -14.326  0.9783E+00  0.9594E-01
 -14.316  0.1074E+01  0.1067E+00
 -14.306  0.1178E+01  0.1185E+00
 -14.296  0.1289E+01  0.1313E+00
 -14.286  0.1409E+01  0.1454E+00
 -14.276  0.1537E+01  0.1608E+00
 -14.266  0.1675E+01  0.1776E+00
 -14.256  0.1823E+01  0.1958E+00
 -14.246  0.1980E+01  0.2156E+00
 -14.236  0.2148E+01  0.2371E+00
 -14.226  0.2326E+01  0.2603E+00
 -14.216  0.2516E+01  0.2855E+00
 -14.206  0.2717E+01  0.3126E+00
 -14.196  0.2929E+01  0.3419E+00
 -14.186  0.3154E+01  0.3735E+00
 -14.176  0.3391E+01  0.4074E+00
 -14.166  0.3641E+01  0.4438E+00
 -14.156  0.3903E+01  0.4828E+00
 -14.146  0.4179E+01  0.5246E+00
 -14.136  0.4467E+01  0.5693E+00
 -14.126  0.4769E+01  0.6170E+00
 -14.116  0.5083E+01  0.6678E+00
 -14.106  0.5411E+01  0.7219E+00
 -14.096  0.5752E+01  0.7795E+00
 -14.086  0.6106E+01  0.8405E+00
 -14.076  0.6473E+01  0.9052E+00
 -14.066  0.6853E+01  0.9738E+00
 -14.056  0.7245E+01  0.1046E+01
 -14.046  0.7649E+01  0.1123E+01
 -14.036  0.8065E+01  0.1203E+01
 -14.026  0.8493E+01  0.1288E+01
 -14.016  0.8931E+01  0.1378E+01
 -14.006  0.9380E+01  0.1471E+01
 -13.996  0.9838E+01  0.1570E+01
 -13.986  0.1031E+02  0.1673E+01
 -13.976  0.1078E+02  0.1781E+01
 -13.966  0.1127E+02  0.1893E+01
 -13.956  0.1176E+02  0.2011E+01
 -13.946  0.1225E+02  0.2133E+01
 -13.936  0.1276E+02  0.2261E+01
 -13.926  0.1326E+02  0.2394E+01
 -13.916  0.1377E+02  0.2531E+01
 -13.906  0.1429E+02  0.2674E+01
 -13.896  0.1480E+02  0.2822E+01
 -13.886  0.1532E+02  0.2975E+01
 -13.876  0.1583E+02  0.3134E+01
 -13.866  0.1634E+02  0.3297E+01
 -13.856  0.1685E+02  0.3466E+01
 -13.846  0.1736E+02  0.3639E+01
 -13.836  0.1786E+02  0.3818E+01
 -13.826  0.1836E+02  0.4002E+01
 -13.816  0.1885E+02  0.4190E+01
 -13.806  0.1933E+02  0.4383E+01
 -13.796  0.1980E+02  0.4581E+01
 -13.786  0.2026E+02  0.4784E+01
 -13.776  0.2071E+02  0.4991E+01
 -13.766  0.2115E+02  0.5202E+01
 -13.756  0.2157E+02  0.5418E+01
 -13.746  0.2198E+02  0.5638E+01
 -13.736  0.2238E+02  0.5862E+01
 -13.726  0.2276E+02  0.6089E+01
 -13.716  0.2312E+02  0.6320E+01
 -13.706  0.2346E+02  0.6555E+01
 -13.696  0.2379E+02  0.6793E+01
 -13.686  0.2409E+02  0.7034E+01
 -13.676  0.2438E+02  0.7278E+01
 -13.666  0.2464E+02  0.7524E+01
 -13.656  0.2488E+02  0.7773E+01
 -13.646  0.2510E+02  0.8024E+01
 -13.636  0.2530E+02  0.8277E+01
 -13.626  0.2548E+02  0.8532E+01
 -13.616  0.2563E+02  0.8788E+01
 -13.606  0.2575E+02  0.9046E+01
 -13.596  0.2585E+02  0.9304E+01
 -13.586  0.2593E+02  0.9563E+01
 -13.576  0.2598E+02  0.9823E+01
 -13.566  0.2601E+02  0.1008E+02
 -13.556  0.2601E+02  0.1034E+02
 -13.546  0.2599E+02  0.1060E+02
 -13.536  0.2594E+02  0.1086E+02
 -13.526  0.2586E+02  0.1112E+02
 -13.516  0.2576E+02  0.1138E+02
 -13.506  0.2564E+02  0.1164E+02
 -13.496  0.2549E+02  0.1189E+02
 -13.486  0.2531E+02  0.1214E+02
 -13.476  0.2512E+02  0.1239E+02
 -13.466  0.2489E+02  0.1264E+02
 -13.456  0.2465E+02  0.1289E+02
 -13.446  0.2438E+02  0.1313E+02
 -13.436  0.2409E+02  0.1337E+02
 -13.426  0.2378E+02  0.1361E+02
 -13.416  0.2345E+02  0.1385E+02
 -13.406  0.2309E+02  0.1408E+02
 -13.396  0.2272E+02  0.1431E+02
 -13.386  0.2233E+02  0.1453E+02
 -13.376  0.2193E+02  0.1475E+02
 -13.366  0.2151E+02  0.1496E+02
 -13.356  0.2107E+02  0.1517E+02
 -13.346  0.2062E+02  0.1538E+02
 -13.336  0.2015E+02  0.1558E+02
 -13.326  0.1968E+02  0.1578E+02
 -13.316  0.1919E+02  0.1597E+02
 -13.306  0.1869E+02  0.1616E+02
 -13.296  0.1819E+02  0.1634E+02
 -13.286  0.1767E+02  0.1652E+02
 -13.276  0.1716E+02  0.1669E+02
 -13.266  0.1663E+02  0.1685E+02
 -13.256  0.1611E+02  0.1701E+02
 -13.246  0.1558E+02  0.1717E+02
 -13.236  0.1505E+02  0.1732E+02
 -13.226  0.1452E+02  0.1747E+02
 -13.216  0.1399E+02  0.1761E+02
 -13.206  0.1347E+02  0.1774E+02
 -13.196  0.1294E+02  0.1787E+02
 -13.186  0.1242E+02  0.1799E+02
 -13.176  0.1191E+02  0.1811E+02
 -13.166  0.1141E+02  0.1823E+02
 -13.156  0.1091E+02  0.1834E+02
 -13.146  0.1042E+02  0.1844E+02
 -13.136  0.9933E+01  0.1854E+02
 -13.126  0.9461E+01  0.1863E+02
 -13.116  0.8999E+01  0.1872E+02
 -13.106  0.8548E+01  0.1881E+02
 -13.096  0.8109E+01  0.1889E+02
 -13.086  0.7682E+01  0.1897E+02
 -13.076  0.7267E+01  0.1904E+02
 -13.066  0.6865E+01  0.1911E+02
 -13.056  0.6477E+01  0.1917E+02
 -13.046  0.6102E+01  0.1923E+02
 -13.036  0.5740E+01  0.1929E+02
 -13.026  0.5392E+01  0.1935E+02
 -13.016  0.5059E+01  0.1940E+02
 -13.006  0.4739E+01  0.1944E+02
 -12.996  0.4433E+01  0.1949E+02
 -12.986  0.4140E+01  0.1953E+02
 -12.976  0.3862E+01  0.1957E+02
 -12.966  0.3597E+01  0.1960E+02
 -12.956  0.3345E+01  0.1964E+02
 -12.946  0.3106E+01  0.1967E+02
 -12.936  0.2880E+01  0.1970E+02
 -12.926  0.2667E+01  0.1972E+02
 -12.916  0.2466E+01  0.1975E+02
 -12.906  0.2276E+01  0.1977E+02
 -12.896  0.2098E+01  0.1979E+02
 -12.886  0.1931E+01  0.1981E+02
 -12.876  0.1775E+01  0.1983E+02
 -12.866  0.1628E+01  0.1985E+02
 -12.856  0.1492E+01  0.1986E+02
 -12.846  0.1365E+01  0.1987E+02
 -12.836  0.1247E+01  0.1989E+02
 -12.826  0.1137E+01  0.1990E+02
 -12.816  0.1035E+01  0.1991E+02
 -12.806  0.9413E+00  0.1992E+02
 -12.796  0.8546E+00  0.1993E+02
 -12.786  0.7746E+00  0.1993E+02
 -12.776  0.7010E+00  0.1994E+02
 -12.766  0.6334E+00  0.1995E+02
 -12.756  0.5714E+00  0.1995E+02
 -12.746  0.5147E+00  0.1996E+02
 -12.736  0.4629E+00  0.1996E+02
 -12.726  0.4157E+00  0.1997E+02
 -12.716  0.3727E+00  0.1997E+02
 -12.706  0.3336E+00  0.1997E+02
 -12.696  0.2981E+00  0.1998E+02
 -12.686  0.2660E+00  0.1998E+02
 -12.676  0.2370E+00  0.1998E+02
 -12.666  0.2108E+00  0.1998E+02
 -12.656  0.1872E+00  0.1999E+02
 -12.646  0.1659E+00  0.1999E+02
 -12.636  0.1469E+00  0.1999E+02
 -12.626  0.1298E+00  0.1999E+02
 -12.616  0.1145E+00  0.1999E+02
 -12.606  0.1009E+00  0.1999E+02
 -12.596  0.8873E-01  0.1999E+02
 -12.586  0.7791E-01  0.1999E+02
 -12.576  0.6830E-01  0.2000E+02
 -12.566  0.5978E-01  0.2000E+02
 -12.556  0.5223E-01  0.2000E+02
 -12.546  0.4557E-01  0.2000E+02
 -12.536  0.3969E-01  0.2000E+02
 -12.526  0.3451E-01  0.2000E+02
 -12.516  0.2996E-01  0.2000E+02
 -12.506  0.2597E-01  0.2000E+02
 -12.496  0.2247E-01  0.2000E+02
 -12.486  0.1941E-01  0.2000E+02
 -12.476  0.1674E-01  0.2000E+02
 -12.466  0.1441E-01  0.2000E+02
 -12.456  0.1239E-01  0.2000E+02
 -12.446  0.1063E-01  0.2000E+02
 -12.436  0.9111E-02  0.2000E+02
 -12.426  0.7793E-02  0.2000E+02
 -12.416  0.6655E-02  0.2000E+02
 -12.406  0.5674E-02  0.2000E+02
 -12.396  0.4829E-02  0.2000E+02
 -12.386  0.4104E-02  0.2000E+02
 -12.376  0.3481E-02  0.2000E+02
 -12.366  0.2948E-02  0.2000E+02
 -12.356  0.2493E-02  0.2000E+02
 -12.346  0.2104E-02  0.2000E+02
 -12.336  0.1773E-02  0.2000E+02
 -12.326  0.1492E-02  0.2000E+02
 -12.316  0.1253E-02  0.2000E+02
 -12.306  0.1051E-02  0.2000E+02
 -12.296  0.8796E-03  0.2000E+02
 -12.286  0.7351E-03  0.2000E+02
 -12.276  0.6133E-03  0.2000E+02
 -12.266  0.5108E-03  0.2000E+02
 -12.256  0.4247E-03  0.2000E+02
 -12.246  0.3526E-03  0.2000E+02
 -12.236  0.2922E-03  0.2000E+02
 -12.226  0.2418E-03  0.2000E+02
 -12.216  0.1997E-03  0.2000E+02
 -12.206  0.1647E-03  0.2000E+02
 -12.196  0.1356E-03  0.2000E+02
 -12.186  0.1114E-03  0.2000E+02
 -12.176  0.9140E-04  0.2000E+02
 -12.166  0.7486E-04  0.2000E+02
 -12.156  0.6121E-04  0.2000E+02
 -12.146  0.4997E-04  0.2000E+02
 -12.136  0.4072E-04  0.2000E+02
 -12.126  0.3313E-04  0.2000E+02
 -12.116  0.2690E-04  0.2000E+02
 -12.106  0.2181E-04  0.2000E+02
 -12.096  0.1766E-04  0.2000E+02
 -12.086  0.1427E-04  0.2000E+02
 -12.076  0.1151E-04  0.2000E+02
 -12.066  0.9270E-05  0.2000E+02
 -12.056  0.7453E-05  0.2000E+02
 -12.046  0.5982E-05  0.2000E+02
 -12.036  0.4793E-05  0.2000E+02
 -12.026  0.3834E-05  0.2000E+02
 -12.016  0.3062E-05  0.2000E+02
 -12.006  0.2441E-05  0.2000E+02
 -11.996  0.1943E-05  0.2000E+02
 -11.986  0.1544E-05  0.2000E+02
 -11.976  0.1224E-05  0.2000E+02
 -11.966  0.9694E-06  0.2000E+02
 -11.956  0.7663E-06  0.2000E+02
 -11.946  0.6047E-06  0.2000E+02
 -11.936  0.4764E-06  0.2000E+02
 -11.926  0.3747E-06  0.2000E+02
 -11.916  0.2942E-06  0.2000E+02
 -11.906  0.2306E-06  0.2000E+02
 -11.896  0.1804E-06  0.2000E+02
 -11.886  0.1409E-06  0.2000E+02
 -11.876  0.1099E-06  0.2000E+02
 -11.866  0.8554E-07  0.2000E+02
 -11.856  0.6648E-07  0.2000E+02
 -11.846  0.5158E-07  0.2000E+02
 -11.836  0.3995E-07  0.2000E+02
 -11.826  0.3089E-07  0.2000E+02
 -11.816  0.2384E-07  0.2000E+02
 -11.806  0.1837E-07  0.2000E+02
 -11.796  0.1413E-07  0.2000E+02
 -11.786  0.1085E-07  0.2000E+02
 -11.776  0.8319E-08  0.2000E+02
 -11.766  0.6367E-08  0.2000E+02
 -11.756  0.4864E-08  0.2000E+02
 -11.746  0.3710E-08  0.2000E+02
 -11.736  0.2825E-08  0.2000E+02
 -11.726  0.2147E-08  0.2000E+02
 -11.716  0.1629E-08  0.2000E+02
 -11.706  0.1234E-08  0.2000E+02
 -11.696  0.9333E-09  0.2000E+02
 -11.686  0.7046E-09  0.2000E+02
 -11.676  0.5310E-09  0.2000E+02
 -11.666  0.3995E-09  0.2000E+02
 -11.656  0.3001E-09  0.2000E+02
 -11.646  0.2250E-09  0.2000E+02
 -11.636  0.1684E-09  0.2000E+02
 -11.626  0.1258E-09  0.2000E+02
 -11.616  0.9387E-10  0.2000E+02
 -11.606  0.6990E-10  0.2000E+02
 -11.596  0.5196E-10  0.2000E+02
 -11.586  0.3856E-10  0.2000E+02
 -11.576  0.2857E-10  0.2000E+02
 -11.566  0.2113E-10  0.2000E+02
 -11.556  0.1560E-10  0.2000E+02
 -11.546  0.1150E-10  0.2000E+02
 -11.536  0.8461E-11  0.2000E+02
 -11.526  0.6215E-11  0.2000E+02
 -11.516  0.4558E-11  0.2000E+02
 -11.506  0.3336E-11  0.2000E+02
 -11.496  0.2438E-11  0.2000E+02
 -11.486  0.1779E-11  0.2000E+02
 -11.476  0.1295E-11  0.2000E+02
 -11.466  0.9418E-12  0.2000E+02
 -11.456  0.6835E-12  0.2000E+02
 -11.446  0.4953E-12  0.2000E+02
 -11.436  0.3582E-12  0.2000E+02
 -11.426  0.2587E-12  0.2000E+02
 -11.416  0.1864E-12  0.2000E+02
 -11.406  0.1342E-12  0.2000E+02
 -11.396  0.9638E-13  0.2000E+02
 -11.386  0.6912E-13  0.2000E+02
 -11.376  0.4948E-13  0.2000E+02
 -11.366  0.3536E-13  0.2000E+02
 -11.356  0.2523E-13  0.2000E+02
 -11.346  0.1797E-13  0.2000E+02
 -11.336  0.1278E-13  0.2000E+02
 -11.326  0.9068E-14  0.2000E+02
 -11.316  0.6425E-14  0.2000E+02
 -11.306  0.4545E-14  0.2000E+02
 -11.296  0.3209E-14  0.2000E+02
 -11.286  0.2262E-14  0.2000E+02
 -11.276  0.1592E-14  0.2000E+02
 -11.266  0.1118E-14  0.2000E+02
 -11.256  0.7844E-15  0.2000E+02
 -11.246  0.5491E-15  0.2000E+02
 -11.236  0.3838E-15  0.2000E+02
 -11.226  0.2678E-15  0.2000E+02
 -11.216  0.1865E-15  0.2000E+02
 -11.206  0.1297E-15  0.2000E+02
 -11.196  0.9001E-16  0.2000E+02
 -11.186  0.6237E-16  0.2000E+02
 -11.176  0.4315E-16  0.2000E+02
 -11.166  0.2979E-16  0.2000E+02
 -11.156  0.2054E-16  0.2000E+02
 -11.146  0.1413E-16  0.2000E+02
 -11.136  0.9710E-17  0.2000E+02
 -11.126  0.6659E-17  0.2000E+02
 -11.116  0.4559E-17  0.2000E+02
 -11.106  0.3116E-17  0.2000E+02
 -11.096  0.2126E-17  0.2000E+02
 -11.086  0.1448E-17  0.2000E+02
 -11.076  0.9846E-18  0.2000E+02
 -11.066  0.6684E-18  0.2000E+02
 -11.056  0.4529E-18  0.2000E+02
 -11.046  0.3064E-18  0.2000E+02
 -11.036  0.2069E-18  0.2000E+02
 -11.026  0.1395E-18  0.2000E+02
 -11.016  0.9385E-19  0.2000E+02
 -11.006  0.6305E-19  0.2000E+02
 -10.996  0.4229E-19  0.2000E+02
 -10.986  0.2831E-19  0.2000E+02
 -10.976  0.1892E-19  0.2000E+02
 -10.966  0.1263E-19  0.2000E+02
 -10.956  0.8409E-20  0.2000E+02
 -10.946  0.5591E-20  0.2000E+02
 -10.936  0.3711E-20  0.2000E+02
 -10.926  0.2459E-20  0.2000E+02
 -10.916  0.1627E-20  0.2000E+02
 -10.906  0.1074E-20  0.2000E+02
 -10.896  0.7082E-21  0.2000E+02
 -10.886  0.4661E-21  0.2000E+02
 -10.876  0.3062E-21  0.2000E+02
 -10.866  0.2008E-21  0.2000E+02
 -10.856  0.1315E-21  0.2000E+02
 -10.846  0.8592E-22  0.2000E+02
 -10.836  0.5606E-22  0.2000E+02
 -10.826  0.3651E-22  0.2000E+02
 -10.816  0.2374E-22  0.2000E+02
 -10.806  0.1541E-22  0.2000E+02
 -10.796  0.9986E-23  0.2000E+02
 -10.786  0.6459E-23  0.2000E+02
 -10.776  0.4171E-23  0.2000E+02
 -10.766  0.2689E-23  0.2000E+02
 -10.756  0.1730E-23  0.2000E+02
 -10.746  0.1112E-23  0.2000E+02
 -10.736  0.7129E-24  0.2000E+02
 -10.726  0.4564E-24  0.2000E+02
 -10.716  0.2917E-24  0.2000E+02
 -10.706  0.1861E-24  0.2000E+02
 -10.696  0.1185E-24  0.2000E+02
 -10.686  0.7537E-25  0.2000E+02
 -10.676  0.4784E-25  0.2000E+02
 -10.666  0.3031E-25  0.2000E+02
 -10.656  0.1918E-25  0.2000E+02
 -10.646  0.1211E-25  0.2000E+02
 -10.636  0.7633E-26  0.2000E+02
 -10.626  0.4803E-26  0.2000E+02
 -10.616  0.3018E-26  0.2000E+02
 -10.606  0.1892E-26  0.2000E+02
 -10.596  0.1185E-26  0.2000E+02
 -10.586  0.7404E-27  0.2000E+02
 -10.576  0.4619E-27  0.2000E+02
 -10.566  0.2877E-27  0.2000E+02
 -10.556  0.1789E-27  0.2000E+02
 -10.546  0.1110E-27  0.2000E+02
 -10.536  0.6880E-28  0.2000E+02
 -10.526  0.4255E-28  0.2000E+02
 -10.516  0.2628E-28  0.2000E+02
 -10.506  0.1620E-28  0.2000E+02
 -10.496  0.9967E-29  0.2000E+02
 -10.486  0.6123E-29  0.2000E+02
 -10.476  0.3755E-29  0.2000E+02
 -10.466  0.2299E-29  0.2000E+02
 -10.456  0.1405E-29  0.2000E+02
 -10.446  0.8570E-30  0.2000E+02
 -10.436  0.5220E-30  0.2000E+02
 -10.426  0.3174E-30  0.2000E+02
 -10.416  0.1926E-30  0.2000E+02
 -10.406  0.1167E-30  0.2000E+02
 -10.396  0.7059E-31  0.2000E+02
 -10.386  0.4262E-31  0.2000E+02
 -10.376  0.2569E-31  0.2000E+02
 -10.366  0.1546E-31  0.2000E+02
 -10.356  0.9287E-32  0.2000E+02
 -10.346  0.5569E-32  0.2000E+02
 -10.336  0.3334E-32  0.2000E+02
 -10.326  0.1992E-32  0.2000E+02
 -10.316  0.1189E-32  0.2000E+02
 -10.306  0.7078E-33  0.2000E+02
 -10.296  0.4208E-33  0.2000E+02
 -10.286  0.2498E-33  0.2000E+02
 -10.276  0.1480E-33  0.2000E+02
 -10.266  0.8752E-34  0.2000E+02
 -10.256  0.5168E-34  0.2000E+02
 -10.246  0.3046E-34  0.2000E+02
 -10.236  0.1792E-34  0.2000E+02
 -10.226  0.1053E-34  0.2000E+02
 -10.216  0.6173E-35  0.2000E+02
 -10.206  0.3614E-35  0.2000E+02
 -10.196  0.2112E-35  0.2000E+02
 -10.186  0.1232E-35  0.2000E+02
 -10.176  0.7174E-36  0.2000E+02
 -10.166  0.4171E-36  0.2000E+02
 -10.156  0.2420E-36  0.2000E+02
 -10.146  0.1402E-36  0.2000E+02
 -10.136  0.8110E-37  0.2000E+02
 -10.126  0.4683E-37  0.2000E+02
 -10.116  0.2699E-37  0.2000E+02
 -10.106  0.1553E-37  0.2000E+02
 -10.096  0.8920E-38  0.2000E+02
 -10.086  0.5115E-38  0.2000E+02
 -10.076  0.2928E-38  0.2000E+02
 -10.066  0.1673E-38  0.2000E+02
 -10.056  0.9543E-39  0.2000E+02
 -10.046  0.5434E-39  0.2000E+02
 -10.036  0.3089E-39  0.2000E+02
 -10.026  0.1753E-39  0.2000E+02
 -10.016  0.9932E-40  0.2000E+02
 -10.006  0.5617E-40  0.2000E+02
  -9.996  0.3171E-40  0.2000E+02
  -9.986  0.1787E-40  0.2000E+02
  -9.976  0.1006E-40  0.2000E+02
  -9.966  0.5648E-41  0.2000E+02
  -9.956  0.3167E-41  0.2000E+02
  -9.946  0.1773E-41  0.2000E+02
  -9.936  0.9904E-42  0.2000E+02
  -9.926  0.5525E-42  0.2000E+02
  -9.916  0.3076E-42  0.2000E+02
  -9.906  0.1710E-42  0.2000E+02
  -9.896  0.9490E-43  0.2000E+02
  -9.886  0.5257E-43  0.2000E+02
  -9.876  0.2907E-43  0.2000E+02
  -9.866  0.1605E-43  0.2000E+02
  -9.856  0.8845E-44  0.2000E+02
  -9.846  0.4866E-44  0.2000E+02
  -9.836  0.2673E-44  0.2000E+02
  -9.826  0.1465E-44  0.2000E+02
  -9.816  0.8020E-45  0.2000E+02
  -9.806  0.4382E-45  0.2000E+02
  -9.796  0.2390E-45  0.2000E+02
  -9.786  0.1301E-45  0.2000E+02
  -9.776  0.7074E-46  0.2000E+02
  -9.766  0.3839E-46  0.2000E+02
  -9.756  0.2079E-46  0.2000E+02
  -9.746  0.1124E-46  0.2000E+02
  -9.736  0.6070E-47  0.2000E+02
  -9.726  0.3271E-47  0.2000E+02
  -9.716  0.1760E-47  0.2000E+02
  -9.706  0.9451E-48  0.2000E+02
  -9.696  0.5067E-48  0.2000E+02
  -9.686  0.2712E-48  0.2000E+02
  -9.676  0.1449E-48  0.2000E+02
  -9.666  0.7727E-49  0.2000E+02
  -9.656  0.4114E-49  0.2000E+02
  -9.646  0.2187E-49  0.2000E+02
  -9.636  0.1160E-49  0.2000E+02
  -9.626  0.6146E-50  0.2000E+02
  -9.616  0.3250E-50  0.2000E+02
  -9.606  0.1716E-50  0.2000E+02
  -9.596  0.9040E-51  0.2000E+02
  -9.586  0.4756E-51  0.2000E+02
  -9.576  0.2497E-51  0.2000E+02
  -9.566  0.1309E-51  0.2000E+02
  -9.556  0.6852E-52  0.2000E+02
  -9.546  0.3580E-52  0.2000E+02
  -9.536  0.1867E-52  0.2000E+02
  -9.526  0.9720E-53  0.2000E+02
  -9.516  0.5052E-53  0.2000E+02
  -9.506  0.2621E-53  0.2000E+02
  -9.496  0.1358E-53  0.2000E+02
  -9.486  0.7019E-54  0.2000E+02
  -9.476  0.3623E-54  0.2000E+02
  -9.466  0.1867E-54  0.2000E+02
  -9.456  0.9603E-55  0.2000E+02
  -9.446  0.4931E-55  0.2000E+02
  -9.436  0.2528E-55  0.2000E+02
  -9.426  0.1294E-55  0.2000E+02
  -9.416  0.6608E-56  0.2000E+02
  -9.406  0.3370E-56  0.2000E+02
  -9.396  0.1716E-56  0.2000E+02
  -9.386  0.8720E-57  0.2000E+02
  -9.376  0.4424E-57  0.2000E+02
  -9.366  0.2241E-57  0.2000E+02
  -9.356  0.1133E-57  0.2000E+02
  -9.346  0.5718E-58  0.2000E+02
  -9.336  0.2881E-58  0.2000E+02
  -9.326  0.1449E-58  0.2000E+02
  -9.316  0.7276E-59  0.2000E+02
  -9.306  0.3647E-59  0.2000E+02
  -9.296  0.1825E-59  0.2000E+02
  -9.286  0.9116E-60  0.2000E+02
  -9.276  0.4546E-60  0.2000E+02
  -9.266  0.2263E-60  0.2000E+02
  -9.256  0.1125E-60  0.2000E+02
  -9.246  0.5579E-61  0.2000E+02
  -9.236  0.2763E-61  0.2000E+02
  -9.226  0.1366E-61  0.2000E+02
  -9.216  0.6742E-62  0.2000E+02
  -9.206  0.3322E-62  0.2000E+02
  -9.196  0.1634E-62  0.2000E+02
  -9.186  0.8021E-63  0.2000E+02
  -9.176  0.3932E-63  0.2000E+02
  -9.166  0.1924E-63  0.2000E+02
  -9.156  0.9396E-64  0.2000E+02
  -9.146  0.4582E-64  0.2000E+02
  -9.136  0.2230E-64  0.2000E+02
  -9.126  0.1084E-64  0.2000E+02
  -9.116  0.5257E-65  0.2000E+02
  -9.106  0.2546E-65  0.2000E+02
  -9.096  0.1231E-65  0.2000E+02
  -9.086  0.5940E-66  0.2000E+02
  -9.076  0.2862E-66  0.2000E+02
  -9.066  0.1376E-66  0.2000E+02
  -9.056  0.6607E-67  0.2000E+02
  -9.046  0.3167E-67  0.2000E+02
  -9.036  0.1515E-67  0.2000E+02
  -9.026  0.7237E-68  0.2000E+02
  -9.016  0.3450E-68  0.2000E+02
  -9.006  0.1642E-68  0.2000E+02
  -8.996  0.7804E-69  0.2000E+02
  -8.986  0.3702E-69  0.2000E+02
  -8.976  0.1753E-69  0.2000E+02
  -8.966  0.8286E-70  0.2000E+02
  -8.956  0.3910E-70  0.2000E+02
  -8.946  0.1842E-70  0.2000E+02
  -8.936  0.8662E-71  0.2000E+02
  -8.926  0.4067E-71  0.2000E+02
  -8.916  0.1906E-71  0.2000E+02
  -8.906  0.8916E-72  0.2000E+02
  -8.896  0.4164E-72  0.2000E+02
  -8.886  0.1941E-72  0.2000E+02
  -8.876  0.9036E-73  0.2000E+02
  -8.866  0.4198E-73  0.2000E+02
  -8.856  0.1947E-73  0.2000E+02
  -8.846  0.9017E-74  0.2000E+02
  -8.836  0.4168E-74  0.2000E+02
  -8.826  0.1923E-74  0.2000E+02
  -8.816  0.8859E-75  0.2000E+02
  -8.806  0.4074E-75  0.2000E+02
  -8.796  0.1870E-75  0.2000E+02
  -8.786  0.8570E-76  0.2000E+02
  -8.776  0.3920E-76  0.2000E+02
  -8.766  0.1790E-76  0.2000E+02
  -8.756  0.8162E-77  0.2000E+02
  -8.746  0.3715E-77  0.2000E+02
  -8.736  0.1688E-77  0.2000E+02
  -8.726  0.7654E-78  0.2000E+02
  -8.716  0.3465E-78  0.2000E+02
  -8.706  0.1566E-78  0.2000E+02
  -8.696  0.7067E-79  0.2000E+02
  -8.686  0.3183E-79  0.2000E+02
  -8.676  0.1431E-79  0.2000E+02
  -8.666  0.6425E-80  0.2000E+02
  -8.656  0.2879E-80  0.2000E+02
  -8.646  0.1288E-80  0.2000E+02
  -8.636  0.5752E-81  0.2000E+02
  -8.626  0.2565E-81  0.2000E+02
  -8.616  0.1142E-81  0.2000E+02
  -8.606  0.5078E-82  0.2000E+02
  -8.596  0.2258E-82  0.2000E+02
  -8.586  0.1005E-82  0.2000E+02
  -8.576  0.4498E-83  0.2000E+02
  -8.566  0.2041E-83  0.2000E+02
  -8.556  0.9555E-84  0.2000E+02
  -8.546  0.4769E-84  0.2000E+02
  -8.536  0.2664E-84  0.2000E+02
  -8.526  0.1742E-84  0.2000E+02
  -8.516  0.1344E-84  0.2000E+02
  -8.506  0.1180E-84  0.2000E+02
  -8.496  0.1120E-84  0.2000E+02
  -8.486  0.1103E-84  0.2000E+02
  -8.476  0.1102E-84  0.2000E+02
  -8.466  0.1102E-84  0.2000E+02
  -8.456  0.1102E-84  0.2000E+02
  -8.446  0.1102E-84  0.2000E+02
  -8.436  0.1102E-84  0.2000E+02
  -8.426  0.1102E-84  0.2000E+02
  -8.416  0.1102E-84  0.2000E+02
  -8.406  0.1102E-84  0.2000E+02
  -8.396  0.1102E-84  0.2000E+02
  -8.386  0.1102E-84  0.2000E+02
  -8.376  0.1102E-84  0.2000E+02
  -8.366  0.1102E-84  0.2000E+02
  -8.356  0.1102E-84  0.2000E+02
  -8.346  0.1102E-84  0.2000E+02
  -8.336  0.1102E-84  0.2000E+02
  -8.326  0.1102E-84  0.2000E+02
  -8.316  0.1102E-84  0.2000E+02
  -8.306  0.1102E-84  0.2000E+02
  -8.296  0.1102E-84  0.2000E+02
  -8.286  0.1102E-84  0.2000E+02
  -8.276  0.1102E-84  0.2000E+02
  -8.266  0.1102E-84  0.2000E+02
  -8.256  0.1102E-84  0.2000E+02
  -8.246  0.1102E-84  0.2000E+02
  -8.236  0.1102E-84  0.2000E+02
  -8.226  0.1102E-84  0.2000E+02
  -8.216  0.1102E-84  0.2000E+02
  -8.206  0.1102E-84  0.2000E+02
  -8.196  0.1102E-84  0.2000E+02
  -8.186  0.1102E-84  0.2000E+02
  -8.176  0.1102E-84  0.2000E+02
  -8.166  0.1102E-84  0.2000E+02
  -8.156  0.1102E-84  0.2000E+02
  -8.146  0.1102E-84  0.2000E+02
  -8.136  0.1102E-84  0.2000E+02
  -8.126  0.1102E-84  0.2000E+02
  -8.116  0.1102E-84  0.2000E+02
  -8.106  0.1102E-84  0.2000E+02
  -8.096  0.1102E-84  0.2000E+02
  -8.086  0.1102E-84  0.2000E+02
  -8.076  0.1102E-84  0.2000E+02
  -8.066  0.1102E-84  0.2000E+02
  -8.056  0.1102E-84  0.2000E+02
  -8.046  0.1102E-84  0.2000E+02
  -8.036  0.1102E-84  0.2000E+02
  -8.026  0.1102E-84  0.2000E+02
  -8.016  0.1102E-84  0.2000E+02
  -8.006  0.1102E-84  0.2000E+02
  -7.996  0.1102E-84  0.2000E+02
  -7.986  0.1102E-84  0.2000E+02
  -7.976  0.1102E-84  0.2000E+02
  -7.966  0.1102E-84  0.2000E+02
  -7.956  0.1102E-84  0.2000E+02
  -7.946  0.1102E-84  0.2000E+02
  -7.936  0.1102E-84  0.2000E+02
  -7.926  0.1102E-84  0.2000E+02
  -7.916  0.1102E-84  0.2000E+02
  -7.906  0.1102E-84  0.2000E+02
  -7.896  0.1102E-84  0.2000E+02
  -7.886  0.1102E-84  0.2000E+02
  -7.876  0.1102E-84  0.2000E+02
  -7.866  0.1102E-84  0.2000E+02
  -7.856  0.1102E-84  0.2000E+02
  -7.846  0.1102E-84  0.2000E+02
  -7.836  0.1102E-84  0.2000E+02
  -7.826  0.1102E-84  0.2000E+02
  -7.816  0.1102E-84  0.2000E+02
  -7.806  0.1102E-84  0.2000E+02
  -7.796  0.1102E-84  0.2000E+02
  -7.786  0.1102E-84  0.2000E+02
  -7.776  0.1102E-84  0.2000E+02
  -7.766  0.1102E-84  0.2000E+02
  -7.756  0.1102E-84  0.2000E+02
  -7.746  0.1102E-84  0.2000E+02
  -7.736  0.1102E-84  0.2000E+02
  -7.726  0.1102E-84  0.2000E+02
  -7.716  0.1102E-84  0.2000E+02
  -7.706  0.1102E-84  0.2000E+02
  -7.696  0.1102E-84  0.2000E+02
  -7.686  0.1102E-84  0.2000E+02
  -7.676  0.1102E-84  0.2000E+02
  -7.666  0.1102E-84  0.2000E+02
  -7.656  0.1102E-84  0.2000E+02
  -7.646  0.1102E-84  0.2000E+02
  -7.636  0.1102E-84  0.2000E+02
  -7.626  0.1102E-84  0.2000E+02
  -7.616  0.1102E-84  0.2000E+02
  -7.606  0.1102E-84  0.2000E+02
  -7.596  0.1102E-84  0.2000E+02
  -7.586  0.1102E-84  0.2000E+02
  -7.576  0.1102E-84  0.2000E+02
  -7.566  0.1102E-84  0.2000E+02
  -7.556  0.1102E-84  0.2000E+02
  -7.546  0.1102E-84  0.2000E+02
  -7.536  0.1102E-84  0.2000E+02
  -7.526  0.1102E-84  0.2000E+02
  -7.516  0.1102E-84  0.2000E+02
  -7.506  0.1102E-84  0.2000E+02
  -7.496  0.1103E-84  0.2000E+02
  -7.486  0.1105E-84  0.2000E+02
  -7.476  0.1109E-84  0.2000E+02
  -7.466  0.1117E-84  0.2000E+02
  -7.456  0.1138E-84  0.2000E+02
  -7.446  0.1183E-84  0.2000E+02
  -7.436  0.1286E-84  0.2000E+02
  -7.426  0.1517E-84  0.2000E+02
  -7.416  0.2035E-84  0.2000E+02
  -7.406  0.3199E-84  0.2000E+02
  -7.396  0.5805E-84  0.2000E+02
  -7.386  0.1163E-83  0.2000E+02
  -7.376  0.2463E-83  0.2000E+02
  -7.366  0.5359E-83  0.2000E+02
  -7.356  0.1180E-82  0.2000E+02
  -7.346  0.2610E-82  0.2000E+02
  -7.336  0.5779E-82  0.2000E+02
  -7.326  0.1279E-81  0.2000E+02
  -7.316  0.2828E-81  0.2000E+02
  -7.306  0.6242E-81  0.2000E+02
  -7.296  0.1376E-80  0.2000E+02
  -7.286  0.3027E-80  0.2000E+02
  -7.276  0.6649E-80  0.2000E+02
  -7.266  0.1458E-79  0.2000E+02
  -7.256  0.3192E-79  0.2000E+02
  -7.246  0.6975E-79  0.2000E+02
  -7.236  0.1522E-78  0.2000E+02
  -7.226  0.3314E-78  0.2000E+02
  -7.216  0.7205E-78  0.2000E+02
  -7.206  0.1564E-77  0.2000E+02
  -7.196  0.3388E-77  0.2000E+02
  -7.186  0.7328E-77  0.2000E+02
  -7.176  0.1582E-76  0.2000E+02
  -7.166  0.3411E-76  0.2000E+02
  -7.156  0.7340E-76  0.2000E+02
  -7.146  0.1577E-75  0.2000E+02
  -7.136  0.3381E-75  0.2000E+02
  -7.126  0.7238E-75  0.2000E+02
  -7.116  0.1547E-74  0.2000E+02
  -7.106  0.3300E-74  0.2000E+02
  -7.096  0.7029E-74  0.2000E+02
  -7.086  0.1494E-73  0.2000E+02
  -7.076  0.3172E-73  0.2000E+02
  -7.066  0.6721E-73  0.2000E+02
  -7.056  0.1422E-72  0.2000E+02
  -7.046  0.3002E-72  0.2000E+02
  -7.036  0.6328E-72  0.2000E+02
  -7.026  0.1332E-71  0.2000E+02
  -7.016  0.2797E-71  0.2000E+02
  -7.006  0.5866E-71  0.2000E+02
  -6.996  0.1228E-70  0.2000E+02
  -6.986  0.2567E-70  0.2000E+02
  -6.976  0.5355E-70  0.2000E+02
  -6.966  0.1115E-69  0.2000E+02
  -6.956  0.2319E-69  0.2000E+02
  -6.946  0.4814E-69  0.2000E+02
  -6.936  0.9976E-69  0.2000E+02
  -6.926  0.2064E-68  0.2000E+02
  -6.916  0.4261E-68  0.2000E+02
  -6.906  0.8785E-68  0.2000E+02
  -6.896  0.1808E-67  0.2000E+02
  -6.886  0.3714E-67  0.2000E+02
  -6.876  0.7617E-67  0.2000E+02
  -6.866  0.1560E-66  0.2000E+02
  -6.856  0.3188E-66  0.2000E+02
  -6.846  0.6504E-66  0.2000E+02
  -6.836  0.1325E-65  0.2000E+02
  -6.826  0.2694E-65  0.2000E+02
  -6.816  0.5469E-65  0.2000E+02
  -6.806  0.1108E-64  0.2000E+02
  -6.796  0.2242E-64  0.2000E+02
  -6.786  0.4528E-64  0.2000E+02
  -6.776  0.9128E-64  0.2000E+02
  -6.766  0.1837E-63  0.2000E+02
  -6.756  0.3691E-63  0.2000E+02
  -6.746  0.7403E-63  0.2000E+02
  -6.736  0.1482E-62  0.2000E+02
  -6.726  0.2963E-62  0.2000E+02
  -6.716  0.5913E-62  0.2000E+02
  -6.706  0.1178E-61  0.2000E+02
  -6.696  0.2342E-61  0.2000E+02
  -6.686  0.4650E-61  0.2000E+02
  -6.676  0.9216E-61  0.2000E+02
  -6.666  0.1823E-60  0.2000E+02
  -6.656  0.3601E-60  0.2000E+02
  -6.646  0.7100E-60  0.2000E+02
  -6.636  0.1398E-59  0.2000E+02
  -6.626  0.2746E-59  0.2000E+02
  -6.616  0.5387E-59  0.2000E+02
  -6.606  0.1055E-58  0.2000E+02
  -6.596  0.2062E-58  0.2000E+02
  -6.586  0.4024E-58  0.2000E+02
  -6.576  0.7840E-58  0.2000E+02
  -6.566  0.1525E-57  0.2000E+02
  -6.556  0.2961E-57  0.2000E+02
  -6.546  0.5738E-57  0.2000E+02
  -6.536  0.1110E-56  0.2000E+02
  -6.526  0.2145E-56  0.2000E+02
  -6.516  0.4136E-56  0.2000E+02
  -6.506  0.7961E-56  0.2000E+02
  -6.496  0.1530E-55  0.2000E+02
  -6.486  0.2935E-55  0.2000E+02
  -6.476  0.5621E-55  0.2000E+02
  -6.466  0.1075E-54  0.2000E+02
  -6.456  0.2051E-54  0.2000E+02
  -6.446  0.3908E-54  0.2000E+02
  -6.436  0.7433E-54  0.2000E+02
  -6.426  0.1411E-53  0.2000E+02
  -6.416  0.2676E-53  0.2000E+02
  -6.406  0.5063E-53  0.2000E+02
  -6.396  0.9565E-53  0.2000E+02
  -6.386  0.1804E-52  0.2000E+02
  -6.376  0.3396E-52  0.2000E+02
  -6.366  0.6383E-52  0.2000E+02
  -6.356  0.1198E-51  0.2000E+02
  -6.346  0.2243E-51  0.2000E+02
  -6.336  0.4194E-51  0.2000E+02
  -6.326  0.7829E-51  0.2000E+02
  -6.316  0.1459E-50  0.2000E+02
  -6.306  0.2714E-50  0.2000E+02
  -6.296  0.5040E-50  0.2000E+02
  -6.286  0.9345E-50  0.2000E+02
  -6.276  0.1729E-49  0.2000E+02
  -6.266  0.3195E-49  0.2000E+02
  -6.256  0.5894E-49  0.2000E+02
  -6.246  0.1085E-48  0.2000E+02
  -6.236  0.1995E-48  0.2000E+02
  -6.226  0.3661E-48  0.2000E+02
  -6.216  0.6706E-48  0.2000E+02
  -6.206  0.1226E-47  0.2000E+02
  -6.196  0.2239E-47  0.2000E+02
  -6.186  0.4080E-47  0.2000E+02
  -6.176  0.7424E-47  0.2000E+02
  -6.166  0.1348E-46  0.2000E+02
  -6.156  0.2445E-46  0.2000E+02
  -6.146  0.4426E-46  0.2000E+02
  -6.136  0.7998E-46  0.2000E+02
  -6.126  0.1443E-45  0.2000E+02
  -6.116  0.2598E-45  0.2000E+02
  -6.106  0.4671E-45  0.2000E+02
  -6.096  0.8383E-45  0.2000E+02
  -6.086  0.1502E-44  0.2000E+02
  -6.076  0.2687E-44  0.2000E+02
  -6.066  0.4797E-44  0.2000E+02
  -6.056  0.8551E-44  0.2000E+02
  -6.046  0.1522E-43  0.2000E+02
  -6.036  0.2703E-43  0.2000E+02
  -6.026  0.4794E-43  0.2000E+02
  -6.016  0.8487E-43  0.2000E+02
  -6.006  0.1500E-42  0.2000E+02
  -5.996  0.2646E-42  0.2000E+02
  -5.986  0.4661E-42  0.2000E+02
  -5.976  0.8196E-42  0.2000E+02
  -5.966  0.1439E-41  0.2000E+02
  -5.956  0.2521E-41  0.2000E+02
  -5.946  0.4410E-41  0.2000E+02
  -5.936  0.7702E-41  0.2000E+02
  -5.926  0.1343E-40  0.2000E+02
  -5.916  0.2337E-40  0.2000E+02
  -5.906  0.4061E-40  0.2000E+02
  -5.896  0.7043E-40  0.2000E+02
  -5.886  0.1220E-39  0.2000E+02
  -5.876  0.2108E-39  0.2000E+02
  -5.866  0.3638E-39  0.2000E+02
  -5.856  0.6268E-39  0.2000E+02
  -5.846  0.1078E-38  0.2000E+02
  -5.836  0.1851E-38  0.2000E+02
  -5.826  0.3172E-38  0.2000E+02
  -5.816  0.5427E-38  0.2000E+02
  -5.806  0.9270E-38  0.2000E+02
  -5.796  0.1581E-37  0.2000E+02
  -5.786  0.2691E-37  0.2000E+02
  -5.776  0.4573E-37  0.2000E+02
  -5.766  0.7758E-37  0.2000E+02
  -5.756  0.1314E-36  0.2000E+02
  -5.746  0.2221E-36  0.2000E+02
  -5.736  0.3749E-36  0.2000E+02
  -5.726  0.6318E-36  0.2000E+02
  -5.716  0.1063E-35  0.2000E+02
  -5.706  0.1785E-35  0.2000E+02
  -5.696  0.2992E-35  0.2000E+02
  -5.686  0.5007E-35  0.2000E+02
  -5.676  0.8364E-35  0.2000E+02
  -5.666  0.1395E-34  0.2000E+02
  -5.656  0.2323E-34  0.2000E+02
  -5.646  0.3861E-34  0.2000E+02
  -5.636  0.6406E-34  0.2000E+02
  -5.626  0.1061E-33  0.2000E+02
  -5.616  0.1755E-33  0.2000E+02
  -5.606  0.2897E-33  0.2000E+02
  -5.596  0.4775E-33  0.2000E+02
  -5.586  0.7856E-33  0.2000E+02
  -5.576  0.1290E-32  0.2000E+02
  -5.566  0.2116E-32  0.2000E+02
  -5.556  0.3463E-32  0.2000E+02
  -5.546  0.5659E-32  0.2000E+02
  -5.536  0.9232E-32  0.2000E+02
  -5.526  0.1503E-31  0.2000E+02
  -5.516  0.2444E-31  0.2000E+02
  -5.506  0.3967E-31  0.2000E+02
  -5.496  0.6428E-31  0.2000E+02
  -5.486  0.1040E-30  0.2000E+02
  -5.476  0.1679E-30  0.2000E+02
  -5.466  0.2706E-30  0.2000E+02
  -5.456  0.4355E-30  0.2000E+02
  -5.446  0.6997E-30  0.2000E+02
  -5.436  0.1122E-29  0.2000E+02
  -5.426  0.1797E-29  0.2000E+02
  -5.416  0.2872E-29  0.2000E+02
  -5.406  0.4582E-29  0.2000E+02
  -5.396  0.7299E-29  0.2000E+02
  -5.386  0.1161E-28  0.2000E+02
  -5.376  0.1843E-28  0.2000E+02
  -5.366  0.2920E-28  0.2000E+02
  -5.356  0.4620E-28  0.2000E+02
  -5.346  0.7297E-28  0.2000E+02
  -5.336  0.1151E-27  0.2000E+02
  -5.326  0.1811E-27  0.2000E+02
  -5.316  0.2846E-27  0.2000E+02
  -5.306  0.4464E-27  0.2000E+02
  -5.296  0.6991E-27  0.2000E+02
  -5.286  0.1093E-26  0.2000E+02
  -5.276  0.1706E-26  0.2000E+02
  -5.266  0.2658E-26  0.2000E+02
  -5.256  0.4134E-26  0.2000E+02
  -5.246  0.6420E-26  0.2000E+02
  -5.236  0.9952E-26  0.2000E+02
  -5.226  0.1540E-25  0.2000E+02
  -5.216  0.2379E-25  0.2000E+02
  -5.206  0.3670E-25  0.2000E+02
  -5.196  0.5650E-25  0.2000E+02
  -5.186  0.8685E-25  0.2000E+02
  -5.176  0.1333E-24  0.2000E+02
  -5.166  0.2041E-24  0.2000E+02
  -5.156  0.3122E-24  0.2000E+02
  -5.146  0.4766E-24  0.2000E+02
  -5.136  0.7263E-24  0.2000E+02
  -5.126  0.1105E-23  0.2000E+02
  -5.116  0.1679E-23  0.2000E+02
  -5.106  0.2545E-23  0.2000E+02
  -5.096  0.3853E-23  0.2000E+02
  -5.086  0.5822E-23  0.2000E+02
  -5.076  0.8783E-23  0.2000E+02
  -5.066  0.1323E-22  0.2000E+02
  -5.056  0.1989E-22  0.2000E+02
  -5.046  0.2985E-22  0.2000E+02
  -5.036  0.4473E-22  0.2000E+02
  -5.026  0.6691E-22  0.2000E+02
  -5.016  0.9992E-22  0.2000E+02
  -5.006  0.1490E-21  0.2000E+02
  -4.996  0.2217E-21  0.2000E+02
  -4.986  0.3294E-21  0.2000E+02
  -4.976  0.4885E-21  0.2000E+02
  -4.966  0.7234E-21  0.2000E+02
  -4.956  0.1069E-20  0.2000E+02
  -4.946  0.1578E-20  0.2000E+02
  -4.936  0.2325E-20  0.2000E+02
  -4.926  0.3419E-20  0.2000E+02
  -4.916  0.5020E-20  0.2000E+02
  -4.906  0.7358E-20  0.2000E+02
  -4.896  0.1077E-19  0.2000E+02
  -4.886  0.1573E-19  0.2000E+02
  -4.876  0.2293E-19  0.2000E+02
  -4.866  0.3339E-19  0.2000E+02
  -4.856  0.4853E-19  0.2000E+02
  -4.846  0.7041E-19  0.2000E+02
  -4.836  0.1020E-18  0.2000E+02
  -4.826  0.1475E-18  0.2000E+02
  -4.816  0.2129E-18  0.2000E+02
  -4.806  0.3068E-18  0.2000E+02
  -4.796  0.4414E-18  0.2000E+02
  -4.786  0.6339E-18  0.2000E+02
  -4.776  0.9089E-18  0.2000E+02
  -4.766  0.1301E-17  0.2000E+02
  -4.756  0.1859E-17  0.2000E+02
  -4.746  0.2652E-17  0.2000E+02
  -4.736  0.3777E-17  0.2000E+02
  -4.726  0.5370E-17  0.2000E+02
  -4.716  0.7621E-17  0.2000E+02
  -4.706  0.1080E-16  0.2000E+02
  -4.696  0.1528E-16  0.2000E+02
  -4.686  0.2157E-16  0.2000E+02
  -4.676  0.3041E-16  0.2000E+02
  -4.666  0.4280E-16  0.2000E+02
  -4.656  0.6014E-16  0.2000E+02
  -4.646  0.8435E-16  0.2000E+02
  -4.636  0.1181E-15  0.2000E+02
  -4.626  0.1651E-15  0.2000E+02
  -4.616  0.2304E-15  0.2000E+02
  -4.606  0.3210E-15  0.2000E+02
  -4.596  0.4465E-15  0.2000E+02
  -4.586  0.6200E-15  0.2000E+02
  -4.576  0.8594E-15  0.2000E+02
  -4.566  0.1189E-14  0.2000E+02
  -4.556  0.1643E-14  0.2000E+02
  -4.546  0.2266E-14  0.2000E+02
  -4.536  0.3120E-14  0.2000E+02
  -4.526  0.4288E-14  0.2000E+02
  -4.516  0.5884E-14  0.2000E+02
  -4.506  0.8061E-14  0.2000E+02
  -4.496  0.1102E-13  0.2000E+02
  -4.486  0.1505E-13  0.2000E+02
  -4.476  0.2052E-13  0.2000E+02
  -4.466  0.2792E-13  0.2000E+02
  -4.456  0.3792E-13  0.2000E+02
  -4.446  0.5143E-13  0.2000E+02
  -4.436  0.6962E-13  0.2000E+02
  -4.426  0.9410E-13  0.2000E+02
  -4.416  0.1270E-12  0.2000E+02
  -4.406  0.1710E-12  0.2000E+02
  -4.396  0.2300E-12  0.2000E+02
  -4.386  0.3088E-12  0.2000E+02
  -4.376  0.4139E-12  0.2000E+02
  -4.366  0.5538E-12  0.2000E+02
  -4.356  0.7397E-12  0.2000E+02
  -4.346  0.9865E-12  0.2000E+02
  -4.336  0.1313E-11  0.2000E+02
  -4.326  0.1745E-11  0.2000E+02
  -4.316  0.2316E-11  0.2000E+02
  -4.306  0.3068E-11  0.2000E+02
  -4.296  0.4057E-11  0.2000E+02
  -4.286  0.5356E-11  0.2000E+02
  -4.276  0.7059E-11  0.2000E+02
  -4.266  0.9288E-11  0.2000E+02
  -4.256  0.1220E-10  0.2000E+02
  -4.246  0.1600E-10  0.2000E+02
  -4.236  0.2095E-10  0.2000E+02
  -4.226  0.2738E-10  0.2000E+02
  -4.216  0.3572E-10  0.2000E+02
  -4.206  0.4654E-10  0.2000E+02
  -4.196  0.6052E-10  0.2000E+02
  -4.186  0.7858E-10  0.2000E+02
  -4.176  0.1018E-09  0.2000E+02
  -4.166  0.1318E-09  0.2000E+02
  -4.156  0.1702E-09  0.2000E+02
  -4.146  0.2196E-09  0.2000E+02
  -4.136  0.2827E-09  0.2000E+02
  -4.126  0.3634E-09  0.2000E+02
  -4.116  0.4663E-09  0.2000E+02
  -4.106  0.5974E-09  0.2000E+02
  -4.096  0.7641E-09  0.2000E+02
  -4.086  0.9756E-09  0.2000E+02
  -4.076  0.1244E-08  0.2000E+02
  -4.066  0.1583E-08  0.2000E+02
  -4.056  0.2011E-08  0.2000E+02
  -4.046  0.2551E-08  0.2000E+02
  -4.036  0.3230E-08  0.2000E+02
  -4.026  0.4084E-08  0.2000E+02
  -4.016  0.5154E-08  0.2000E+02
  -4.006  0.6495E-08  0.2000E+02
  -3.996  0.8170E-08  0.2000E+02
  -3.986  0.1026E-07  0.2000E+02
  -3.976  0.1287E-07  0.2000E+02
  -3.966  0.1610E-07  0.2000E+02
  -3.956  0.2013E-07  0.2000E+02
  -3.946  0.2511E-07  0.2000E+02
  -3.936  0.3128E-07  0.2000E+02
  -3.926  0.3889E-07  0.2000E+02
  -3.916  0.4828E-07  0.2000E+02
  -3.906  0.5984E-07  0.2000E+02
  -3.896  0.7405E-07  0.2000E+02
  -3.886  0.9148E-07  0.2000E+02
  -3.876  0.1128E-06  0.2000E+02
  -3.866  0.1389E-06  0.2000E+02
  -3.856  0.1708E-06  0.2000E+02
  -3.846  0.2096E-06  0.2000E+02
  -3.836  0.2568E-06  0.2000E+02
  -3.826  0.3142E-06  0.2000E+02
  -3.816  0.3837E-06  0.2000E+02
  -3.806  0.4679E-06  0.2000E+02
  -3.796  0.5696E-06  0.2000E+02
  -3.786  0.6922E-06  0.2000E+02
  -3.776  0.8399E-06  0.2000E+02
  -3.766  0.1017E-05  0.2000E+02
  -3.756  0.1231E-05  0.2000E+02
  -3.746  0.1486E-05  0.2000E+02
  -3.736  0.1791E-05  0.2000E+02
  -3.726  0.2156E-05  0.2000E+02
  -3.716  0.2591E-05  0.2000E+02
  -3.706  0.3108E-05  0.2000E+02
  -3.696  0.3722E-05  0.2000E+02
  -3.686  0.4451E-05  0.2000E+02
  -3.676  0.5314E-05  0.2000E+02
  -3.666  0.6334E-05  0.2000E+02
  -3.656  0.7538E-05  0.2000E+02
  -3.646  0.8956E-05  0.2000E+02
  -3.636  0.1062E-04  0.2000E+02
  -3.626  0.1258E-04  0.2000E+02
  -3.616  0.1488E-04  0.2000E+02
  -3.606  0.1756E-04  0.2000E+02
  -3.596  0.2070E-04  0.2000E+02
  -3.586  0.2436E-04  0.2000E+02
  -3.576  0.2862E-04  0.2000E+02
  -3.566  0.3358E-04  0.2000E+02
  -3.556  0.3933E-04  0.2000E+02
  -3.546  0.4599E-04  0.2000E+02
  -3.536  0.5369E-04  0.2000E+02
  -3.526  0.6258E-04  0.2000E+02
  -3.516  0.7283E-04  0.2000E+02
  -3.506  0.8463E-04  0.2000E+02
  -3.496  0.9818E-04  0.2000E+02
  -3.486  0.1137E-03  0.2000E+02
  -3.476  0.1315E-03  0.2000E+02
  -3.466  0.1519E-03  0.2000E+02
  -3.456  0.1751E-03  0.2000E+02
  -3.446  0.2016E-03  0.2000E+02
  -3.436  0.2317E-03  0.2000E+02
  -3.426  0.2658E-03  0.2000E+02
  -3.416  0.3046E-03  0.2000E+02
  -3.406  0.3485E-03  0.2000E+02
  -3.396  0.3980E-03  0.2000E+02
  -3.386  0.4539E-03  0.2000E+02
  -3.376  0.5169E-03  0.2000E+02
  -3.366  0.5877E-03  0.2000E+02
  -3.356  0.6672E-03  0.2000E+02
  -3.346  0.7563E-03  0.2000E+02
  -3.336  0.8559E-03  0.2000E+02
  -3.326  0.9673E-03  0.2000E+02
  -3.316  0.1091E-02  0.2000E+02
  -3.306  0.1230E-02  0.2000E+02
  -3.296  0.1383E-02  0.2000E+02
  -3.286  0.1554E-02  0.2000E+02
  -3.276  0.1743E-02  0.2000E+02
  -3.266  0.1952E-02  0.2000E+02
  -3.256  0.2183E-02  0.2000E+02
  -3.246  0.2437E-02  0.2000E+02
  -3.236  0.2717E-02  0.2000E+02
  -3.226  0.3025E-02  0.2000E+02
  -3.216  0.3363E-02  0.2000E+02
  -3.206  0.3733E-02  0.2000E+02
  -3.196  0.4138E-02  0.2000E+02
  -3.186  0.4580E-02  0.2000E+02
  -3.176  0.5062E-02  0.2000E+02
  -3.166  0.5586E-02  0.2000E+02
  -3.156  0.6157E-02  0.2000E+02
  -3.146  0.6775E-02  0.2000E+02
  -3.136  0.7445E-02  0.2000E+02
  -3.126  0.8170E-02  0.2000E+02
  -3.116  0.8953E-02  0.2000E+02
  -3.106  0.9796E-02  0.2000E+02
  -3.096  0.1070E-01  0.2000E+02
  -3.086  0.1168E-01  0.2000E+02
  -3.076  0.1273E-01  0.2000E+02
  -3.066  0.1385E-01  0.2000E+02
  -3.056  0.1505E-01  0.2000E+02
  -3.046  0.1634E-01  0.2000E+02
  -3.036  0.1770E-01  0.2000E+02
  -3.026  0.1916E-01  0.2000E+02
  -3.016  0.2071E-01  0.2000E+02
  -3.006  0.2235E-01  0.2000E+02
  -2.996  0.2410E-01  0.2000E+02
  -2.986  0.2594E-01  0.2000E+02
  -2.976  0.2789E-01  0.2000E+02
  -2.966  0.2995E-01  0.2000E+02
  -2.956  0.3212E-01  0.2000E+02
  -2.946  0.3440E-01  0.2000E+02
  -2.936  0.3679E-01  0.2000E+02
  -2.926  0.3931E-01  0.2001E+02
  -2.916  0.4194E-01  0.2001E+02
  -2.906  0.4469E-01  0.2001E+02
  -2.896  0.4757E-01  0.2001E+02
  -2.886  0.5057E-01  0.2001E+02
  -2.876  0.5369E-01  0.2001E+02
  -2.866  0.5694E-01  0.2001E+02
  -2.856  0.6031E-01  0.2001E+02
  -2.846  0.6381E-01  0.2001E+02
  -2.836  0.6744E-01  0.2001E+02
  -2.826  0.7118E-01  0.2001E+02
  -2.816  0.7505E-01  0.2001E+02
  -2.806  0.7905E-01  0.2001E+02
  -2.796  0.8316E-01  0.2001E+02
  -2.786  0.8739E-01  0.2001E+02
  -2.776  0.9173E-01  0.2001E+02
  -2.766  0.9619E-01  0.2002E+02
  -2.756  0.1008E+00  0.2002E+02
  -2.746  0.1054E+00  0.2002E+02
  -2.736  0.1102E+00  0.2002E+02
  -2.726  0.1151E+00  0.2002E+02
  -2.716  0.1201E+00  0.2002E+02
  -2.706  0.1251E+00  0.2002E+02
  -2.696  0.1303E+00  0.2002E+02
  -2.686  0.1355E+00  0.2003E+02
  -2.676  0.1408E+00  0.2003E+02
  -2.666  0.1462E+00  0.2003E+02
  -2.656  0.1517E+00  0.2003E+02
  -2.646  0.1572E+00  0.2003E+02
  -2.636  0.1628E+00  0.2003E+02
  -2.626  0.1684E+00  0.2003E+02
  -2.616  0.1741E+00  0.2004E+02
  -2.606  0.1798E+00  0.2004E+02
  -2.596  0.1855E+00  0.2004E+02
  -2.586  0.1913E+00  0.2004E+02
  -2.576  0.1971E+00  0.2004E+02
  -2.566  0.2029E+00  0.2005E+02
  -2.556  0.2088E+00  0.2005E+02
  -2.546  0.2147E+00  0.2005E+02
  -2.536  0.2205E+00  0.2005E+02
  -2.526  0.2264E+00  0.2005E+02
  -2.516  0.2323E+00  0.2006E+02
  -2.506  0.2381E+00  0.2006E+02
  -2.496  0.2440E+00  0.2006E+02
  -2.486  0.2498E+00  0.2006E+02
  -2.476  0.2557E+00  0.2007E+02
  -2.466  0.2615E+00  0.2007E+02
  -2.456  0.2672E+00  0.2007E+02
  -2.446  0.2730E+00  0.2007E+02
  -2.436  0.2787E+00  0.2008E+02
  -2.426  0.2844E+00  0.2008E+02
  -2.416  0.2901E+00  0.2008E+02
  -2.406  0.2957E+00  0.2009E+02
  -2.396  0.3013E+00  0.2009E+02
  -2.386  0.3069E+00  0.2009E+02
  -2.376  0.3124E+00  0.2010E+02
  -2.366  0.3179E+00  0.2010E+02
  -2.356  0.3234E+00  0.2010E+02
  -2.346  0.3288E+00  0.2011E+02
  -2.336  0.3341E+00  0.2011E+02
  -2.326  0.3394E+00  0.2011E+02
  -2.316  0.3447E+00  0.2012E+02
  -2.306  0.3500E+00  0.2012E+02
  -2.296  0.3551E+00  0.2012E+02
  -2.286  0.3603E+00  0.2013E+02
  -2.276  0.3654E+00  0.2013E+02
  -2.266  0.3705E+00  0.2013E+02
  -2.256  0.3755E+00  0.2014E+02
  -2.246  0.3805E+00  0.2014E+02
  -2.236  0.3855E+00  0.2014E+02
  -2.226  0.3904E+00  0.2015E+02
  -2.216  0.3953E+00  0.2015E+02
  -2.206  0.4002E+00  0.2016E+02
  -2.196  0.4050E+00  0.2016E+02
  -2.186  0.4098E+00  0.2016E+02
  -2.176  0.4146E+00  0.2017E+02
  -2.166  0.4193E+00  0.2017E+02
  -2.156  0.4240E+00  0.2018E+02
  -2.146  0.4287E+00  0.2018E+02
  -2.136  0.4334E+00  0.2019E+02
  -2.126  0.4380E+00  0.2019E+02
  -2.116  0.4426E+00  0.2019E+02
  -2.106  0.4472E+00  0.2020E+02
  -2.096  0.4518E+00  0.2020E+02
  -2.086  0.4564E+00  0.2021E+02
  -2.076  0.4609E+00  0.2021E+02
  -2.066  0.4655E+00  0.2022E+02
  -2.056  0.4700E+00  0.2022E+02
  -2.046  0.4745E+00  0.2023E+02
  -2.036  0.4790E+00  0.2023E+02
  -2.026  0.4835E+00  0.2024E+02
  -2.016  0.4880E+00  0.2024E+02
  -2.006  0.4925E+00  0.2025E+02
  -1.996  0.4970E+00  0.2025E+02
  -1.986  0.5014E+00  0.2026E+02
  -1.976  0.5059E+00  0.2026E+02
  -1.966  0.5104E+00  0.2027E+02
  -1.956  0.5148E+00  0.2027E+02
  -1.946  0.5193E+00  0.2028E+02
  -1.936  0.5238E+00  0.2028E+02
  -1.926  0.5283E+00  0.2029E+02
  -1.916  0.5328E+00  0.2029E+02
  -1.906  0.5373E+00  0.2030E+02
  -1.896  0.5418E+00  0.2030E+02
  -1.886  0.5463E+00  0.2031E+02
  -1.876  0.5509E+00  0.2031E+02
  -1.866  0.5555E+00  0.2032E+02
  -1.856  0.5600E+00  0.2033E+02
  -1.846  0.5646E+00  0.2033E+02
  -1.836  0.5693E+00  0.2034E+02
  -1.826  0.5739E+00  0.2034E+02
  -1.816  0.5786E+00  0.2035E+02
  -1.806  0.5833E+00  0.2035E+02
  -1.796  0.5880E+00  0.2036E+02
  -1.786  0.5927E+00  0.2037E+02
  -1.776  0.5975E+00  0.2037E+02
  -1.766  0.6024E+00  0.2038E+02
  -1.756  0.6072E+00  0.2038E+02
  -1.746  0.6121E+00  0.2039E+02
  -1.736  0.6171E+00  0.2040E+02
  -1.726  0.6221E+00  0.2040E+02
  -1.716  0.6271E+00  0.2041E+02
  -1.706  0.6322E+00  0.2042E+02
  -1.696  0.6373E+00  0.2042E+02
  -1.686  0.6425E+00  0.2043E+02
  -1.676  0.6477E+00  0.2043E+02
  -1.666  0.6530E+00  0.2044E+02
  -1.656  0.6583E+00  0.2045E+02
  -1.646  0.6637E+00  0.2045E+02
  -1.636  0.6692E+00  0.2046E+02
  -1.626  0.6747E+00  0.2047E+02
  -1.616  0.6803E+00  0.2047E+02
  -1.606  0.6859E+00  0.2048E+02
  -1.596  0.6916E+00  0.2049E+02
  -1.586  0.6974E+00  0.2050E+02
  -1.576  0.7032E+00  0.2050E+02
  -1.566  0.7091E+00  0.2051E+02
  -1.556  0.7151E+00  0.2052E+02
  -1.546  0.7212E+00  0.2052E+02
  -1.536  0.7273E+00  0.2053E+02
  -1.526  0.7335E+00  0.2054E+02
  -1.516  0.7398E+00  0.2055E+02
  -1.506  0.7461E+00  0.2055E+02
  -1.496  0.7525E+00  0.2056E+02
  -1.486  0.7590E+00  0.2057E+02
  -1.476  0.7656E+00  0.2058E+02
  -1.466  0.7722E+00  0.2058E+02
  -1.456  0.7789E+00  0.2059E+02
  -1.446  0.7856E+00  0.2060E+02
  -1.436  0.7924E+00  0.2061E+02
  -1.426  0.7993E+00  0.2062E+02
  -1.416  0.8062E+00  0.2062E+02
  -1.406  0.8132E+00  0.2063E+02
  -1.396  0.8202E+00  0.2064E+02
  -1.386  0.8273E+00  0.2065E+02
  -1.376  0.8343E+00  0.2066E+02
  -1.366  0.8415E+00  0.2066E+02
  -1.356  0.8486E+00  0.2067E+02
  -1.346  0.8558E+00  0.2068E+02
  -1.336  0.8629E+00  0.2069E+02
  -1.326  0.8701E+00  0.2070E+02
  -1.316  0.8772E+00  0.2071E+02
  -1.306  0.8844E+00  0.2072E+02
  -1.296  0.8915E+00  0.2073E+02
  -1.286  0.8986E+00  0.2073E+02
  -1.276  0.9056E+00  0.2074E+02
  -1.266  0.9125E+00  0.2075E+02
  -1.256  0.9194E+00  0.2076E+02
  -1.246  0.9263E+00  0.2077E+02
  -1.236  0.9330E+00  0.2078E+02
  -1.226  0.9396E+00  0.2079E+02
  -1.216  0.9461E+00  0.2080E+02
  -1.206  0.9525E+00  0.2081E+02
  -1.196  0.9588E+00  0.2082E+02
  -1.186  0.9649E+00  0.2083E+02
  -1.176  0.9708E+00  0.2084E+02
  -1.166  0.9766E+00  0.2085E+02
  -1.156  0.9822E+00  0.2086E+02
  -1.146  0.9876E+00  0.2087E+02
  -1.136  0.9929E+00  0.2088E+02
  -1.126  0.9979E+00  0.2089E+02
  -1.116  0.1003E+01  0.2090E+02
  -1.106  0.1007E+01  0.2091E+02
  -1.096  0.1012E+01  0.2092E+02
  -1.086  0.1016E+01  0.2093E+02
  -1.076  0.1020E+01  0.2094E+02
  -1.066  0.1023E+01  0.2095E+02
  -1.056  0.1027E+01  0.2096E+02
  -1.046  0.1030E+01  0.2097E+02
  -1.036  0.1033E+01  0.2098E+02
  -1.026  0.1035E+01  0.2099E+02
  -1.016  0.1037E+01  0.2100E+02
  -1.006  0.1039E+01  0.2101E+02
  -0.996  0.1041E+01  0.2102E+02
  -0.986  0.1043E+01  0.2103E+02
  -0.976  0.1044E+01  0.2104E+02
  -0.966  0.1045E+01  0.2105E+02
  -0.956  0.1045E+01  0.2106E+02
  -0.946  0.1046E+01  0.2107E+02
  -0.936  0.1046E+01  0.2108E+02
  -0.926  0.1046E+01  0.2109E+02
  -0.916  0.1045E+01  0.2110E+02
  -0.906  0.1045E+01  0.2111E+02
  -0.896  0.1044E+01  0.2113E+02
  -0.886  0.1042E+01  0.2114E+02
  -0.876  0.1041E+01  0.2115E+02
  -0.866  0.1039E+01  0.2116E+02
  -0.856  0.1037E+01  0.2117E+02
  -0.846  0.1035E+01  0.2118E+02
  -0.836  0.1033E+01  0.2119E+02
  -0.826  0.1030E+01  0.2120E+02
  -0.816  0.1027E+01  0.2121E+02
  -0.806  0.1024E+01  0.2122E+02
  -0.796  0.1021E+01  0.2123E+02
  -0.786  0.1017E+01  0.2124E+02
  -0.776  0.1014E+01  0.2125E+02
  -0.766  0.1010E+01  0.2126E+02
  -0.756  0.1006E+01  0.2127E+02
  -0.746  0.1002E+01  0.2128E+02
  -0.736  0.9974E+00  0.2129E+02
  -0.726  0.9929E+00  0.2130E+02
  -0.716  0.9883E+00  0.2131E+02
  -0.706  0.9835E+00  0.2132E+02
  -0.696  0.9786E+00  0.2133E+02
  -0.686  0.9736E+00  0.2134E+02
  -0.676  0.9685E+00  0.2135E+02
  -0.666  0.9633E+00  0.2136E+02
  -0.656  0.9579E+00  0.2137E+02
  -0.646  0.9525E+00  0.2138E+02
  -0.636  0.9470E+00  0.2139E+02
  -0.626  0.9414E+00  0.2140E+02
  -0.616  0.9357E+00  0.2140E+02
  -0.606  0.9299E+00  0.2141E+02
  -0.596  0.9241E+00  0.2142E+02
  -0.586  0.9182E+00  0.2143E+02
  -0.576  0.9123E+00  0.2144E+02
  -0.566  0.9062E+00  0.2145E+02
  -0.556  0.9002E+00  0.2146E+02
  -0.546  0.8940E+00  0.2147E+02
  -0.536  0.8879E+00  0.2148E+02
  -0.526  0.8817E+00  0.2149E+02
  -0.516  0.8754E+00  0.2149E+02
  -0.506  0.8691E+00  0.2150E+02
  -0.496  0.8627E+00  0.2151E+02
  -0.486  0.8563E+00  0.2152E+02
  -0.476  0.8499E+00  0.2153E+02
  -0.466  0.8434E+00  0.2154E+02
  -0.456  0.8369E+00  0.2155E+02
  -0.446  0.8304E+00  0.2155E+02
  -0.436  0.8238E+00  0.2156E+02
  -0.426  0.8172E+00  0.2157E+02
  -0.416  0.8105E+00  0.2158E+02
  -0.406  0.8038E+00  0.2159E+02
  -0.396  0.7971E+00  0.2159E+02
  -0.386  0.7903E+00  0.2160E+02
  -0.376  0.7835E+00  0.2161E+02
  -0.366  0.7767E+00  0.2162E+02
  -0.356  0.7698E+00  0.2163E+02
  -0.346  0.7629E+00  0.2163E+02
  -0.336  0.7560E+00  0.2164E+02
  -0.326  0.7490E+00  0.2165E+02
  -0.316  0.7420E+00  0.2166E+02
  -0.306  0.7349E+00  0.2166E+02
  -0.296  0.7278E+00  0.2167E+02
  -0.286  0.7207E+00  0.2168E+02
  -0.276  0.7135E+00  0.2169E+02
  -0.266  0.7063E+00  0.2169E+02
  -0.256  0.6991E+00  0.2170E+02
  -0.246  0.6918E+00  0.2171E+02
  -0.236  0.6845E+00  0.2171E+02
  -0.226  0.6771E+00  0.2172E+02
  -0.216  0.6697E+00  0.2173E+02
  -0.206  0.6623E+00  0.2173E+02
  -0.196  0.6548E+00  0.2174E+02
  -0.186  0.6473E+00  0.2175E+02
  -0.176  0.6398E+00  0.2175E+02
  -0.166  0.6322E+00  0.2176E+02
  -0.156  0.6246E+00  0.2177E+02
  -0.146  0.6169E+00  0.2177E+02
  -0.136  0.6093E+00  0.2178E+02
  -0.126  0.6015E+00  0.2178E+02
  -0.116  0.5938E+00  0.2179E+02
  -0.106  0.5860E+00  0.2180E+02
  -0.096  0.5782E+00  0.2180E+02
  -0.086  0.5703E+00  0.2181E+02
  -0.076  0.5624E+00  0.2181E+02
  -0.066  0.5545E+00  0.2182E+02
  -0.056  0.5466E+00  0.2182E+02
  -0.046  0.5386E+00  0.2183E+02
  -0.036  0.5306E+00  0.2183E+02
  -0.026  0.5226E+00  0.2184E+02
  -0.016  0.5146E+00  0.2184E+02
  -0.006  0.5066E+00  0.2185E+02
   0.004  0.4986E+00  0.2185E+02
   0.014  0.4905E+00  0.2186E+02
   0.024  0.4825E+00  0.2186E+02
   0.034  0.4745E+00  0.2187E+02
   0.044  0.4665E+00  0.2187E+02
   0.054  0.4586E+00  0.2188E+02
   0.064  0.4506E+00  0.2188E+02
   0.074  0.4428E+00  0.2189E+02
   0.084  0.4349E+00  0.2189E+02
   0.094  0.4272E+00  0.2190E+02
   0.104  0.4195E+00  0.2190E+02
   0.114  0.4119E+00  0.2190E+02
   0.124  0.4044E+00  0.2191E+02
   0.134  0.3969E+00  0.2191E+02
   0.144  0.3896E+00  0.2192E+02
   0.154  0.3824E+00  0.2192E+02
   0.164  0.3754E+00  0.2192E+02
   0.174  0.3685E+00  0.2193E+02
   0.184  0.3617E+00  0.2193E+02
   0.194  0.3551E+00  0.2193E+02
   0.204  0.3487E+00  0.2194E+02
   0.214  0.3425E+00  0.2194E+02
   0.224  0.3365E+00  0.2194E+02
   0.234  0.3306E+00  0.2195E+02
   0.244  0.3250E+00  0.2195E+02
   0.254  0.3197E+00  0.2195E+02
   0.264  0.3145E+00  0.2196E+02
   0.274  0.3096E+00  0.2196E+02
   0.284  0.3050E+00  0.2196E+02
   0.294  0.3006E+00  0.2197E+02
   0.304  0.2965E+00  0.2197E+02
   0.314  0.2926E+00  0.2197E+02
   0.324  0.2891E+00  0.2198E+02
   0.334  0.2858E+00  0.2198E+02
   0.344  0.2828E+00  0.2198E+02
   0.354  0.2802E+00  0.2198E+02
   0.364  0.2778E+00  0.2199E+02
   0.374  0.2757E+00  0.2199E+02
   0.384  0.2740E+00  0.2199E+02
   0.394  0.2725E+00  0.2199E+02
   0.404  0.2714E+00  0.2200E+02
   0.414  0.2706E+00  0.2200E+02
   0.424  0.2701E+00  0.2200E+02
   0.434  0.2699E+00  0.2201E+02
   0.444  0.2700E+00  0.2201E+02
   0.454  0.2705E+00  0.2201E+02
   0.464  0.2713E+00  0.2201E+02
   0.474  0.2723E+00  0.2202E+02
   0.484  0.2737E+00  0.2202E+02
   0.494  0.2754E+00  0.2202E+02
   0.504  0.2775E+00  0.2202E+02
   0.514  0.2798E+00  0.2203E+02
   0.524  0.2824E+00  0.2203E+02
   0.534  0.2853E+00  0.2203E+02
   0.544  0.2884E+00  0.2204E+02
   0.554  0.2919E+00  0.2204E+02
   0.564  0.2956E+00  0.2204E+02
   0.574  0.2996E+00  0.2205E+02
   0.584  0.3038E+00  0.2205E+02
   0.594  0.3083E+00  0.2205E+02
   0.604  0.3130E+00  0.2205E+02
   0.614  0.3180E+00  0.2206E+02
   0.624  0.3231E+00  0.2206E+02
   0.634  0.3285E+00  0.2206E+02
   0.644  0.3340E+00  0.2207E+02
   0.654  0.3398E+00  0.2207E+02
   0.664  0.3457E+00  0.2207E+02
   0.674  0.3518E+00  0.2208E+02
   0.684  0.3581E+00  0.2208E+02
   0.694  0.3645E+00  0.2209E+02
   0.704  0.3710E+00  0.2209E+02
   0.714  0.3776E+00  0.2209E+02
   0.724  0.3844E+00  0.2210E+02
   0.734  0.3913E+00  0.2210E+02
   0.744  0.3982E+00  0.2210E+02
   0.754  0.4053E+00  0.2211E+02
   0.764  0.4124E+00  0.2211E+02
   0.774  0.4196E+00  0.2212E+02
   0.784  0.4269E+00  0.2212E+02
   0.794  0.4343E+00  0.2213E+02
   0.804  0.4417E+00  0.2213E+02
   0.814  0.4491E+00  0.2213E+02
   0.824  0.4566E+00  0.2214E+02
   0.834  0.4641E+00  0.2214E+02
   0.844  0.4717E+00  0.2215E+02
   0.854  0.4793E+00  0.2215E+02
   0.864  0.4870E+00  0.2216E+02
   0.874  0.4947E+00  0.2216E+02
   0.884  0.5024E+00  0.2217E+02
   0.894  0.5101E+00  0.2217E+02
   0.904  0.5179E+00  0.2218E+02
   0.914  0.5258E+00  0.2218E+02
   0.924  0.5336E+00  0.2219E+02
   0.934  0.5415E+00  0.2219E+02
   0.944  0.5495E+00  0.2220E+02
   0.954  0.5574E+00  0.2221E+02
   0.964  0.5655E+00  0.2221E+02
   0.974  0.5736E+00  0.2222E+02
   0.984  0.5817E+00  0.2222E+02
   0.994  0.5899E+00  0.2223E+02
   1.004  0.5981E+00  0.2223E+02
   1.014  0.6064E+00  0.2224E+02
   1.024  0.6147E+00  0.2225E+02
   1.034  0.6231E+00  0.2225E+02
   1.044  0.6315E+00  0.2226E+02
   1.054  0.6400E+00  0.2227E+02
   1.064  0.6486E+00  0.2227E+02
   1.074  0.6572E+00  0.2228E+02
   1.084  0.6659E+00  0.2229E+02
   1.094  0.6746E+00  0.2229E+02
   1.104  0.6834E+00  0.2230E+02
   1.114  0.6922E+00  0.2231E+02
   1.124  0.7011E+00  0.2231E+02
   1.134  0.7101E+00  0.2232E+02
   1.144  0.7190E+00  0.2233E+02
   1.154  0.7280E+00  0.2233E+02
   1.164  0.7371E+00  0.2234E+02
   1.174  0.7461E+00  0.2235E+02
   1.184  0.7552E+00  0.2236E+02
   1.194  0.7643E+00  0.2236E+02
   1.204  0.7734E+00  0.2237E+02
   1.214  0.7825E+00  0.2238E+02
   1.224  0.7916E+00  0.2239E+02
   1.234  0.8006E+00  0.2240E+02
   1.244  0.8097E+00  0.2240E+02
   1.254  0.8187E+00  0.2241E+02
   1.264  0.8276E+00  0.2242E+02
   1.274  0.8365E+00  0.2243E+02
   1.284  0.8453E+00  0.2244E+02
   1.294  0.8541E+00  0.2245E+02
   1.304  0.8628E+00  0.2245E+02
   1.314  0.8713E+00  0.2246E+02
   1.324  0.8797E+00  0.2247E+02
   1.334  0.8880E+00  0.2248E+02
   1.344  0.8962E+00  0.2249E+02
   1.354  0.9042E+00  0.2250E+02
   1.364  0.9120E+00  0.2251E+02
   1.374  0.9196E+00  0.2252E+02
   1.384  0.9271E+00  0.2253E+02
   1.394  0.9343E+00  0.2254E+02
   1.404  0.9412E+00  0.2254E+02
   1.414  0.9479E+00  0.2255E+02
   1.424  0.9544E+00  0.2256E+02
   1.434  0.9605E+00  0.2257E+02
   1.444  0.9664E+00  0.2258E+02
   1.454  0.9719E+00  0.2259E+02
   1.464  0.9771E+00  0.2260E+02
   1.474  0.9819E+00  0.2261E+02
   1.484  0.9864E+00  0.2262E+02
   1.494  0.9905E+00  0.2263E+02
   1.504  0.9942E+00  0.2264E+02
   1.514  0.9975E+00  0.2265E+02
   1.524  0.1000E+01  0.2266E+02
   1.534  0.1003E+01  0.2267E+02
   1.544  0.1005E+01  0.2268E+02
   1.554  0.1006E+01  0.2269E+02
   1.564  0.1008E+01  0.2270E+02
   1.574  0.1008E+01  0.2271E+02
   1.584  0.1008E+01  0.2272E+02
   1.594  0.1008E+01  0.2273E+02
   1.604  0.1007E+01  0.2274E+02
   1.614  0.1006E+01  0.2275E+02
   1.624  0.1005E+01  0.2276E+02
   1.634  0.1002E+01  0.2277E+02
   1.644  0.9999E+00  0.2278E+02
   1.654  0.9968E+00  0.2279E+02
   1.664  0.9933E+00  0.2280E+02
   1.674  0.9894E+00  0.2281E+02
   1.684  0.9850E+00  0.2282E+02
   1.694  0.9803E+00  0.2283E+02
   1.704  0.9751E+00  0.2284E+02
   1.714  0.9696E+00  0.2285E+02
   1.724  0.9637E+00  0.2286E+02
   1.734  0.9575E+00  0.2287E+02
   1.744  0.9509E+00  0.2288E+02
   1.754  0.9441E+00  0.2289E+02
   1.764  0.9370E+00  0.2290E+02
   1.774  0.9296E+00  0.2291E+02
   1.784  0.9219E+00  0.2292E+02
   1.794  0.9141E+00  0.2293E+02
   1.804  0.9060E+00  0.2294E+02
   1.814  0.8978E+00  0.2294E+02
   1.824  0.8895E+00  0.2295E+02
   1.834  0.8810E+00  0.2296E+02
   1.844  0.8724E+00  0.2297E+02
   1.854  0.8637E+00  0.2298E+02
   1.864  0.8550E+00  0.2299E+02
   1.874  0.8462E+00  0.2300E+02
   1.884  0.8374E+00  0.2301E+02
   1.894  0.8286E+00  0.2301E+02
   1.904  0.8198E+00  0.2302E+02
   1.914  0.8110E+00  0.2303E+02
   1.924  0.8022E+00  0.2304E+02
   1.934  0.7936E+00  0.2305E+02
   1.944  0.7849E+00  0.2305E+02
   1.954  0.7764E+00  0.2306E+02
   1.964  0.7679E+00  0.2307E+02
   1.974  0.7596E+00  0.2308E+02
   1.984  0.7513E+00  0.2308E+02
   1.994  0.7431E+00  0.2309E+02
   2.004  0.7351E+00  0.2310E+02
   2.014  0.7271E+00  0.2311E+02
   2.024  0.7193E+00  0.2311E+02
   2.034  0.7116E+00  0.2312E+02
   2.044  0.7040E+00  0.2313E+02
   2.054  0.6966E+00  0.2313E+02
   2.064  0.6892E+00  0.2314E+02
   2.074  0.6820E+00  0.2315E+02
   2.084  0.6749E+00  0.2316E+02
   2.094  0.6679E+00  0.2316E+02
   2.104  0.6610E+00  0.2317E+02
   2.114  0.6542E+00  0.2318E+02
   2.124  0.6475E+00  0.2318E+02
   2.134  0.6409E+00  0.2319E+02
   2.144  0.6344E+00  0.2319E+02
   2.154  0.6280E+00  0.2320E+02
   2.164  0.6217E+00  0.2321E+02
   2.174  0.6155E+00  0.2321E+02
   2.184  0.6093E+00  0.2322E+02
   2.194  0.6033E+00  0.2323E+02
   2.204  0.5973E+00  0.2323E+02
   2.214  0.5914E+00  0.2324E+02
   2.224  0.5856E+00  0.2324E+02
   2.234  0.5799E+00  0.2325E+02
   2.244  0.5743E+00  0.2325E+02
   2.254  0.5687E+00  0.2326E+02
   2.264  0.5632E+00  0.2327E+02
   2.274  0.5578E+00  0.2327E+02
   2.284  0.5525E+00  0.2328E+02
   2.294  0.5472E+00  0.2328E+02
   2.304  0.5420E+00  0.2329E+02
   2.314  0.5370E+00  0.2329E+02
   2.324  0.5320E+00  0.2330E+02
   2.334  0.5271E+00  0.2330E+02
   2.344  0.5222E+00  0.2331E+02
   2.354  0.5175E+00  0.2331E+02
   2.364  0.5129E+00  0.2332E+02
   2.374  0.5083E+00  0.2332E+02
   2.384  0.5039E+00  0.2333E+02
   2.394  0.4995E+00  0.2333E+02
   2.404  0.4952E+00  0.2334E+02
   2.414  0.4911E+00  0.2334E+02
   2.424  0.4870E+00  0.2335E+02
   2.434  0.4830E+00  0.2335E+02
   2.444  0.4791E+00  0.2336E+02
   2.454  0.4753E+00  0.2336E+02
   2.464  0.4716E+00  0.2337E+02
   2.474  0.4680E+00  0.2337E+02
   2.484  0.4645E+00  0.2338E+02
   2.494  0.4611E+00  0.2338E+02
   2.504  0.4577E+00  0.2339E+02
   2.514  0.4544E+00  0.2339E+02
   2.524  0.4512E+00  0.2340E+02
   2.534  0.4481E+00  0.2340E+02
   2.544  0.4450E+00  0.2340E+02
   2.554  0.4420E+00  0.2341E+02
   2.564  0.4391E+00  0.2341E+02
   2.574  0.4362E+00  0.2342E+02
   2.584  0.4333E+00  0.2342E+02
   2.594  0.4305E+00  0.2343E+02
   2.604  0.4277E+00  0.2343E+02
   2.614  0.4250E+00  0.2343E+02
   2.624  0.4223E+00  0.2344E+02
   2.634  0.4196E+00  0.2344E+02
   2.644  0.4169E+00  0.2345E+02
   2.654  0.4142E+00  0.2345E+02
   2.664  0.4116E+00  0.2346E+02
   2.674  0.4090E+00  0.2346E+02
   2.684  0.4063E+00  0.2346E+02
   2.694  0.4037E+00  0.2347E+02
   2.704  0.4010E+00  0.2347E+02
   2.714  0.3983E+00  0.2348E+02
   2.724  0.3957E+00  0.2348E+02
   2.734  0.3930E+00  0.2348E+02
   2.744  0.3903E+00  0.2349E+02
   2.754  0.3876E+00  0.2349E+02
   2.764  0.3848E+00  0.2350E+02
   2.774  0.3821E+00  0.2350E+02
   2.784  0.3793E+00  0.2350E+02
   2.794  0.3765E+00  0.2351E+02
   2.804  0.3737E+00  0.2351E+02
   2.814  0.3709E+00  0.2351E+02
   2.824  0.3680E+00  0.2352E+02
   2.834  0.3652E+00  0.2352E+02
   2.844  0.3624E+00  0.2353E+02
   2.854  0.3595E+00  0.2353E+02
   2.864  0.3566E+00  0.2353E+02
   2.874  0.3538E+00  0.2354E+02
   2.884  0.3509E+00  0.2354E+02
   2.894  0.3481E+00  0.2354E+02
   2.904  0.3453E+00  0.2355E+02
   2.914  0.3425E+00  0.2355E+02
   2.924  0.3397E+00  0.2355E+02
   2.934  0.3369E+00  0.2356E+02
   2.944  0.3342E+00  0.2356E+02
   2.954  0.3315E+00  0.2356E+02
   2.964  0.3288E+00  0.2357E+02
   2.974  0.3262E+00  0.2357E+02
   2.984  0.3236E+00  0.2357E+02
   2.994  0.3211E+00  0.2358E+02
   3.004  0.3186E+00  0.2358E+02
   3.014  0.3162E+00  0.2358E+02
   3.024  0.3138E+00  0.2359E+02
   3.034  0.3115E+00  0.2359E+02
   3.044  0.3092E+00  0.2359E+02
   3.054  0.3071E+00  0.2359E+02
   3.064  0.3049E+00  0.2360E+02
   3.074  0.3029E+00  0.2360E+02
   3.084  0.3009E+00  0.2360E+02
   3.094  0.2989E+00  0.2361E+02
   3.104  0.2971E+00  0.2361E+02
   3.114  0.2952E+00  0.2361E+02
   3.124  0.2935E+00  0.2362E+02
   3.134  0.2918E+00  0.2362E+02
   3.144  0.2901E+00  0.2362E+02
   3.154  0.2885E+00  0.2362E+02
   3.164  0.2870E+00  0.2363E+02
   3.174  0.2855E+00  0.2363E+02
   3.184  0.2840E+00  0.2363E+02
   3.194  0.2826E+00  0.2364E+02
   3.204  0.2812E+00  0.2364E+02
   3.214  0.2798E+00  0.2364E+02
   3.224  0.2784E+00  0.2364E+02
   3.234  0.2771E+00  0.2365E+02
   3.244  0.2758E+00  0.2365E+02
   3.254  0.2745E+00  0.2365E+02
   3.264  0.2732E+00  0.2366E+02
   3.274  0.2719E+00  0.2366E+02
   3.284  0.2706E+00  0.2366E+02
   3.294  0.2693E+00  0.2366E+02
   3.304  0.2679E+00  0.2367E+02
   3.314  0.2666E+00  0.2367E+02
   3.324  0.2652E+00  0.2367E+02
   3.334  0.2638E+00  0.2367E+02
   3.344  0.2624E+00  0.2368E+02
   3.354  0.2610E+00  0.2368E+02
   3.364  0.2595E+00  0.2368E+02
   3.374  0.2580E+00  0.2368E+02
   3.384  0.2565E+00  0.2369E+02
   3.394  0.2549E+00  0.2369E+02
   3.404  0.2533E+00  0.2369E+02
   3.414  0.2517E+00  0.2369E+02
   3.424  0.2500E+00  0.2370E+02
   3.434  0.2483E+00  0.2370E+02
   3.444  0.2466E+00  0.2370E+02
   3.454  0.2448E+00  0.2370E+02
   3.464  0.2430E+00  0.2371E+02
   3.474  0.2411E+00  0.2371E+02
   3.484  0.2393E+00  0.2371E+02
   3.494  0.2374E+00  0.2371E+02
   3.504  0.2355E+00  0.2372E+02
   3.514  0.2335E+00  0.2372E+02
   3.524  0.2316E+00  0.2372E+02
   3.534  0.2296E+00  0.2372E+02
   3.544  0.2276E+00  0.2373E+02
   3.554  0.2256E+00  0.2373E+02
   3.564  0.2236E+00  0.2373E+02
   3.574  0.2216E+00  0.2373E+02
   3.584  0.2196E+00  0.2373E+02
   3.594  0.2176E+00  0.2374E+02
   3.604  0.2156E+00  0.2374E+02
   3.614  0.2137E+00  0.2374E+02
   3.624  0.2117E+00  0.2374E+02
   3.634  0.2098E+00  0.2375E+02
   3.644  0.2079E+00  0.2375E+02
   3.654  0.2061E+00  0.2375E+02
   3.664  0.2042E+00  0.2375E+02
   3.674  0.2025E+00  0.2375E+02
   3.684  0.2007E+00  0.2376E+02
   3.694  0.1991E+00  0.2376E+02
   3.704  0.1974E+00  0.2376E+02
   3.714  0.1959E+00  0.2376E+02
   3.724  0.1944E+00  0.2376E+02
   3.734  0.1930E+00  0.2377E+02
   3.744  0.1916E+00  0.2377E+02
   3.754  0.1903E+00  0.2377E+02
   3.764  0.1891E+00  0.2377E+02
   3.774  0.1880E+00  0.2377E+02
   3.784  0.1870E+00  0.2377E+02
   3.794  0.1861E+00  0.2378E+02
   3.804  0.1853E+00  0.2378E+02
   3.814  0.1846E+00  0.2378E+02
   3.824  0.1840E+00  0.2378E+02
   3.834  0.1835E+00  0.2378E+02
   3.844  0.1831E+00  0.2379E+02
   3.854  0.1829E+00  0.2379E+02
   3.864  0.1827E+00  0.2379E+02
   3.874  0.1827E+00  0.2379E+02
   3.884  0.1829E+00  0.2379E+02
   3.894  0.1831E+00  0.2380E+02
   3.904  0.1835E+00  0.2380E+02
   3.914  0.1841E+00  0.2380E+02
   3.924  0.1848E+00  0.2380E+02
   3.934  0.1856E+00  0.2380E+02
   3.944  0.1867E+00  0.2380E+02
   3.954  0.1878E+00  0.2381E+02
   3.964  0.1892E+00  0.2381E+02
   3.974  0.1907E+00  0.2381E+02
   3.984  0.1925E+00  0.2381E+02
   3.994  0.1944E+00  0.2381E+02
   4.004  0.1966E+00  0.2382E+02
   4.014  0.1989E+00  0.2382E+02
   4.024  0.2015E+00  0.2382E+02
   4.034  0.2043E+00  0.2382E+02
   4.044  0.2074E+00  0.2382E+02
   4.054  0.2107E+00  0.2383E+02
   4.064  0.2143E+00  0.2383E+02
   4.074  0.2182E+00  0.2383E+02
   4.084  0.2224E+00  0.2383E+02
   4.094  0.2270E+00  0.2383E+02
   4.104  0.2318E+00  0.2384E+02
   4.114  0.2370E+00  0.2384E+02
   4.124  0.2425E+00  0.2384E+02
   4.134  0.2485E+00  0.2384E+02
   4.144  0.2548E+00  0.2385E+02
   4.154  0.2616E+00  0.2385E+02
   4.164  0.2687E+00  0.2385E+02
   4.174  0.2764E+00  0.2386E+02
   4.184  0.2844E+00  0.2386E+02
   4.194  0.2930E+00  0.2386E+02
   4.204  0.3020E+00  0.2386E+02
   4.214  0.3116E+00  0.2387E+02
   4.224  0.3217E+00  0.2387E+02
   4.234  0.3323E+00  0.2387E+02
   4.244  0.3434E+00  0.2388E+02
   4.254  0.3551E+00  0.2388E+02
   4.264  0.3674E+00  0.2388E+02
   4.274  0.3802E+00  0.2389E+02
   4.284  0.3936E+00  0.2389E+02
   4.294  0.4076E+00  0.2390E+02
   4.304  0.4222E+00  0.2390E+02
   4.314  0.4373E+00  0.2390E+02
   4.324  0.4530E+00  0.2391E+02
   4.334  0.4693E+00  0.2391E+02
   4.344  0.4861E+00  0.2392E+02
   4.354  0.5035E+00  0.2392E+02
   4.364  0.5214E+00  0.2393E+02
   4.374  0.5398E+00  0.2393E+02
   4.384  0.5587E+00  0.2394E+02
   4.394  0.5780E+00  0.2395E+02
   4.404  0.5978E+00  0.2395E+02
   4.414  0.6181E+00  0.2396E+02
   4.424  0.6387E+00  0.2396E+02
   4.434  0.6597E+00  0.2397E+02
   4.444  0.6810E+00  0.2398E+02
   4.454  0.7025E+00  0.2398E+02
   4.464  0.7244E+00  0.2399E+02
   4.474  0.7464E+00  0.2400E+02
   4.484  0.7686E+00  0.2401E+02
   4.494  0.7910E+00  0.2402E+02
   4.504  0.8134E+00  0.2402E+02
   4.514  0.8358E+00  0.2403E+02
   4.524  0.8583E+00  0.2404E+02
   4.534  0.8807E+00  0.2405E+02
   4.544  0.9030E+00  0.2406E+02
   4.554  0.9251E+00  0.2407E+02
   4.564  0.9471E+00  0.2408E+02
   4.574  0.9689E+00  0.2409E+02
   4.584  0.9903E+00  0.2410E+02
   4.594  0.1012E+01  0.2411E+02
   4.604  0.1032E+01  0.2412E+02
   4.614  0.1053E+01  0.2413E+02
   4.624  0.1073E+01  0.2414E+02
   4.634  0.1092E+01  0.2415E+02
   4.644  0.1111E+01  0.2416E+02
   4.654  0.1130E+01  0.2417E+02
   4.664  0.1148E+01  0.2418E+02
   4.674  0.1166E+01  0.2419E+02
   4.684  0.1182E+01  0.2421E+02
   4.694  0.1199E+01  0.2422E+02
   4.704  0.1214E+01  0.2423E+02
   4.714  0.1229E+01  0.2424E+02
   4.724  0.1244E+01  0.2426E+02
   4.734  0.1258E+01  0.2427E+02
   4.744  0.1271E+01  0.2428E+02
   4.754  0.1283E+01  0.2429E+02
   4.764  0.1295E+01  0.2431E+02
   4.774  0.1307E+01  0.2432E+02
   4.784  0.1317E+01  0.2433E+02
   4.794  0.1328E+01  0.2435E+02
   4.804  0.1337E+01  0.2436E+02
   4.814  0.1346E+01  0.2437E+02
   4.824  0.1354E+01  0.2439E+02
   4.834  0.1362E+01  0.2440E+02
   4.844  0.1370E+01  0.2441E+02
   4.854  0.1376E+01  0.2443E+02
   4.864  0.1383E+01  0.2444E+02
   4.874  0.1389E+01  0.2445E+02
   4.884  0.1394E+01  0.2447E+02
   4.894  0.1399E+01  0.2448E+02
   4.904  0.1404E+01  0.2450E+02
   4.914  0.1409E+01  0.2451E+02
   4.924  0.1413E+01  0.2453E+02
   4.934  0.1417E+01  0.2454E+02
   4.944  0.1420E+01  0.2455E+02
   4.954  0.1424E+01  0.2457E+02
   4.964  0.1427E+01  0.2458E+02
   4.974  0.1430E+01  0.2460E+02
   4.984  0.1433E+01  0.2461E+02
   4.994  0.1436E+01  0.2462E+02
   5.004  0.1438E+01  0.2464E+02
   5.014  0.1441E+01  0.2465E+02
   5.024  0.1443E+01  0.2467E+02
   5.034  0.1446E+01  0.2468E+02
   5.044  0.1448E+01  0.2470E+02
   5.054  0.1451E+01  0.2471E+02
   5.064  0.1454E+01  0.2473E+02
   5.074  0.1456E+01  0.2474E+02
   5.084  0.1459E+01  0.2476E+02
   5.094  0.1462E+01  0.2477E+02
   5.104  0.1465E+01  0.2478E+02
   5.114  0.1468E+01  0.2480E+02
   5.124  0.1471E+01  0.2481E+02
   5.134  0.1474E+01  0.2483E+02
   5.144  0.1478E+01  0.2484E+02
   5.154  0.1481E+01  0.2486E+02
   5.164  0.1485E+01  0.2487E+02
   5.174  0.1489E+01  0.2489E+02
   5.184  0.1493E+01  0.2490E+02
   5.194  0.1498E+01  0.2492E+02
   5.204  0.1502E+01  0.2493E+02
   5.214  0.1507E+01  0.2495E+02
   5.224  0.1511E+01  0.2496E+02
   5.234  0.1516E+01  0.2498E+02
   5.244  0.1522E+01  0.2499E+02
   5.254  0.1527E+01  0.2501E+02
   5.264  0.1533E+01  0.2502E+02
   5.274  0.1538E+01  0.2504E+02
   5.284  0.1544E+01  0.2505E+02
   5.294  0.1550E+01  0.2507E+02
   5.304  0.1556E+01  0.2509E+02
   5.314  0.1562E+01  0.2510E+02
   5.324  0.1569E+01  0.2512E+02
   5.334  0.1575E+01  0.2513E+02
   5.344  0.1582E+01  0.2515E+02
   5.354  0.1588E+01  0.2516E+02
   5.364  0.1595E+01  0.2518E+02
   5.374  0.1602E+01  0.2520E+02
   5.384  0.1608E+01  0.2521E+02
   5.394  0.1615E+01  0.2523E+02
   5.404  0.1622E+01  0.2525E+02
   5.414  0.1628E+01  0.2526E+02
   5.424  0.1635E+01  0.2528E+02
   5.434  0.1642E+01  0.2529E+02
   5.444  0.1648E+01  0.2531E+02
   5.454  0.1655E+01  0.2533E+02
   5.464  0.1661E+01  0.2534E+02
   5.474  0.1668E+01  0.2536E+02
   5.484  0.1674E+01  0.2538E+02
   5.494  0.1680E+01  0.2539E+02
   5.504  0.1686E+01  0.2541E+02
   5.514  0.1691E+01  0.2543E+02
   5.524  0.1697E+01  0.2544E+02
   5.534  0.1702E+01  0.2546E+02
   5.544  0.1707E+01  0.2548E+02
   5.554  0.1712E+01  0.2550E+02
   5.564  0.1717E+01  0.2551E+02
   5.574  0.1721E+01  0.2553E+02
   5.584  0.1725E+01  0.2555E+02
   5.594  0.1729E+01  0.2556E+02
   5.604  0.1733E+01  0.2558E+02
   5.614  0.1736E+01  0.2560E+02
   5.624  0.1739E+01  0.2562E+02
   5.634  0.1741E+01  0.2563E+02
   5.644  0.1744E+01  0.2565E+02
   5.654  0.1746E+01  0.2567E+02
   5.664  0.1748E+01  0.2569E+02
   5.674  0.1749E+01  0.2570E+02
   5.684  0.1750E+01  0.2572E+02
   5.694  0.1751E+01  0.2574E+02
   5.704  0.1751E+01  0.2576E+02
   5.714  0.1751E+01  0.2577E+02
   5.724  0.1751E+01  0.2579E+02
   5.734  0.1751E+01  0.2581E+02
   5.744  0.1750E+01  0.2583E+02
   5.754  0.1748E+01  0.2584E+02
   5.764  0.1747E+01  0.2586E+02
   5.774  0.1745E+01  0.2588E+02
   5.784  0.1743E+01  0.2590E+02
   5.794  0.1740E+01  0.2591E+02
   5.804  0.1738E+01  0.2593E+02
   5.814  0.1735E+01  0.2595E+02
   5.824  0.1731E+01  0.2597E+02
   5.834  0.1728E+01  0.2598E+02
   5.844  0.1724E+01  0.2600E+02
   5.854  0.1720E+01  0.2602E+02
   5.864  0.1716E+01  0.2603E+02
   5.874  0.1711E+01  0.2605E+02
   5.884  0.1707E+01  0.2607E+02
   5.894  0.1702E+01  0.2609E+02
   5.904  0.1697E+01  0.2610E+02
   5.914  0.1692E+01  0.2612E+02
   5.924  0.1687E+01  0.2614E+02
   5.934  0.1681E+01  0.2615E+02
   5.944  0.1676E+01  0.2617E+02
   5.954  0.1671E+01  0.2619E+02
   5.964  0.1665E+01  0.2620E+02
   5.974  0.1660E+01  0.2622E+02
   5.984  0.1654E+01  0.2624E+02
   5.994  0.1649E+01  0.2625E+02
   6.004  0.1643E+01  0.2627E+02
   6.014  0.1638E+01  0.2629E+02
   6.024  0.1633E+01  0.2630E+02
   6.034  0.1627E+01  0.2632E+02
   6.044  0.1622E+01  0.2634E+02
   6.054  0.1617E+01  0.2635E+02
   6.064  0.1612E+01  0.2637E+02
   6.074  0.1607E+01  0.2638E+02
   6.084  0.1603E+01  0.2640E+02
   6.094  0.1598E+01  0.2642E+02
   6.104  0.1594E+01  0.2643E+02
   6.114  0.1589E+01  0.2645E+02
   6.124  0.1585E+01  0.2646E+02
   6.134  0.1581E+01  0.2648E+02
   6.144  0.1577E+01  0.2649E+02
   6.154  0.1573E+01  0.2651E+02
   6.164  0.1569E+01  0.2653E+02
   6.174  0.1566E+01  0.2654E+02
   6.184  0.1562E+01  0.2656E+02
   6.194  0.1559E+01  0.2657E+02
   6.204  0.1555E+01  0.2659E+02
   6.214  0.1552E+01  0.2660E+02
   6.224  0.1549E+01  0.2662E+02
   6.234  0.1545E+01  0.2664E+02
   6.244  0.1542E+01  0.2665E+02
   6.254  0.1539E+01  0.2667E+02
   6.264  0.1536E+01  0.2668E+02
   6.274  0.1532E+01  0.2670E+02
   6.284  0.1529E+01  0.2671E+02
   6.294  0.1526E+01  0.2673E+02
   6.304  0.1522E+01  0.2674E+02
   6.314  0.1519E+01  0.2676E+02
   6.324  0.1515E+01  0.2677E+02
   6.334  0.1511E+01  0.2679E+02
   6.344  0.1507E+01  0.2680E+02
   6.354  0.1503E+01  0.2682E+02
   6.364  0.1499E+01  0.2683E+02
   6.374  0.1494E+01  0.2685E+02
   6.384  0.1490E+01  0.2686E+02
   6.394  0.1485E+01  0.2688E+02
   6.404  0.1480E+01  0.2689E+02
   6.414  0.1475E+01  0.2691E+02
   6.424  0.1469E+01  0.2692E+02
   6.434  0.1464E+01  0.2694E+02
   6.444  0.1458E+01  0.2695E+02
   6.454  0.1452E+01  0.2697E+02
   6.464  0.1445E+01  0.2698E+02
   6.474  0.1439E+01  0.2699E+02
   6.484  0.1432E+01  0.2701E+02
   6.494  0.1425E+01  0.2702E+02
   6.504  0.1418E+01  0.2704E+02
   6.514  0.1410E+01  0.2705E+02
   6.524  0.1402E+01  0.2707E+02
   6.534  0.1394E+01  0.2708E+02
   6.544  0.1386E+01  0.2709E+02
   6.554  0.1378E+01  0.2711E+02
   6.564  0.1369E+01  0.2712E+02
   6.574  0.1360E+01  0.2713E+02
   6.584  0.1351E+01  0.2715E+02
   6.594  0.1342E+01  0.2716E+02
   6.604  0.1333E+01  0.2717E+02
   6.614  0.1323E+01  0.2719E+02
   6.624  0.1313E+01  0.2720E+02
   6.634  0.1303E+01  0.2721E+02
   6.644  0.1293E+01  0.2723E+02
   6.654  0.1283E+01  0.2724E+02
   6.664  0.1272E+01  0.2725E+02
   6.674  0.1261E+01  0.2726E+02
   6.684  0.1250E+01  0.2728E+02
   6.694  0.1239E+01  0.2729E+02
   6.704  0.1228E+01  0.2730E+02
   6.714  0.1217E+01  0.2731E+02
   6.724  0.1205E+01  0.2733E+02
   6.734  0.1193E+01  0.2734E+02
   6.744  0.1182E+01  0.2735E+02
   6.754  0.1170E+01  0.2736E+02
   6.764  0.1157E+01  0.2737E+02
   6.774  0.1145E+01  0.2738E+02
   6.784  0.1133E+01  0.2740E+02
   6.794  0.1120E+01  0.2741E+02
   6.804  0.1108E+01  0.2742E+02
   6.814  0.1095E+01  0.2743E+02
   6.824  0.1082E+01  0.2744E+02
   6.834  0.1069E+01  0.2745E+02
   6.844  0.1056E+01  0.2746E+02
   6.854  0.1043E+01  0.2747E+02
   6.864  0.1030E+01  0.2748E+02
   6.874  0.1016E+01  0.2749E+02
   6.884  0.1003E+01  0.2750E+02
   6.894  0.9896E+00  0.2751E+02
   6.904  0.9762E+00  0.2752E+02
   6.914  0.9627E+00  0.2753E+02
   6.924  0.9492E+00  0.2754E+02
   6.934  0.9357E+00  0.2755E+02
   6.944  0.9222E+00  0.2756E+02
   6.954  0.9087E+00  0.2757E+02
   6.964  0.8952E+00  0.2758E+02
   6.974  0.8817E+00  0.2759E+02
   6.984  0.8683E+00  0.2760E+02
   6.994  0.8549E+00  0.2760E+02
   7.004  0.8416E+00  0.2761E+02
   7.014  0.8284E+00  0.2762E+02
   7.024  0.8152E+00  0.2763E+02
   7.034  0.8021E+00  0.2764E+02
   7.044  0.7891E+00  0.2764E+02
   7.054  0.7762E+00  0.2765E+02
   7.064  0.7635E+00  0.2766E+02
   7.074  0.7508E+00  0.2767E+02
   7.084  0.7383E+00  0.2767E+02
   7.094  0.7259E+00  0.2768E+02
   7.104  0.7137E+00  0.2769E+02
   7.114  0.7016E+00  0.2770E+02
   7.124  0.6896E+00  0.2770E+02
   7.134  0.6779E+00  0.2771E+02
   7.144  0.6662E+00  0.2772E+02
   7.154  0.6548E+00  0.2772E+02
   7.164  0.6435E+00  0.2773E+02
   7.174  0.6324E+00  0.2774E+02
   7.184  0.6214E+00  0.2774E+02
   7.194  0.6106E+00  0.2775E+02
   7.204  0.6000E+00  0.2775E+02
   7.214  0.5895E+00  0.2776E+02
   7.224  0.5792E+00  0.2777E+02
   7.234  0.5691E+00  0.2777E+02
   7.244  0.5591E+00  0.2778E+02
   7.254  0.5493E+00  0.2778E+02
   7.264  0.5396E+00  0.2779E+02
   7.274  0.5301E+00  0.2779E+02
   7.284  0.5208E+00  0.2780E+02
   7.294  0.5115E+00  0.2780E+02
   7.304  0.5025E+00  0.2781E+02
   7.314  0.4935E+00  0.2781E+02
   7.324  0.4847E+00  0.2782E+02
   7.334  0.4761E+00  0.2782E+02
   7.344  0.4675E+00  0.2783E+02
   7.354  0.4591E+00  0.2783E+02
   7.364  0.4508E+00  0.2784E+02
   7.374  0.4426E+00  0.2784E+02
   7.384  0.4345E+00  0.2785E+02
   7.394  0.4265E+00  0.2785E+02
   7.404  0.4187E+00  0.2785E+02
   7.414  0.4109E+00  0.2786E+02
   7.424  0.4032E+00  0.2786E+02
   7.434  0.3957E+00  0.2787E+02
   7.444  0.3882E+00  0.2787E+02
   7.454  0.3808E+00  0.2787E+02
   7.464  0.3735E+00  0.2788E+02
   7.474  0.3663E+00  0.2788E+02
   7.484  0.3592E+00  0.2788E+02
   7.494  0.3522E+00  0.2789E+02
   7.504  0.3453E+00  0.2789E+02
   7.514  0.3385E+00  0.2790E+02
   7.524  0.3317E+00  0.2790E+02
   7.534  0.3251E+00  0.2790E+02
   7.544  0.3185E+00  0.2791E+02
   7.554  0.3121E+00  0.2791E+02
   7.564  0.3057E+00  0.2791E+02
   7.574  0.2994E+00  0.2791E+02
   7.584  0.2933E+00  0.2792E+02
   7.594  0.2872E+00  0.2792E+02
   7.604  0.2812E+00  0.2792E+02
   7.614  0.2753E+00  0.2793E+02
   7.624  0.2696E+00  0.2793E+02
   7.634  0.2639E+00  0.2793E+02
   7.644  0.2583E+00  0.2793E+02
   7.654  0.2529E+00  0.2794E+02
   7.664  0.2475E+00  0.2794E+02
   7.674  0.2423E+00  0.2794E+02
   7.684  0.2372E+00  0.2794E+02
   7.694  0.2321E+00  0.2795E+02
   7.704  0.2272E+00  0.2795E+02
   7.714  0.2224E+00  0.2795E+02
   7.724  0.2178E+00  0.2795E+02
   7.734  0.2132E+00  0.2795E+02
   7.744  0.2087E+00  0.2796E+02
   7.754  0.2044E+00  0.2796E+02
   7.764  0.2002E+00  0.2796E+02
   7.774  0.1960E+00  0.2796E+02
   7.784  0.1920E+00  0.2796E+02
   7.794  0.1882E+00  0.2797E+02
   7.804  0.1844E+00  0.2797E+02
   7.814  0.1807E+00  0.2797E+02
   7.824  0.1772E+00  0.2797E+02
   7.834  0.1738E+00  0.2797E+02
   7.844  0.1705E+00  0.2798E+02
   7.854  0.1673E+00  0.2798E+02
   7.864  0.1643E+00  0.2798E+02
   7.874  0.1614E+00  0.2798E+02
   7.884  0.1586E+00  0.2798E+02
   7.894  0.1559E+00  0.2798E+02
   7.904  0.1534E+00  0.2798E+02
   7.914  0.1510E+00  0.2799E+02
   7.924  0.1487E+00  0.2799E+02
   7.934  0.1466E+00  0.2799E+02
   7.944  0.1446E+00  0.2799E+02
   7.954  0.1428E+00  0.2799E+02
   7.964  0.1412E+00  0.2799E+02
   7.974  0.1397E+00  0.2799E+02
   7.984  0.1383E+00  0.2800E+02
   7.994  0.1372E+00  0.2800E+02
   8.004  0.1362E+00  0.2800E+02
   8.014  0.1354E+00  0.2800E+02
   8.024  0.1347E+00  0.2800E+02
   8.034  0.1343E+00  0.2800E+02
   8.044  0.1341E+00  0.2800E+02
   8.054  0.1340E+00  0.2801E+02
   8.064  0.1342E+00  0.2801E+02
   8.074  0.1346E+00  0.2801E+02
   8.084  0.1352E+00  0.2801E+02
   8.094  0.1360E+00  0.2801E+02
   8.104  0.1371E+00  0.2801E+02
   8.114  0.1384E+00  0.2801E+02
   8.124  0.1399E+00  0.2802E+02
   8.134  0.1417E+00  0.2802E+02
   8.144  0.1437E+00  0.2802E+02
   8.154  0.1460E+00  0.2802E+02
   8.164  0.1485E+00  0.2802E+02
   8.174  0.1513E+00  0.2802E+02
   8.184  0.1543E+00  0.2802E+02
   8.194  0.1576E+00  0.2803E+02
   8.204  0.1612E+00  0.2803E+02
   8.214  0.1650E+00  0.2803E+02
   8.224  0.1690E+00  0.2803E+02
   8.234  0.1733E+00  0.2803E+02
   8.244  0.1779E+00  0.2803E+02
   8.254  0.1827E+00  0.2804E+02
   8.264  0.1878E+00  0.2804E+02
   8.274  0.1931E+00  0.2804E+02
   8.284  0.1987E+00  0.2804E+02
   8.294  0.2045E+00  0.2804E+02
   8.304  0.2106E+00  0.2805E+02
   8.314  0.2169E+00  0.2805E+02
   8.324  0.2234E+00  0.2805E+02
   8.334  0.2301E+00  0.2805E+02
   8.344  0.2371E+00  0.2806E+02
   8.354  0.2442E+00  0.2806E+02
   8.364  0.2516E+00  0.2806E+02
   8.374  0.2592E+00  0.2806E+02
   8.384  0.2670E+00  0.2807E+02
   8.394  0.2751E+00  0.2807E+02
   8.404  0.2833E+00  0.2807E+02
   8.414  0.2917E+00  0.2807E+02
   8.424  0.3003E+00  0.2808E+02
   8.434  0.3091E+00  0.2808E+02
   8.444  0.3181E+00  0.2808E+02
   8.454  0.3273E+00  0.2809E+02
   8.464  0.3367E+00  0.2809E+02
   8.474  0.3463E+00  0.2809E+02
   8.484  0.3561E+00  0.2810E+02
   8.494  0.3661E+00  0.2810E+02
   8.504  0.3762E+00  0.2810E+02
   8.514  0.3867E+00  0.2811E+02
   8.524  0.3973E+00  0.2811E+02
   8.534  0.4081E+00  0.2812E+02
   8.544  0.4192E+00  0.2812E+02
   8.554  0.4305E+00  0.2812E+02
   8.564  0.4420E+00  0.2813E+02
   8.574  0.4538E+00  0.2813E+02
   8.584  0.4659E+00  0.2814E+02
   8.594  0.4782E+00  0.2814E+02
   8.604  0.4908E+00  0.2815E+02
   8.614  0.5036E+00  0.2815E+02
   8.624  0.5168E+00  0.2816E+02
   8.634  0.5303E+00  0.2816E+02
   8.644  0.5441E+00  0.2817E+02
   8.654  0.5582E+00  0.2817E+02
   8.664  0.5726E+00  0.2818E+02
   8.674  0.5874E+00  0.2819E+02
   8.684  0.6025E+00  0.2819E+02
   8.694  0.6179E+00  0.2820E+02
   8.704  0.6338E+00  0.2820E+02
   8.714  0.6499E+00  0.2821E+02
   8.724  0.6665E+00  0.2822E+02
   8.734  0.6834E+00  0.2822E+02
   8.744  0.7007E+00  0.2823E+02
   8.754  0.7184E+00  0.2824E+02
   8.764  0.7364E+00  0.2825E+02
   8.774  0.7548E+00  0.2825E+02
   8.784  0.7736E+00  0.2826E+02
   8.794  0.7928E+00  0.2827E+02
   8.804  0.8123E+00  0.2828E+02
   8.814  0.8321E+00  0.2829E+02
   8.824  0.8523E+00  0.2829E+02
   8.834  0.8728E+00  0.2830E+02
   8.844  0.8936E+00  0.2831E+02
   8.854  0.9147E+00  0.2832E+02
   8.864  0.9362E+00  0.2833E+02
   8.874  0.9578E+00  0.2834E+02
   8.884  0.9797E+00  0.2835E+02
   8.894  0.1002E+01  0.2836E+02
   8.904  0.1024E+01  0.2837E+02
   8.914  0.1047E+01  0.2838E+02
   8.924  0.1069E+01  0.2839E+02
   8.934  0.1092E+01  0.2840E+02
   8.944  0.1115E+01  0.2841E+02
   8.954  0.1138E+01  0.2842E+02
   8.964  0.1161E+01  0.2844E+02
   8.974  0.1184E+01  0.2845E+02
   8.984  0.1207E+01  0.2846E+02
   8.994  0.1230E+01  0.2847E+02
   9.004  0.1253E+01  0.2849E+02
   9.014  0.1275E+01  0.2850E+02
   9.024  0.1298E+01  0.2851E+02
   9.034  0.1320E+01  0.2852E+02
   9.044  0.1342E+01  0.2854E+02
   9.054  0.1364E+01  0.2855E+02
   9.064  0.1386E+01  0.2856E+02
   9.074  0.1407E+01  0.2858E+02
   9.084  0.1428E+01  0.2859E+02
   9.094  0.1449E+01  0.2861E+02
   9.104  0.1469E+01  0.2862E+02
   9.114  0.1488E+01  0.2864E+02
   9.124  0.1507E+01  0.2865E+02
   9.134  0.1526E+01  0.2867E+02
   9.144  0.1544E+01  0.2868E+02
   9.154  0.1562E+01  0.2870E+02
   9.164  0.1579E+01  0.2871E+02
   9.174  0.1595E+01  0.2873E+02
   9.184  0.1610E+01  0.2875E+02
   9.194  0.1625E+01  0.2876E+02
   9.204  0.1640E+01  0.2878E+02
   9.214  0.1653E+01  0.2880E+02
   9.224  0.1666E+01  0.2881E+02
   9.234  0.1678E+01  0.2883E+02
   9.244  0.1689E+01  0.2885E+02
   9.254  0.1700E+01  0.2886E+02
   9.264  0.1709E+01  0.2888E+02
   9.274  0.1718E+01  0.2890E+02
   9.284  0.1726E+01  0.2891E+02
   9.294  0.1733E+01  0.2893E+02
   9.304  0.1740E+01  0.2895E+02
   9.314  0.1745E+01  0.2897E+02
   9.324  0.1750E+01  0.2898E+02
   9.334  0.1753E+01  0.2900E+02
   9.344  0.1756E+01  0.2902E+02
   9.354  0.1758E+01  0.2904E+02
   9.364  0.1759E+01  0.2905E+02
   9.374  0.1759E+01  0.2907E+02
   9.384  0.1759E+01  0.2909E+02
   9.394  0.1757E+01  0.2911E+02
   9.404  0.1755E+01  0.2912E+02
   9.414  0.1752E+01  0.2914E+02
   9.424  0.1748E+01  0.2916E+02
   9.434  0.1743E+01  0.2918E+02
   9.444  0.1738E+01  0.2919E+02
   9.454  0.1731E+01  0.2921E+02
   9.464  0.1724E+01  0.2923E+02
   9.474  0.1717E+01  0.2925E+02
   9.484  0.1709E+01  0.2926E+02
   9.494  0.1700E+01  0.2928E+02
   9.504  0.1690E+01  0.2930E+02
   9.514  0.1681E+01  0.2931E+02
   9.524  0.1670E+01  0.2933E+02
   9.534  0.1659E+01  0.2935E+02
   9.544  0.1648E+01  0.2936E+02
   9.554  0.1636E+01  0.2938E+02
   9.564  0.1625E+01  0.2940E+02
   9.574  0.1612E+01  0.2941E+02
   9.584  0.1600E+01  0.2943E+02
   9.594  0.1588E+01  0.2944E+02
   9.604  0.1575E+01  0.2946E+02
   9.614  0.1562E+01  0.2948E+02
   9.624  0.1550E+01  0.2949E+02
   9.634  0.1537E+01  0.2951E+02
   9.644  0.1524E+01  0.2952E+02
   9.654  0.1512E+01  0.2954E+02
   9.664  0.1500E+01  0.2955E+02
   9.674  0.1488E+01  0.2957E+02
   9.684  0.1476E+01  0.2958E+02
   9.694  0.1465E+01  0.2960E+02
   9.704  0.1454E+01  0.2961E+02
   9.714  0.1443E+01  0.2963E+02
   9.724  0.1433E+01  0.2964E+02
   9.734  0.1423E+01  0.2965E+02
   9.744  0.1414E+01  0.2967E+02
   9.754  0.1406E+01  0.2968E+02
   9.764  0.1397E+01  0.2970E+02
   9.774  0.1390E+01  0.2971E+02
   9.784  0.1382E+01  0.2972E+02
   9.794  0.1376E+01  0.2974E+02
   9.804  0.1370E+01  0.2975E+02
   9.814  0.1364E+01  0.2977E+02
   9.824  0.1359E+01  0.2978E+02
   9.834  0.1355E+01  0.2979E+02
   9.844  0.1351E+01  0.2981E+02
   9.854  0.1347E+01  0.2982E+02
   9.864  0.1344E+01  0.2983E+02
   9.874  0.1342E+01  0.2985E+02
   9.884  0.1339E+01  0.2986E+02
   9.894  0.1338E+01  0.2987E+02
   9.904  0.1336E+01  0.2989E+02
   9.914  0.1335E+01  0.2990E+02
   9.924  0.1334E+01  0.2991E+02
   9.934  0.1333E+01  0.2993E+02
   9.944  0.1333E+01  0.2994E+02
   9.954  0.1332E+01  0.2995E+02
   9.964  0.1332E+01  0.2997E+02
   9.974  0.1331E+01  0.2998E+02
   9.984  0.1331E+01  0.2999E+02
   9.994  0.1331E+01  0.3001E+02
  10.004  0.1330E+01  0.3002E+02
  10.014  0.1329E+01  0.3003E+02
  10.024  0.1328E+01  0.3005E+02
  10.034  0.1327E+01  0.3006E+02
  10.044  0.1325E+01  0.3007E+02
  10.054  0.1323E+01  0.3009E+02
  10.064  0.1321E+01  0.3010E+02
  10.074  0.1318E+01  0.3011E+02
  10.084  0.1315E+01  0.3013E+02
  10.094  0.1312E+01  0.3014E+02
  10.104  0.1308E+01  0.3015E+02
  10.114  0.1303E+01  0.3016E+02
  10.124  0.1298E+01  0.3018E+02
  10.134  0.1293E+01  0.3019E+02
  10.144  0.1287E+01  0.3020E+02
  10.154  0.1280E+01  0.3022E+02
  10.164  0.1273E+01  0.3023E+02
  10.174  0.1266E+01  0.3024E+02
  10.184  0.1258E+01  0.3025E+02
  10.194  0.1249E+01  0.3027E+02
  10.204  0.1240E+01  0.3028E+02
  10.214  0.1231E+01  0.3029E+02
  10.224  0.1222E+01  0.3030E+02
  10.234  0.1212E+01  0.3032E+02
  10.244  0.1202E+01  0.3033E+02
  10.254  0.1191E+01  0.3034E+02
  10.264  0.1181E+01  0.3035E+02
  10.274  0.1171E+01  0.3036E+02
  10.284  0.1160E+01  0.3037E+02
  10.294  0.1150E+01  0.3039E+02
  10.304  0.1139E+01  0.3040E+02
  10.314  0.1129E+01  0.3041E+02
  10.324  0.1119E+01  0.3042E+02
  10.334  0.1110E+01  0.3043E+02
  10.344  0.1100E+01  0.3044E+02
  10.354  0.1092E+01  0.3045E+02
  10.364  0.1083E+01  0.3046E+02
  10.374  0.1076E+01  0.3047E+02
  10.384  0.1069E+01  0.3049E+02
  10.394  0.1063E+01  0.3050E+02
  10.404  0.1057E+01  0.3051E+02
  10.414  0.1052E+01  0.3052E+02
  10.424  0.1049E+01  0.3053E+02
  10.434  0.1046E+01  0.3054E+02
  10.444  0.1044E+01  0.3055E+02
  10.454  0.1043E+01  0.3056E+02
  10.464  0.1044E+01  0.3057E+02
  10.474  0.1045E+01  0.3058E+02
  10.484  0.1048E+01  0.3059E+02
  10.494  0.1051E+01  0.3060E+02
  10.504  0.1056E+01  0.3061E+02
  10.514  0.1063E+01  0.3062E+02
  10.524  0.1070E+01  0.3063E+02
  10.534  0.1079E+01  0.3064E+02
  10.544  0.1088E+01  0.3065E+02
  10.554  0.1099E+01  0.3067E+02
  10.564  0.1111E+01  0.3068E+02
  10.574  0.1125E+01  0.3069E+02
  10.584  0.1139E+01  0.3070E+02
  10.594  0.1154E+01  0.3071E+02
  10.604  0.1171E+01  0.3072E+02
  10.614  0.1188E+01  0.3073E+02
  10.624  0.1206E+01  0.3075E+02
  10.634  0.1225E+01  0.3076E+02
  10.644  0.1245E+01  0.3077E+02
  10.654  0.1266E+01  0.3078E+02
  10.664  0.1287E+01  0.3080E+02
  10.674  0.1309E+01  0.3081E+02
  10.684  0.1331E+01  0.3082E+02
  10.694  0.1354E+01  0.3084E+02
  10.704  0.1377E+01  0.3085E+02
  10.714  0.1400E+01  0.3086E+02
  10.724  0.1423E+01  0.3088E+02
  10.734  0.1446E+01  0.3089E+02
  10.744  0.1469E+01  0.3091E+02
  10.754  0.1492E+01  0.3092E+02
  10.764  0.1515E+01  0.3094E+02
  10.774  0.1537E+01  0.3095E+02
  10.784  0.1559E+01  0.3097E+02
  10.794  0.1580E+01  0.3098E+02
  10.804  0.1600E+01  0.3100E+02
  10.814  0.1620E+01  0.3102E+02
  10.824  0.1639E+01  0.3103E+02
  10.834  0.1657E+01  0.3105E+02
  10.844  0.1674E+01  0.3107E+02
  10.854  0.1690E+01  0.3108E+02
  10.864  0.1705E+01  0.3110E+02
  10.874  0.1719E+01  0.3112E+02
  10.884  0.1732E+01  0.3113E+02
  10.894  0.1743E+01  0.3115E+02
  10.904  0.1753E+01  0.3117E+02
  10.914  0.1762E+01  0.3119E+02
  10.924  0.1770E+01  0.3120E+02
  10.934  0.1776E+01  0.3122E+02
  10.944  0.1781E+01  0.3124E+02
  10.954  0.1784E+01  0.3126E+02
  10.964  0.1787E+01  0.3128E+02
  10.974  0.1788E+01  0.3129E+02
  10.984  0.1787E+01  0.3131E+02
  10.994  0.1786E+01  0.3133E+02
  11.004  0.1783E+01  0.3135E+02
  11.014  0.1779E+01  0.3137E+02
  11.024  0.1774E+01  0.3138E+02
  11.034  0.1768E+01  0.3140E+02
  11.044  0.1761E+01  0.3142E+02
  11.054  0.1753E+01  0.3144E+02
  11.064  0.1744E+01  0.3145E+02
  11.074  0.1735E+01  0.3147E+02
  11.084  0.1724E+01  0.3149E+02
  11.094  0.1713E+01  0.3151E+02
  11.104  0.1701E+01  0.3152E+02
  11.114  0.1689E+01  0.3154E+02
  11.124  0.1677E+01  0.3156E+02
  11.134  0.1664E+01  0.3157E+02
  11.144  0.1651E+01  0.3159E+02
  11.154  0.1637E+01  0.3161E+02
  11.164  0.1624E+01  0.3162E+02
  11.174  0.1610E+01  0.3164E+02
  11.184  0.1597E+01  0.3165E+02
  11.194  0.1584E+01  0.3167E+02
  11.204  0.1570E+01  0.3169E+02
  11.214  0.1557E+01  0.3170E+02
  11.224  0.1545E+01  0.3172E+02
  11.234  0.1533E+01  0.3173E+02
  11.244  0.1521E+01  0.3175E+02
  11.254  0.1509E+01  0.3176E+02
  11.264  0.1498E+01  0.3178E+02
  11.274  0.1488E+01  0.3179E+02
  11.284  0.1478E+01  0.3181E+02
  11.294  0.1469E+01  0.3182E+02
  11.304  0.1460E+01  0.3184E+02
  11.314  0.1452E+01  0.3185E+02
  11.324  0.1444E+01  0.3186E+02
  11.334  0.1438E+01  0.3188E+02
  11.344  0.1432E+01  0.3189E+02
  11.354  0.1426E+01  0.3191E+02
  11.364  0.1422E+01  0.3192E+02
  11.374  0.1418E+01  0.3194E+02
  11.384  0.1415E+01  0.3195E+02
  11.394  0.1412E+01  0.3196E+02
  11.404  0.1410E+01  0.3198E+02
  11.414  0.1409E+01  0.3199E+02
  11.424  0.1408E+01  0.3201E+02
  11.434  0.1408E+01  0.3202E+02
  11.444  0.1409E+01  0.3203E+02
  11.454  0.1410E+01  0.3205E+02
  11.464  0.1411E+01  0.3206E+02
  11.474  0.1414E+01  0.3208E+02
  11.484  0.1416E+01  0.3209E+02
  11.494  0.1419E+01  0.3211E+02
  11.504  0.1423E+01  0.3212E+02
  11.514  0.1427E+01  0.3213E+02
  11.524  0.1431E+01  0.3215E+02
  11.534  0.1436E+01  0.3216E+02
  11.544  0.1441E+01  0.3218E+02
  11.554  0.1446E+01  0.3219E+02
  11.564  0.1451E+01  0.3221E+02
  11.574  0.1457E+01  0.3222E+02
  11.584  0.1463E+01  0.3224E+02
  11.594  0.1469E+01  0.3225E+02
  11.604  0.1475E+01  0.3226E+02
  11.614  0.1481E+01  0.3228E+02
  11.624  0.1487E+01  0.3229E+02
  11.634  0.1494E+01  0.3231E+02
  11.644  0.1500E+01  0.3232E+02
  11.654  0.1507E+01  0.3234E+02
  11.664  0.1513E+01  0.3235E+02
  11.674  0.1519E+01  0.3237E+02
  11.684  0.1526E+01  0.3239E+02
  11.694  0.1532E+01  0.3240E+02
  11.704  0.1538E+01  0.3242E+02
  11.714  0.1544E+01  0.3243E+02
  11.724  0.1550E+01  0.3245E+02
  11.734  0.1556E+01  0.3246E+02
  11.744  0.1562E+01  0.3248E+02
  11.754  0.1568E+01  0.3249E+02
  11.764  0.1574E+01  0.3251E+02
  11.774  0.1580E+01  0.3253E+02
  11.784  0.1585E+01  0.3254E+02
  11.794  0.1590E+01  0.3256E+02
  11.804  0.1596E+01  0.3257E+02
  11.814  0.1601E+01  0.3259E+02
  11.824  0.1606E+01  0.3260E+02
  11.834  0.1611E+01  0.3262E+02
  11.844  0.1616E+01  0.3264E+02
  11.854  0.1621E+01  0.3265E+02
  11.864  0.1626E+01  0.3267E+02
  11.874  0.1631E+01  0.3269E+02
  11.884  0.1636E+01  0.3270E+02
  11.894  0.1640E+01  0.3272E+02
  11.904  0.1645E+01  0.3274E+02
  11.914  0.1650E+01  0.3275E+02
  11.924  0.1654E+01  0.3277E+02
  11.934  0.1659E+01  0.3278E+02
  11.944  0.1663E+01  0.3280E+02
  11.954  0.1668E+01  0.3282E+02
  11.964  0.1672E+01  0.3283E+02
  11.974  0.1677E+01  0.3285E+02
  11.984  0.1682E+01  0.3287E+02
  11.994  0.1686E+01  0.3289E+02
  12.004  0.1691E+01  0.3290E+02
  12.014  0.1695E+01  0.3292E+02
  12.024  0.1699E+01  0.3294E+02
  12.034  0.1704E+01  0.3295E+02
  12.044  0.1708E+01  0.3297E+02
  12.054  0.1712E+01  0.3299E+02
  12.064  0.1717E+01  0.3300E+02
  12.074  0.1721E+01  0.3302E+02
  12.084  0.1725E+01  0.3304E+02
  12.094  0.1729E+01  0.3306E+02
  12.104  0.1732E+01  0.3307E+02
  12.114  0.1736E+01  0.3309E+02
  12.124  0.1739E+01  0.3311E+02
  12.134  0.1742E+01  0.3313E+02
  12.144  0.1745E+01  0.3314E+02
  12.154  0.1747E+01  0.3316E+02
  12.164  0.1750E+01  0.3318E+02
  12.174  0.1752E+01  0.3320E+02
  12.184  0.1753E+01  0.3321E+02
  12.194  0.1754E+01  0.3323E+02
  12.204  0.1755E+01  0.3325E+02
  12.214  0.1755E+01  0.3327E+02
  12.224  0.1755E+01  0.3328E+02
  12.234  0.1755E+01  0.3330E+02
  12.244  0.1754E+01  0.3332E+02
  12.254  0.1752E+01  0.3334E+02
  12.264  0.1750E+01  0.3335E+02
  12.274  0.1747E+01  0.3337E+02
  12.284  0.1744E+01  0.3339E+02
  12.294  0.1740E+01  0.3341E+02
  12.304  0.1735E+01  0.3342E+02
  12.314  0.1730E+01  0.3344E+02
  12.324  0.1725E+01  0.3346E+02
  12.334  0.1719E+01  0.3347E+02
  12.344  0.1712E+01  0.3349E+02
  12.354  0.1705E+01  0.3351E+02
  12.364  0.1697E+01  0.3353E+02
  12.374  0.1688E+01  0.3354E+02
  12.384  0.1679E+01  0.3356E+02
  12.394  0.1670E+01  0.3358E+02
  12.404  0.1660E+01  0.3359E+02
  12.414  0.1650E+01  0.3361E+02
  12.424  0.1639E+01  0.3363E+02
  12.434  0.1628E+01  0.3364E+02
  12.444  0.1616E+01  0.3366E+02
  12.454  0.1604E+01  0.3367E+02
  12.464  0.1592E+01  0.3369E+02
  12.474  0.1579E+01  0.3371E+02
  12.484  0.1567E+01  0.3372E+02
  12.494  0.1554E+01  0.3374E+02
  12.504  0.1541E+01  0.3375E+02
  12.514  0.1528E+01  0.3377E+02
  12.524  0.1515E+01  0.3378E+02
  12.534  0.1502E+01  0.3380E+02
  12.544  0.1489E+01  0.3381E+02
  12.554  0.1476E+01  0.3383E+02
  12.564  0.1463E+01  0.3384E+02
  12.574  0.1450E+01  0.3386E+02
  12.584  0.1438E+01  0.3387E+02
  12.594  0.1426E+01  0.3389E+02
  12.604  0.1414E+01  0.3390E+02
  12.614  0.1402E+01  0.3391E+02
  12.624  0.1391E+01  0.3393E+02
  12.634  0.1380E+01  0.3394E+02
  12.644  0.1369E+01  0.3396E+02
  12.654  0.1359E+01  0.3397E+02
  12.664  0.1349E+01  0.3398E+02
  12.674  0.1340E+01  0.3400E+02
  12.684  0.1331E+01  0.3401E+02
  12.694  0.1322E+01  0.3402E+02
  12.704  0.1314E+01  0.3404E+02
  12.714  0.1307E+01  0.3405E+02
  12.724  0.1300E+01  0.3406E+02
  12.734  0.1293E+01  0.3407E+02
  12.744  0.1287E+01  0.3409E+02
  12.754  0.1281E+01  0.3410E+02
  12.764  0.1276E+01  0.3411E+02
  12.774  0.1271E+01  0.3413E+02
  12.784  0.1266E+01  0.3414E+02
  12.794  0.1262E+01  0.3415E+02
  12.804  0.1259E+01  0.3416E+02
  12.814  0.1255E+01  0.3418E+02
  12.824  0.1252E+01  0.3419E+02
  12.834  0.1250E+01  0.3420E+02
  12.844  0.1248E+01  0.3421E+02
  12.854  0.1246E+01  0.3423E+02
  12.864  0.1244E+01  0.3424E+02
  12.874  0.1243E+01  0.3425E+02
  12.884  0.1242E+01  0.3426E+02
  12.894  0.1241E+01  0.3428E+02
  12.904  0.1241E+01  0.3429E+02
  12.914  0.1241E+01  0.3430E+02
  12.924  0.1241E+01  0.3431E+02
  12.934  0.1241E+01  0.3433E+02
  12.944  0.1241E+01  0.3434E+02
  12.954  0.1242E+01  0.3435E+02
  12.964  0.1243E+01  0.3436E+02
  12.974  0.1243E+01  0.3437E+02
  12.984  0.1245E+01  0.3439E+02
  12.994  0.1246E+01  0.3440E+02
  13.004  0.1247E+01  0.3441E+02
  13.014  0.1249E+01  0.3442E+02
  13.024  0.1250E+01  0.3444E+02
  13.034  0.1252E+01  0.3445E+02
  13.044  0.1254E+01  0.3446E+02
  13.054  0.1256E+01  0.3447E+02
  13.064  0.1258E+01  0.3449E+02
  13.074  0.1260E+01  0.3450E+02
  13.084  0.1263E+01  0.3451E+02
  13.094  0.1265E+01  0.3453E+02
  13.104  0.1268E+01  0.3454E+02
  13.114  0.1270E+01  0.3455E+02
  13.124  0.1273E+01  0.3456E+02
  13.134  0.1276E+01  0.3458E+02
  13.144  0.1278E+01  0.3459E+02
  13.154  0.1281E+01  0.3460E+02
  13.164  0.1284E+01  0.3461E+02
  13.174  0.1287E+01  0.3463E+02
  13.184  0.1290E+01  0.3464E+02
  13.194  0.1293E+01  0.3465E+02
  13.204  0.1296E+01  0.3467E+02
  13.214  0.1299E+01  0.3468E+02
  13.224  0.1302E+01  0.3469E+02
  13.234  0.1305E+01  0.3471E+02
  13.244  0.1307E+01  0.3472E+02
  13.254  0.1310E+01  0.3473E+02
  13.264  0.1313E+01  0.3474E+02
  13.274  0.1316E+01  0.3476E+02
  13.284  0.1318E+01  0.3477E+02
  13.294  0.1321E+01  0.3478E+02
  13.304  0.1323E+01  0.3480E+02
  13.314  0.1325E+01  0.3481E+02
  13.324  0.1327E+01  0.3482E+02
  13.334  0.1329E+01  0.3484E+02
  13.344  0.1331E+01  0.3485E+02
  13.354  0.1333E+01  0.3486E+02
  13.364  0.1334E+01  0.3488E+02
  13.374  0.1335E+01  0.3489E+02
  13.384  0.1336E+01  0.3490E+02
  13.394  0.1337E+01  0.3492E+02
  13.404  0.1337E+01  0.3493E+02
  13.414  0.1337E+01  0.3494E+02
  13.424  0.1337E+01  0.3496E+02
  13.434  0.1337E+01  0.3497E+02
  13.444  0.1337E+01  0.3498E+02
  13.454  0.1336E+01  0.3500E+02
  13.464  0.1335E+01  0.3501E+02
  13.474  0.1333E+01  0.3502E+02
  13.484  0.1332E+01  0.3504E+02
  13.494  0.1330E+01  0.3505E+02
  13.504  0.1328E+01  0.3506E+02
  13.514  0.1325E+01  0.3508E+02
  13.524  0.1322E+01  0.3509E+02
  13.534  0.1319E+01  0.3510E+02
  13.544  0.1316E+01  0.3512E+02
  13.554  0.1312E+01  0.3513E+02
  13.564  0.1309E+01  0.3514E+02
  13.574  0.1305E+01  0.3516E+02
  13.584  0.1300E+01  0.3517E+02
  13.594  0.1296E+01  0.3518E+02
  13.604  0.1291E+01  0.3519E+02
  13.614  0.1286E+01  0.3521E+02
  13.624  0.1281E+01  0.3522E+02
  13.634  0.1276E+01  0.3523E+02
  13.644  0.1271E+01  0.3525E+02
  13.654  0.1265E+01  0.3526E+02
  13.664  0.1260E+01  0.3527E+02
  13.674  0.1254E+01  0.3528E+02
  13.684  0.1249E+01  0.3530E+02
  13.694  0.1243E+01  0.3531E+02
  13.704  0.1237E+01  0.3532E+02
  13.714  0.1232E+01  0.3533E+02
  13.724  0.1226E+01  0.3535E+02
  13.734  0.1221E+01  0.3536E+02
  13.744  0.1216E+01  0.3537E+02
  13.754  0.1210E+01  0.3538E+02
  13.764  0.1205E+01  0.3539E+02
  13.774  0.1201E+01  0.3541E+02
  13.784  0.1196E+01  0.3542E+02
  13.794  0.1192E+01  0.3543E+02
  13.804  0.1188E+01  0.3544E+02
  13.814  0.1184E+01  0.3545E+02
  13.824  0.1181E+01  0.3547E+02
  13.834  0.1177E+01  0.3548E+02
  13.844  0.1175E+01  0.3549E+02
  13.854  0.1172E+01  0.3550E+02
  13.864  0.1171E+01  0.3551E+02
  13.874  0.1169E+01  0.3552E+02
  13.884  0.1168E+01  0.3554E+02
  13.894  0.1167E+01  0.3555E+02
  13.904  0.1167E+01  0.3556E+02
  13.914  0.1167E+01  0.3557E+02
  13.924  0.1168E+01  0.3558E+02
  13.934  0.1169E+01  0.3559E+02
  13.944  0.1171E+01  0.3561E+02
  13.954  0.1173E+01  0.3562E+02
  13.964  0.1175E+01  0.3563E+02
  13.974  0.1178E+01  0.3564E+02
  13.984  0.1182E+01  0.3565E+02
  13.994  0.1185E+01  0.3567E+02
  14.004  0.1189E+01  0.3568E+02
  14.014  0.1194E+01  0.3569E+02
  14.024  0.1199E+01  0.3570E+02
  14.034  0.1204E+01  0.3571E+02
  14.044  0.1209E+01  0.3572E+02
  14.054  0.1215E+01  0.3574E+02
  14.064  0.1221E+01  0.3575E+02
  14.074  0.1227E+01  0.3576E+02
  14.084  0.1234E+01  0.3577E+02
  14.094  0.1240E+01  0.3579E+02
  14.104  0.1247E+01  0.3580E+02
  14.114  0.1254E+01  0.3581E+02
  14.124  0.1261E+01  0.3582E+02
  14.134  0.1268E+01  0.3584E+02
  14.144  0.1275E+01  0.3585E+02
  14.154  0.1282E+01  0.3586E+02
  14.164  0.1289E+01  0.3588E+02
  14.174  0.1296E+01  0.3589E+02
  14.184  0.1303E+01  0.3590E+02
  14.194  0.1309E+01  0.3591E+02
  14.204  0.1316E+01  0.3593E+02
  14.214  0.1322E+01  0.3594E+02
  14.224  0.1329E+01  0.3595E+02
  14.234  0.1335E+01  0.3597E+02
  14.244  0.1341E+01  0.3598E+02
  14.254  0.1346E+01  0.3599E+02
  14.264  0.1352E+01  0.3601E+02
  14.274  0.1357E+01  0.3602E+02
  14.284  0.1362E+01  0.3603E+02
  14.294  0.1367E+01  0.3605E+02
  14.304  0.1371E+01  0.3606E+02
  14.314  0.1376E+01  0.3608E+02
  14.324  0.1380E+01  0.3609E+02
  14.334  0.1384E+01  0.3610E+02
  14.344  0.1387E+01  0.3612E+02
  14.354  0.1391E+01  0.3613E+02
  14.364  0.1394E+01  0.3615E+02
  14.374  0.1397E+01  0.3616E+02
  14.384  0.1399E+01  0.3617E+02
  14.394  0.1402E+01  0.3619E+02
  14.404  0.1404E+01  0.3620E+02
  14.414  0.1407E+01  0.3622E+02
  14.424  0.1409E+01  0.3623E+02
  14.434  0.1411E+01  0.3624E+02
  14.444  0.1413E+01  0.3626E+02
  14.454  0.1415E+01  0.3627E+02
  14.464  0.1417E+01  0.3629E+02
  14.474  0.1418E+01  0.3630E+02
  14.484  0.1420E+01  0.3631E+02
  14.494  0.1422E+01  0.3633E+02
  14.504  0.1424E+01  0.3634E+02
  14.514  0.1426E+01  0.3636E+02
  14.524  0.1428E+01  0.3637E+02
  14.534  0.1431E+01  0.3639E+02
  14.544  0.1433E+01  0.3640E+02
  14.554  0.1436E+01  0.3641E+02
  14.564  0.1438E+01  0.3643E+02
  14.574  0.1441E+01  0.3644E+02
  14.584  0.1445E+01  0.3646E+02
  14.594  0.1448E+01  0.3647E+02
  14.604  0.1452E+01  0.3649E+02
  14.614  0.1456E+01  0.3650E+02
  14.624  0.1460E+01  0.3652E+02
  14.634  0.1465E+01  0.3653E+02
  14.644  0.1470E+01  0.3655E+02
  14.654  0.1476E+01  0.3656E+02
  14.664  0.1482E+01  0.3657E+02
  14.674  0.1488E+01  0.3659E+02
  14.684  0.1494E+01  0.3660E+02
  14.694  0.1501E+01  0.3662E+02
  14.704  0.1509E+01  0.3663E+02
  14.714  0.1516E+01  0.3665E+02
  14.724  0.1524E+01  0.3667E+02
  14.734  0.1533E+01  0.3668E+02
  14.744  0.1541E+01  0.3670E+02
  14.754  0.1550E+01  0.3671E+02
  14.764  0.1560E+01  0.3673E+02
  14.774  0.1570E+01  0.3674E+02
  14.784  0.1579E+01  0.3676E+02
  14.794  0.1590E+01  0.3677E+02
  14.804  0.1600E+01  0.3679E+02
  14.814  0.1611E+01  0.3681E+02
  14.824  0.1621E+01  0.3682E+02
  14.834  0.1632E+01  0.3684E+02
  14.844  0.1643E+01  0.3686E+02
  14.854  0.1655E+01  0.3687E+02
  14.864  0.1666E+01  0.3689E+02
  14.874  0.1677E+01  0.3691E+02
  14.884  0.1688E+01  0.3692E+02
  14.894  0.1699E+01  0.3694E+02
  14.904  0.1710E+01  0.3696E+02
  14.914  0.1721E+01  0.3697E+02
  14.924  0.1731E+01  0.3699E+02
  14.934  0.1742E+01  0.3701E+02
  14.944  0.1752E+01  0.3703E+02
  14.954  0.1762E+01  0.3704E+02
  14.964  0.1771E+01  0.3706E+02
  14.974  0.1780E+01  0.3708E+02
  14.984  0.1789E+01  0.3710E+02
  14.994  0.1797E+01  0.3711E+02
  15.004  0.1805E+01  0.3713E+02
  15.014  0.1813E+01  0.3715E+02
  15.024  0.1820E+01  0.3717E+02
  15.034  0.1827E+01  0.3719E+02
  15.044  0.1833E+01  0.3721E+02
  15.054  0.1838E+01  0.3722E+02
  15.064  0.1843E+01  0.3724E+02
  15.074  0.1848E+01  0.3726E+02
  15.084  0.1852E+01  0.3728E+02
  15.094  0.1855E+01  0.3730E+02
  15.104  0.1858E+01  0.3732E+02
  15.114  0.1861E+01  0.3734E+02
  15.124  0.1862E+01  0.3735E+02
  15.134  0.1864E+01  0.3737E+02
  15.144  0.1865E+01  0.3739E+02
  15.154  0.1865E+01  0.3741E+02
  15.164  0.1865E+01  0.3743E+02
  15.174  0.1864E+01  0.3745E+02
  15.184  0.1863E+01  0.3747E+02
  15.194  0.1862E+01  0.3748E+02
  15.204  0.1860E+01  0.3750E+02
  15.214  0.1857E+01  0.3752E+02
  15.224  0.1855E+01  0.3754E+02
  15.234  0.1852E+01  0.3756E+02
  15.244  0.1848E+01  0.3758E+02
  15.254  0.1845E+01  0.3760E+02
  15.264  0.1841E+01  0.3761E+02
  15.274  0.1837E+01  0.3763E+02
  15.284  0.1832E+01  0.3765E+02
  15.294  0.1828E+01  0.3767E+02
  15.304  0.1823E+01  0.3769E+02
  15.314  0.1818E+01  0.3771E+02
  15.324  0.1813E+01  0.3772E+02
  15.334  0.1807E+01  0.3774E+02
  15.344  0.1802E+01  0.3776E+02
  15.354  0.1796E+01  0.3778E+02
  15.364  0.1791E+01  0.3780E+02
  15.374  0.1785E+01  0.3781E+02
  15.384  0.1779E+01  0.3783E+02
  15.394  0.1773E+01  0.3785E+02
  15.404  0.1767E+01  0.3787E+02
  15.414  0.1761E+01  0.3788E+02
  15.424  0.1755E+01  0.3790E+02
  15.434  0.1749E+01  0.3792E+02
  15.444  0.1743E+01  0.3794E+02
  15.454  0.1737E+01  0.3795E+02
  15.464  0.1731E+01  0.3797E+02
  15.474  0.1725E+01  0.3799E+02
  15.484  0.1719E+01  0.3801E+02
  15.494  0.1712E+01  0.3802E+02
  15.504  0.1706E+01  0.3804E+02
  15.514  0.1700E+01  0.3806E+02
  15.524  0.1694E+01  0.3807E+02
  15.534  0.1688E+01  0.3809E+02
  15.544  0.1683E+01  0.3811E+02
  15.554  0.1677E+01  0.3812E+02
  15.564  0.1671E+01  0.3814E+02
  15.574  0.1665E+01  0.3816E+02
  15.584  0.1660E+01  0.3817E+02
  15.594  0.1655E+01  0.3819E+02
  15.604  0.1649E+01  0.3821E+02
  15.614  0.1644E+01  0.3822E+02
  15.624  0.1639E+01  0.3824E+02
  15.634  0.1635E+01  0.3826E+02
  15.644  0.1630E+01  0.3827E+02
  15.654  0.1626E+01  0.3829E+02
  15.664  0.1622E+01  0.3831E+02
  15.674  0.1618E+01  0.3832E+02
  15.684  0.1615E+01  0.3834E+02
  15.694  0.1612E+01  0.3835E+02
  15.704  0.1609E+01  0.3837E+02
  15.714  0.1606E+01  0.3839E+02
  15.724  0.1604E+01  0.3840E+02
  15.734  0.1602E+01  0.3842E+02
  15.744  0.1601E+01  0.3843E+02
  15.754  0.1600E+01  0.3845E+02
  15.764  0.1599E+01  0.3847E+02
  15.774  0.1599E+01  0.3848E+02
  15.784  0.1599E+01  0.3850E+02
  15.794  0.1600E+01  0.3851E+02
  15.804  0.1601E+01  0.3853E+02
  15.814  0.1602E+01  0.3855E+02
  15.824  0.1604E+01  0.3856E+02
  15.834  0.1606E+01  0.3858E+02
  15.844  0.1609E+01  0.3859E+02
  15.854  0.1612E+01  0.3861E+02
  15.864  0.1616E+01  0.3863E+02
  15.874  0.1619E+01  0.3864E+02
  15.884  0.1624E+01  0.3866E+02
  15.894  0.1628E+01  0.3868E+02
  15.904  0.1634E+01  0.3869E+02
  15.914  0.1639E+01  0.3871E+02
  15.924  0.1645E+01  0.3872E+02
  15.934  0.1650E+01  0.3874E+02
  15.944  0.1657E+01  0.3876E+02
  15.954  0.1663E+01  0.3877E+02
  15.964  0.1670E+01  0.3879E+02
  15.974  0.1677E+01  0.3881E+02
  15.984  0.1683E+01  0.3882E+02
  15.994  0.1691E+01  0.3884E+02
  16.004  0.1698E+01  0.3886E+02
  16.014  0.1705E+01  0.3888E+02
  16.024  0.1712E+01  0.3889E+02
  16.034  0.1719E+01  0.3891E+02
  16.044  0.1727E+01  0.3893E+02
  16.054  0.1734E+01  0.3894E+02
  16.064  0.1741E+01  0.3896E+02
  16.074  0.1748E+01  0.3898E+02
  16.084  0.1754E+01  0.3900E+02
  16.094  0.1761E+01  0.3901E+02
  16.104  0.1767E+01  0.3903E+02
  16.114  0.1773E+01  0.3905E+02
  16.124  0.1779E+01  0.3907E+02
  16.134  0.1785E+01  0.3909E+02
  16.144  0.1790E+01  0.3910E+02
  16.154  0.1795E+01  0.3912E+02
  16.164  0.1799E+01  0.3914E+02
  16.174  0.1804E+01  0.3916E+02
  16.184  0.1808E+01  0.3918E+02
  16.194  0.1811E+01  0.3919E+02
  16.204  0.1815E+01  0.3921E+02
  16.214  0.1818E+01  0.3923E+02
  16.224  0.1820E+01  0.3925E+02
  16.234  0.1823E+01  0.3927E+02
  16.244  0.1824E+01  0.3928E+02
  16.254  0.1826E+01  0.3930E+02
  16.264  0.1827E+01  0.3932E+02
  16.274  0.1828E+01  0.3934E+02
  16.284  0.1829E+01  0.3936E+02
  16.294  0.1830E+01  0.3938E+02
  16.304  0.1830E+01  0.3939E+02
  16.314  0.1830E+01  0.3941E+02
  16.324  0.1830E+01  0.3943E+02
  16.334  0.1829E+01  0.3945E+02
  16.344  0.1829E+01  0.3947E+02
  16.354  0.1828E+01  0.3949E+02
  16.364  0.1827E+01  0.3950E+02
  16.374  0.1826E+01  0.3952E+02
  16.384  0.1825E+01  0.3954E+02
  16.394  0.1824E+01  0.3956E+02
  16.404  0.1823E+01  0.3958E+02
  16.414  0.1822E+01  0.3959E+02
  16.424  0.1822E+01  0.3961E+02
  16.434  0.1821E+01  0.3963E+02
  16.444  0.1820E+01  0.3965E+02
  16.454  0.1819E+01  0.3967E+02
  16.464  0.1819E+01  0.3969E+02
  16.474  0.1819E+01  0.3970E+02
  16.484  0.1819E+01  0.3972E+02
  16.494  0.1819E+01  0.3974E+02
  16.504  0.1819E+01  0.3976E+02
  16.514  0.1819E+01  0.3978E+02
  16.524  0.1820E+01  0.3980E+02
  16.534  0.1821E+01  0.3981E+02
  16.544  0.1822E+01  0.3983E+02
  16.554  0.1824E+01  0.3985E+02
  16.564  0.1825E+01  0.3987E+02
  16.574  0.1827E+01  0.3989E+02
  16.584  0.1830E+01  0.3990E+02
  16.594  0.1832E+01  0.3992E+02
  16.604  0.1835E+01  0.3994E+02
  16.614  0.1838E+01  0.3996E+02
  16.624  0.1841E+01  0.3998E+02
  16.634  0.1844E+01  0.4000E+02
  16.644  0.1848E+01  0.4001E+02
  16.654  0.1851E+01  0.4003E+02
  16.664  0.1855E+01  0.4005E+02
  16.674  0.1859E+01  0.4007E+02
  16.684  0.1863E+01  0.4009E+02
  16.694  0.1868E+01  0.4011E+02
  16.704  0.1872E+01  0.4013E+02
  16.714  0.1876E+01  0.4015E+02
  16.724  0.1881E+01  0.4016E+02
  16.734  0.1885E+01  0.4018E+02
  16.744  0.1889E+01  0.4020E+02
  16.754  0.1894E+01  0.4022E+02
  16.764  0.1898E+01  0.4024E+02
  16.774  0.1902E+01  0.4026E+02
  16.784  0.1906E+01  0.4028E+02
  16.794  0.1910E+01  0.4030E+02
  16.804  0.1914E+01  0.4032E+02
  16.814  0.1917E+01  0.4034E+02
  16.824  0.1921E+01  0.4035E+02
  16.834  0.1924E+01  0.4037E+02
  16.844  0.1927E+01  0.4039E+02
  16.854  0.1929E+01  0.4041E+02
  16.864  0.1932E+01  0.4043E+02
  16.874  0.1934E+01  0.4045E+02
  16.884  0.1935E+01  0.4047E+02
  16.894  0.1937E+01  0.4049E+02
  16.904  0.1938E+01  0.4051E+02
  16.914  0.1939E+01  0.4053E+02
  16.924  0.1939E+01  0.4055E+02
  16.934  0.1939E+01  0.4057E+02
  16.944  0.1939E+01  0.4059E+02
  16.954  0.1939E+01  0.4061E+02
  16.964  0.1938E+01  0.4063E+02
  16.974  0.1937E+01  0.4064E+02
  16.984  0.1936E+01  0.4066E+02
  16.994  0.1935E+01  0.4068E+02
  17.004  0.1933E+01  0.4070E+02
  17.014  0.1931E+01  0.4072E+02
  17.024  0.1929E+01  0.4074E+02
  17.034  0.1927E+01  0.4076E+02
  17.044  0.1924E+01  0.4078E+02
  17.054  0.1922E+01  0.4080E+02
  17.064  0.1919E+01  0.4082E+02
  17.074  0.1917E+01  0.4084E+02
  17.084  0.1914E+01  0.4086E+02
  17.094  0.1911E+01  0.4088E+02
  17.104  0.1909E+01  0.4089E+02
  17.114  0.1906E+01  0.4091E+02
  17.124  0.1904E+01  0.4093E+02
  17.134  0.1901E+01  0.4095E+02
  17.144  0.1899E+01  0.4097E+02
  17.154  0.1897E+01  0.4099E+02
  17.164  0.1895E+01  0.4101E+02
  17.174  0.1894E+01  0.4103E+02
  17.184  0.1892E+01  0.4105E+02
  17.194  0.1891E+01  0.4107E+02
  17.204  0.1891E+01  0.4108E+02
  17.214  0.1890E+01  0.4110E+02
  17.224  0.1890E+01  0.4112E+02
  17.234  0.1890E+01  0.4114E+02
  17.244  0.1891E+01  0.4116E+02
  17.254  0.1892E+01  0.4118E+02
  17.264  0.1893E+01  0.4120E+02
  17.274  0.1895E+01  0.4122E+02
  17.284  0.1897E+01  0.4124E+02
  17.294  0.1899E+01  0.4125E+02
  17.304  0.1902E+01  0.4127E+02
  17.314  0.1905E+01  0.4129E+02
  17.324  0.1908E+01  0.4131E+02
  17.334  0.1912E+01  0.4133E+02
  17.344  0.1917E+01  0.4135E+02
  17.354  0.1921E+01  0.4137E+02
