#  E (eV)   dos(E)     Int dos(E) EFermi =   7.985 eV
 -15.274  0.5151E-03  0.5151E-05
 -15.264  0.5865E-03  0.1102E-04
 -15.254  0.6673E-03  0.1769E-04
 -15.244  0.7586E-03  0.2528E-04
 -15.234  0.8617E-03  0.3389E-04
 -15.224  0.9779E-03  0.4367E-04
 -15.214  0.1109E-02  0.5476E-04
 -15.204  0.1256E-02  0.6732E-04
 -15.194  0.1422E-02  0.8154E-04
 -15.184  0.1608E-02  0.9762E-04
 -15.174  0.1817E-02  0.1158E-03
 -15.164  0.2052E-02  0.1363E-03
 -15.154  0.2315E-02  0.1595E-03
 -15.144  0.2610E-02  0.1856E-03
 -15.134  0.2939E-02  0.2150E-03
 -15.124  0.3307E-02  0.2480E-03
 -15.114  0.3718E-02  0.2852E-03
 -15.104  0.4177E-02  0.3270E-03
 -15.094  0.4689E-02  0.3739E-03
 -15.084  0.5258E-02  0.4265E-03
 -15.074  0.5892E-02  0.4854E-03
 -15.064  0.6597E-02  0.5513E-03
 -15.054  0.7380E-02  0.6252E-03
 -15.044  0.8249E-02  0.7076E-03
 -15.034  0.9212E-02  0.7998E-03
 -15.024  0.1028E-01  0.9026E-03
 -15.014  0.1146E-01  0.1017E-02
 -15.004  0.1277E-01  0.1145E-02
 -14.994  0.1421E-01  0.1287E-02
 -14.984  0.1580E-01  0.1445E-02
 -14.974  0.1756E-01  0.1621E-02
 -14.964  0.1950E-01  0.1816E-02
 -14.954  0.2163E-01  0.2032E-02
 -14.944  0.2398E-01  0.2272E-02
 -14.934  0.2656E-01  0.2537E-02
 -14.924  0.2939E-01  0.2831E-02
 -14.914  0.3249E-01  0.3156E-02
 -14.904  0.3589E-01  0.3515E-02
 -14.894  0.3962E-01  0.3911E-02
 -14.884  0.4370E-01  0.4348E-02
 -14.874  0.4816E-01  0.4830E-02
 -14.864  0.5303E-01  0.5360E-02
 -14.854  0.5834E-01  0.5943E-02
 -14.844  0.6413E-01  0.6585E-02
 -14.834  0.7044E-01  0.7289E-02
 -14.824  0.7731E-01  0.8062E-02
 -14.814  0.8477E-01  0.8910E-02
 -14.804  0.9288E-01  0.9839E-02
 -14.794  0.1017E+00  0.1086E-01
 -14.784  0.1112E+00  0.1197E-01
 -14.774  0.1216E+00  0.1318E-01
 -14.764  0.1328E+00  0.1451E-01
 -14.754  0.1449E+00  0.1596E-01
 -14.744  0.1580E+00  0.1754E-01
 -14.734  0.1721E+00  0.1926E-01
 -14.724  0.1873E+00  0.2113E-01
 -14.714  0.2038E+00  0.2317E-01
 -14.704  0.2214E+00  0.2539E-01
 -14.694  0.2405E+00  0.2779E-01
 -14.684  0.2609E+00  0.3040E-01
 -14.674  0.2829E+00  0.3323E-01
 -14.664  0.3064E+00  0.3629E-01
 -14.654  0.3317E+00  0.3961E-01
 -14.644  0.3587E+00  0.4320E-01
 -14.634  0.3876E+00  0.4707E-01
 -14.624  0.4186E+00  0.5126E-01
 -14.614  0.4516E+00  0.5577E-01
 -14.604  0.4869E+00  0.6064E-01
 -14.594  0.5245E+00  0.6589E-01
 -14.584  0.5645E+00  0.7153E-01
 -14.574  0.6071E+00  0.7760E-01
 -14.564  0.6524E+00  0.8413E-01
 -14.554  0.7006E+00  0.9114E-01
 -14.544  0.7517E+00  0.9865E-01
 -14.534  0.8059E+00  0.1067E+00
 -14.524  0.8633E+00  0.1153E+00
 -14.514  0.9241E+00  0.1246E+00
 -14.504  0.9884E+00  0.1345E+00
 -14.494  0.1056E+01  0.1450E+00
 -14.484  0.1128E+01  0.1563E+00
 -14.474  0.1204E+01  0.1684E+00
 -14.464  0.1283E+01  0.1812E+00
 -14.454  0.1367E+01  0.1949E+00
 -14.444  0.1456E+01  0.2094E+00
 -14.434  0.1548E+01  0.2249E+00
 -14.424  0.1646E+01  0.2414E+00
 -14.414  0.1748E+01  0.2588E+00
 -14.404  0.1855E+01  0.2774E+00
 -14.394  0.1967E+01  0.2971E+00
 -14.384  0.2085E+01  0.3179E+00
 -14.374  0.2208E+01  0.3400E+00
 -14.364  0.2336E+01  0.3633E+00
 -14.354  0.2469E+01  0.3880E+00
 -14.344  0.2609E+01  0.4141E+00
 -14.334  0.2754E+01  0.4417E+00
 -14.324  0.2905E+01  0.4707E+00
 -14.314  0.3062E+01  0.5013E+00
 -14.304  0.3225E+01  0.5336E+00
 -14.294  0.3394E+01  0.5675E+00
 -14.284  0.3569E+01  0.6032E+00
 -14.274  0.3751E+01  0.6407E+00
 -14.264  0.3939E+01  0.6801E+00
 -14.254  0.4133E+01  0.7214E+00
 -14.244  0.4333E+01  0.7648E+00
 -14.234  0.4540E+01  0.8102E+00
 -14.224  0.4754E+01  0.8577E+00
 -14.214  0.4973E+01  0.9074E+00
 -14.204  0.5199E+01  0.9594E+00
 -14.194  0.5431E+01  0.1014E+01
 -14.184  0.5670E+01  0.1070E+01
 -14.174  0.5914E+01  0.1130E+01
 -14.164  0.6165E+01  0.1191E+01
 -14.154  0.6422E+01  0.1255E+01
 -14.144  0.6684E+01  0.1322E+01
 -14.134  0.6952E+01  0.1392E+01
 -14.124  0.7226E+01  0.1464E+01
 -14.114  0.7505E+01  0.1539E+01
 -14.104  0.7789E+01  0.1617E+01
 -14.094  0.8078E+01  0.1698E+01
 -14.084  0.8372E+01  0.1782E+01
 -14.074  0.8671E+01  0.1868E+01
 -14.064  0.8973E+01  0.1958E+01
 -14.054  0.9280E+01  0.2051E+01
 -14.044  0.9590E+01  0.2147E+01
 -14.034  0.9904E+01  0.2246E+01
 -14.024  0.1022E+02  0.2348E+01
 -14.014  0.1054E+02  0.2453E+01
 -14.004  0.1086E+02  0.2562E+01
 -13.994  0.1119E+02  0.2674E+01
 -13.984  0.1151E+02  0.2789E+01
 -13.974  0.1184E+02  0.2907E+01
 -13.964  0.1217E+02  0.3029E+01
 -13.954  0.1249E+02  0.3154E+01
 -13.944  0.1282E+02  0.3282E+01
 -13.934  0.1315E+02  0.3414E+01
 -13.924  0.1348E+02  0.3548E+01
 -13.914  0.1380E+02  0.3686E+01
 -13.904  0.1412E+02  0.3828E+01
 -13.894  0.1445E+02  0.3972E+01
 -13.884  0.1476E+02  0.4120E+01
 -13.874  0.1508E+02  0.4270E+01
 -13.864  0.1539E+02  0.4424E+01
 -13.854  0.1570E+02  0.4581E+01
 -13.844  0.1600E+02  0.4741E+01
 -13.834  0.1630E+02  0.4904E+01
 -13.824  0.1659E+02  0.5070E+01
 -13.814  0.1687E+02  0.5239E+01
 -13.804  0.1715E+02  0.5410E+01
 -13.794  0.1742E+02  0.5585E+01
 -13.784  0.1769E+02  0.5761E+01
 -13.774  0.1794E+02  0.5941E+01
 -13.764  0.1819E+02  0.6123E+01
 -13.754  0.1843E+02  0.6307E+01
 -13.744  0.1866E+02  0.6494E+01
 -13.734  0.1888E+02  0.6682E+01
 -13.724  0.1908E+02  0.6873E+01
 -13.714  0.1928E+02  0.7066E+01
 -13.704  0.1947E+02  0.7261E+01
 -13.694  0.1965E+02  0.7457E+01
 -13.684  0.1981E+02  0.7655E+01
 -13.674  0.1996E+02  0.7855E+01
 -13.664  0.2011E+02  0.8056E+01
 -13.654  0.2023E+02  0.8258E+01
 -13.644  0.2035E+02  0.8462E+01
 -13.634  0.2045E+02  0.8666E+01
 -13.624  0.2054E+02  0.8872E+01
 -13.614  0.2062E+02  0.9078E+01
 -13.604  0.2068E+02  0.9285E+01
 -13.594  0.2073E+02  0.9492E+01
 -13.584  0.2077E+02  0.9700E+01
 -13.574  0.2079E+02  0.9908E+01
 -13.564  0.2080E+02  0.1012E+02
 -13.554  0.2079E+02  0.1032E+02
 -13.544  0.2077E+02  0.1053E+02
 -13.534  0.2074E+02  0.1074E+02
 -13.524  0.2069E+02  0.1095E+02
 -13.514  0.2063E+02  0.1115E+02
 -13.504  0.2056E+02  0.1136E+02
 -13.494  0.2047E+02  0.1156E+02
 -13.484  0.2037E+02  0.1177E+02
 -13.474  0.2025E+02  0.1197E+02
 -13.464  0.2013E+02  0.1217E+02
 -13.454  0.1999E+02  0.1237E+02
 -13.444  0.1984E+02  0.1257E+02
 -13.434  0.1967E+02  0.1276E+02
 -13.424  0.1950E+02  0.1296E+02
 -13.414  0.1931E+02  0.1315E+02
 -13.404  0.1911E+02  0.1334E+02
 -13.394  0.1891E+02  0.1353E+02
 -13.384  0.1869E+02  0.1372E+02
 -13.374  0.1846E+02  0.1390E+02
 -13.364  0.1822E+02  0.1409E+02
 -13.354  0.1797E+02  0.1427E+02
 -13.344  0.1772E+02  0.1444E+02
 -13.334  0.1745E+02  0.1462E+02
 -13.324  0.1718E+02  0.1479E+02
 -13.314  0.1690E+02  0.1496E+02
 -13.304  0.1661E+02  0.1512E+02
 -13.294  0.1632E+02  0.1529E+02
 -13.284  0.1602E+02  0.1545E+02
 -13.274  0.1572E+02  0.1561E+02
 -13.264  0.1541E+02  0.1576E+02
 -13.254  0.1510E+02  0.1591E+02
 -13.244  0.1478E+02  0.1606E+02
 -13.234  0.1446E+02  0.1620E+02
 -13.224  0.1413E+02  0.1634E+02
 -13.214  0.1381E+02  0.1648E+02
 -13.204  0.1348E+02  0.1662E+02
 -13.194  0.1315E+02  0.1675E+02
 -13.184  0.1282E+02  0.1688E+02
 -13.174  0.1249E+02  0.1700E+02
 -13.164  0.1216E+02  0.1712E+02
 -13.154  0.1183E+02  0.1724E+02
 -13.144  0.1150E+02  0.1736E+02
 -13.134  0.1117E+02  0.1747E+02
 -13.124  0.1084E+02  0.1758E+02
 -13.114  0.1052E+02  0.1768E+02
 -13.104  0.1020E+02  0.1778E+02
 -13.094  0.9877E+01  0.1788E+02
 -13.084  0.9561E+01  0.1798E+02
 -13.074  0.9248E+01  0.1807E+02
 -13.064  0.8938E+01  0.1816E+02
 -13.054  0.8633E+01  0.1825E+02
 -13.044  0.8332E+01  0.1833E+02
 -13.034  0.8036E+01  0.1841E+02
 -13.024  0.7745E+01  0.1849E+02
 -13.014  0.7459E+01  0.1856E+02
 -13.004  0.7178E+01  0.1863E+02
 -12.994  0.6902E+01  0.1870E+02
 -12.984  0.6633E+01  0.1877E+02
 -12.974  0.6369E+01  0.1883E+02
 -12.964  0.6111E+01  0.1889E+02
 -12.954  0.5859E+01  0.1895E+02
 -12.944  0.5613E+01  0.1901E+02
 -12.934  0.5374E+01  0.1906E+02
 -12.924  0.5141E+01  0.1911E+02
 -12.914  0.4915E+01  0.1916E+02
 -12.904  0.4694E+01  0.1921E+02
 -12.894  0.4481E+01  0.1925E+02
 -12.884  0.4274E+01  0.1930E+02
 -12.874  0.4073E+01  0.1934E+02
 -12.864  0.3879E+01  0.1938E+02
 -12.854  0.3691E+01  0.1941E+02
 -12.844  0.3510E+01  0.1945E+02
 -12.834  0.3335E+01  0.1948E+02
 -12.824  0.3166E+01  0.1951E+02
 -12.814  0.3004E+01  0.1954E+02
 -12.804  0.2848E+01  0.1957E+02
 -12.794  0.2698E+01  0.1960E+02
 -12.784  0.2553E+01  0.1963E+02
 -12.774  0.2415E+01  0.1965E+02
 -12.764  0.2282E+01  0.1967E+02
 -12.754  0.2155E+01  0.1969E+02
 -12.744  0.2034E+01  0.1971E+02
 -12.734  0.1918E+01  0.1973E+02
 -12.724  0.1807E+01  0.1975E+02
 -12.714  0.1701E+01  0.1977E+02
 -12.704  0.1600E+01  0.1978E+02
 -12.694  0.1504E+01  0.1980E+02
 -12.684  0.1412E+01  0.1981E+02
 -12.674  0.1325E+01  0.1983E+02
 -12.664  0.1243E+01  0.1984E+02
 -12.654  0.1165E+01  0.1985E+02
 -12.644  0.1090E+01  0.1986E+02
 -12.634  0.1020E+01  0.1987E+02
 -12.624  0.9535E+00  0.1988E+02
 -12.614  0.8906E+00  0.1989E+02
 -12.604  0.8312E+00  0.1990E+02
 -12.594  0.7751E+00  0.1991E+02
 -12.584  0.7222E+00  0.1991E+02
 -12.574  0.6724E+00  0.1992E+02
 -12.564  0.6256E+00  0.1993E+02
 -12.554  0.5815E+00  0.1993E+02
 -12.544  0.5401E+00  0.1994E+02
 -12.534  0.5013E+00  0.1994E+02
 -12.524  0.4649E+00  0.1995E+02
 -12.514  0.4308E+00  0.1995E+02
 -12.504  0.3988E+00  0.1996E+02
 -12.494  0.3690E+00  0.1996E+02
 -12.484  0.3410E+00  0.1996E+02
 -12.474  0.3150E+00  0.1997E+02
 -12.464  0.2907E+00  0.1997E+02
 -12.454  0.2681E+00  0.1997E+02
 -12.444  0.2470E+00  0.1997E+02
 -12.434  0.2274E+00  0.1998E+02
 -12.424  0.2092E+00  0.1998E+02
 -12.414  0.1922E+00  0.1998E+02
 -12.404  0.1766E+00  0.1998E+02
 -12.394  0.1620E+00  0.1998E+02
 -12.384  0.1485E+00  0.1999E+02
 -12.374  0.1361E+00  0.1999E+02
 -12.364  0.1246E+00  0.1999E+02
 -12.354  0.1139E+00  0.1999E+02
 -12.344  0.1041E+00  0.1999E+02
 -12.334  0.9508E-01  0.1999E+02
 -12.324  0.8675E-01  0.1999E+02
 -12.314  0.7908E-01  0.1999E+02
 -12.304  0.7204E-01  0.1999E+02
 -12.294  0.6556E-01  0.1999E+02
 -12.284  0.5962E-01  0.1999E+02
 -12.274  0.5417E-01  0.2000E+02
 -12.264  0.4918E-01  0.2000E+02
 -12.254  0.4461E-01  0.2000E+02
 -12.244  0.4044E-01  0.2000E+02
 -12.234  0.3662E-01  0.2000E+02
 -12.224  0.3314E-01  0.2000E+02
 -12.214  0.2996E-01  0.2000E+02
 -12.204  0.2707E-01  0.2000E+02
 -12.194  0.2443E-01  0.2000E+02
 -12.184  0.2203E-01  0.2000E+02
 -12.174  0.1985E-01  0.2000E+02
 -12.164  0.1788E-01  0.2000E+02
 -12.154  0.1608E-01  0.2000E+02
 -12.144  0.1446E-01  0.2000E+02
 -12.134  0.1298E-01  0.2000E+02
 -12.124  0.1165E-01  0.2000E+02
 -12.114  0.1045E-01  0.2000E+02
 -12.104  0.9358E-02  0.2000E+02
 -12.094  0.8377E-02  0.2000E+02
 -12.084  0.7492E-02  0.2000E+02
 -12.074  0.6695E-02  0.2000E+02
 -12.064  0.5978E-02  0.2000E+02
 -12.054  0.5333E-02  0.2000E+02
 -12.044  0.4754E-02  0.2000E+02
 -12.034  0.4234E-02  0.2000E+02
 -12.024  0.3767E-02  0.2000E+02
 -12.014  0.3350E-02  0.2000E+02
 -12.004  0.2976E-02  0.2000E+02
 -11.994  0.2641E-02  0.2000E+02
 -11.984  0.2343E-02  0.2000E+02
 -11.974  0.2076E-02  0.2000E+02
 -11.964  0.1838E-02  0.2000E+02
 -11.954  0.1626E-02  0.2000E+02
 -11.944  0.1437E-02  0.2000E+02
 -11.934  0.1269E-02  0.2000E+02
 -11.924  0.1120E-02  0.2000E+02
 -11.914  0.9873E-03  0.2000E+02
 -11.904  0.8697E-03  0.2000E+02
 -11.894  0.7655E-03  0.2000E+02
 -11.884  0.6731E-03  0.2000E+02
 -11.874  0.5915E-03  0.2000E+02
 -11.864  0.5192E-03  0.2000E+02
 -11.854  0.4555E-03  0.2000E+02
 -11.844  0.3992E-03  0.2000E+02
 -11.834  0.3496E-03  0.2000E+02
 -11.824  0.3058E-03  0.2000E+02
 -11.814  0.2674E-03  0.2000E+02
 -11.804  0.2335E-03  0.2000E+02
 -11.794  0.2038E-03  0.2000E+02
 -11.784  0.1777E-03  0.2000E+02
 -11.774  0.1548E-03  0.2000E+02
 -11.764  0.1348E-03  0.2000E+02
 -11.754  0.1172E-03  0.2000E+02
 -11.744  0.1018E-03  0.2000E+02
 -11.734  0.8843E-04  0.2000E+02
 -11.724  0.7671E-04  0.2000E+02
 -11.714  0.6649E-04  0.2000E+02
 -11.704  0.5758E-04  0.2000E+02
 -11.694  0.4982E-04  0.2000E+02
 -11.684  0.4307E-04  0.2000E+02
 -11.674  0.3721E-04  0.2000E+02
 -11.664  0.3211E-04  0.2000E+02
 -11.654  0.2769E-04  0.2000E+02
 -11.644  0.2386E-04  0.2000E+02
 -11.634  0.2054E-04  0.2000E+02
 -11.624  0.1766E-04  0.2000E+02
 -11.614  0.1518E-04  0.2000E+02
 -11.604  0.1303E-04  0.2000E+02
 -11.594  0.1118E-04  0.2000E+02
 -11.584  0.9585E-05  0.2000E+02
 -11.574  0.8208E-05  0.2000E+02
 -11.564  0.7024E-05  0.2000E+02
 -11.554  0.6005E-05  0.2000E+02
 -11.544  0.5130E-05  0.2000E+02
 -11.534  0.4378E-05  0.2000E+02
 -11.524  0.3733E-05  0.2000E+02
 -11.514  0.3181E-05  0.2000E+02
 -11.504  0.2708E-05  0.2000E+02
 -11.494  0.2303E-05  0.2000E+02
 -11.484  0.1957E-05  0.2000E+02
 -11.474  0.1662E-05  0.2000E+02
 -11.464  0.1410E-05  0.2000E+02
 -11.454  0.1195E-05  0.2000E+02
 -11.444  0.1012E-05  0.2000E+02
 -11.434  0.8563E-06  0.2000E+02
 -11.424  0.7240E-06  0.2000E+02
 -11.414  0.6115E-06  0.2000E+02
 -11.404  0.5161E-06  0.2000E+02
 -11.394  0.4352E-06  0.2000E+02
 -11.384  0.3667E-06  0.2000E+02
 -11.374  0.3087E-06  0.2000E+02
 -11.364  0.2596E-06  0.2000E+02
 -11.354  0.2182E-06  0.2000E+02
 -11.344  0.1832E-06  0.2000E+02
 -11.334  0.1537E-06  0.2000E+02
 -11.324  0.1288E-06  0.2000E+02
 -11.314  0.1078E-06  0.2000E+02
 -11.304  0.9024E-07  0.2000E+02
 -11.294  0.7544E-07  0.2000E+02
 -11.284  0.6301E-07  0.2000E+02
 -11.274  0.5258E-07  0.2000E+02
 -11.264  0.4385E-07  0.2000E+02
 -11.254  0.3653E-07  0.2000E+02
 -11.244  0.3040E-07  0.2000E+02
 -11.234  0.2529E-07  0.2000E+02
 -11.224  0.2101E-07  0.2000E+02
 -11.214  0.1744E-07  0.2000E+02
 -11.204  0.1447E-07  0.2000E+02
 -11.194  0.1199E-07  0.2000E+02
 -11.184  0.9930E-08  0.2000E+02
 -11.174  0.8215E-08  0.2000E+02
 -11.164  0.6791E-08  0.2000E+02
 -11.154  0.5609E-08  0.2000E+02
 -11.144  0.4628E-08  0.2000E+02
 -11.134  0.3816E-08  0.2000E+02
 -11.124  0.3143E-08  0.2000E+02
 -11.114  0.2587E-08  0.2000E+02
 -11.104  0.2127E-08  0.2000E+02
 -11.094  0.1748E-08  0.2000E+02
 -11.084  0.1435E-08  0.2000E+02
 -11.074  0.1177E-08  0.2000E+02
 -11.064  0.9644E-09  0.2000E+02
 -11.054  0.7896E-09  0.2000E+02
 -11.044  0.6460E-09  0.2000E+02
 -11.034  0.5280E-09  0.2000E+02
 -11.024  0.4312E-09  0.2000E+02
 -11.014  0.3518E-09  0.2000E+02
 -11.004  0.2868E-09  0.2000E+02
 -10.994  0.2336E-09  0.2000E+02
 -10.984  0.1901E-09  0.2000E+02
 -10.974  0.1546E-09  0.2000E+02
 -10.964  0.1256E-09  0.2000E+02
 -10.954  0.1019E-09  0.2000E+02
 -10.944  0.8265E-10  0.2000E+02
 -10.934  0.6697E-10  0.2000E+02
 -10.924  0.5421E-10  0.2000E+02
 -10.914  0.4385E-10  0.2000E+02
 -10.904  0.3544E-10  0.2000E+02
 -10.894  0.2861E-10  0.2000E+02
 -10.884  0.2308E-10  0.2000E+02
 -10.874  0.1861E-10  0.2000E+02
 -10.864  0.1498E-10  0.2000E+02
 -10.854  0.1206E-10  0.2000E+02
 -10.844  0.9693E-11  0.2000E+02
 -10.834  0.7785E-11  0.2000E+02
 -10.824  0.6248E-11  0.2000E+02
 -10.814  0.5010E-11  0.2000E+02
 -10.804  0.4014E-11  0.2000E+02
 -10.794  0.3213E-11  0.2000E+02
 -10.784  0.2569E-11  0.2000E+02
 -10.774  0.2053E-11  0.2000E+02
 -10.764  0.1639E-11  0.2000E+02
 -10.754  0.1307E-11  0.2000E+02
 -10.744  0.1042E-11  0.2000E+02
 -10.734  0.8296E-12  0.2000E+02
 -10.724  0.6600E-12  0.2000E+02
 -10.714  0.5246E-12  0.2000E+02
 -10.704  0.4166E-12  0.2000E+02
 -10.694  0.3306E-12  0.2000E+02
 -10.684  0.2621E-12  0.2000E+02
 -10.674  0.2076E-12  0.2000E+02
 -10.664  0.1643E-12  0.2000E+02
 -10.654  0.1299E-12  0.2000E+02
 -10.644  0.1026E-12  0.2000E+02
 -10.634  0.8101E-13  0.2000E+02
 -10.624  0.6389E-13  0.2000E+02
 -10.614  0.5034E-13  0.2000E+02
 -10.604  0.3963E-13  0.2000E+02
 -10.594  0.3117E-13  0.2000E+02
 -10.584  0.2450E-13  0.2000E+02
 -10.574  0.1924E-13  0.2000E+02
 -10.564  0.1509E-13  0.2000E+02
 -10.554  0.1183E-13  0.2000E+02
 -10.544  0.9264E-14  0.2000E+02
 -10.534  0.7249E-14  0.2000E+02
 -10.524  0.5667E-14  0.2000E+02
 -10.514  0.4426E-14  0.2000E+02
 -10.504  0.3454E-14  0.2000E+02
 -10.494  0.2693E-14  0.2000E+02
 -10.484  0.2098E-14  0.2000E+02
 -10.474  0.1633E-14  0.2000E+02
 -10.464  0.1270E-14  0.2000E+02
 -10.454  0.9870E-15  0.2000E+02
 -10.444  0.7662E-15  0.2000E+02
 -10.434  0.5943E-15  0.2000E+02
 -10.424  0.4606E-15  0.2000E+02
 -10.414  0.3566E-15  0.2000E+02
 -10.404  0.2759E-15  0.2000E+02
 -10.394  0.2132E-15  0.2000E+02
 -10.384  0.1647E-15  0.2000E+02
 -10.374  0.1271E-15  0.2000E+02
 -10.364  0.9796E-16  0.2000E+02
 -10.354  0.7545E-16  0.2000E+02
 -10.344  0.5806E-16  0.2000E+02
 -10.334  0.4464E-16  0.2000E+02
 -10.324  0.3430E-16  0.2000E+02
 -10.314  0.2632E-16  0.2000E+02
 -10.304  0.2019E-16  0.2000E+02
 -10.294  0.1547E-16  0.2000E+02
 -10.284  0.1184E-16  0.2000E+02
 -10.274  0.9057E-17  0.2000E+02
 -10.264  0.6921E-17  0.2000E+02
 -10.254  0.5284E-17  0.2000E+02
 -10.244  0.4031E-17  0.2000E+02
 -10.234  0.3073E-17  0.2000E+02
 -10.224  0.2340E-17  0.2000E+02
 -10.214  0.1780E-17  0.2000E+02
 -10.204  0.1353E-17  0.2000E+02
 -10.194  0.1028E-17  0.2000E+02
 -10.184  0.7800E-18  0.2000E+02
 -10.174  0.5914E-18  0.2000E+02
 -10.164  0.4480E-18  0.2000E+02
 -10.154  0.3391E-18  0.2000E+02
 -10.144  0.2564E-18  0.2000E+02
 -10.134  0.1937E-18  0.2000E+02
 -10.124  0.1462E-18  0.2000E+02
 -10.114  0.1103E-18  0.2000E+02
 -10.104  0.8311E-19  0.2000E+02
 -10.094  0.6258E-19  0.2000E+02
 -10.084  0.4707E-19  0.2000E+02
 -10.074  0.3538E-19  0.2000E+02
 -10.064  0.2657E-19  0.2000E+02
 -10.054  0.1993E-19  0.2000E+02
 -10.044  0.1494E-19  0.2000E+02
 -10.034  0.1119E-19  0.2000E+02
 -10.024  0.8373E-20  0.2000E+02
 -10.014  0.6260E-20  0.2000E+02
 -10.004  0.4676E-20  0.2000E+02
  -9.994  0.3490E-20  0.2000E+02
  -9.984  0.2602E-20  0.2000E+02
  -9.974  0.1939E-20  0.2000E+02
  -9.964  0.1443E-20  0.2000E+02
  -9.954  0.1073E-20  0.2000E+02
  -9.944  0.7975E-21  0.2000E+02
  -9.934  0.5920E-21  0.2000E+02
  -9.924  0.4391E-21  0.2000E+02
  -9.914  0.3255E-21  0.2000E+02
  -9.904  0.2410E-21  0.2000E+02
  -9.894  0.1783E-21  0.2000E+02
  -9.884  0.1318E-21  0.2000E+02
  -9.874  0.9732E-22  0.2000E+02
  -9.864  0.7181E-22  0.2000E+02
  -9.854  0.5294E-22  0.2000E+02
  -9.844  0.3899E-22  0.2000E+02
  -9.834  0.2869E-22  0.2000E+02
  -9.824  0.2110E-22  0.2000E+02
  -9.814  0.1550E-22  0.2000E+02
  -9.804  0.1138E-22  0.2000E+02
  -9.794  0.8342E-23  0.2000E+02
  -9.784  0.6112E-23  0.2000E+02
  -9.774  0.4475E-23  0.2000E+02
  -9.764  0.3273E-23  0.2000E+02
  -9.754  0.2392E-23  0.2000E+02
  -9.744  0.1746E-23  0.2000E+02
  -9.734  0.1274E-23  0.2000E+02
  -9.724  0.9284E-24  0.2000E+02
  -9.714  0.6761E-24  0.2000E+02
  -9.704  0.4919E-24  0.2000E+02
  -9.694  0.3576E-24  0.2000E+02
  -9.684  0.2597E-24  0.2000E+02
  -9.674  0.1885E-24  0.2000E+02
  -9.664  0.1366E-24  0.2000E+02
  -9.654  0.9897E-25  0.2000E+02
  -9.644  0.7163E-25  0.2000E+02
  -9.634  0.5180E-25  0.2000E+02
  -9.624  0.3742E-25  0.2000E+02
  -9.614  0.2701E-25  0.2000E+02
  -9.604  0.1948E-25  0.2000E+02
  -9.594  0.1404E-25  0.2000E+02
  -9.584  0.1011E-25  0.2000E+02
  -9.574  0.7270E-26  0.2000E+02
  -9.564  0.5225E-26  0.2000E+02
  -9.554  0.3752E-26  0.2000E+02
  -9.544  0.2691E-26  0.2000E+02
  -9.534  0.1929E-26  0.2000E+02
  -9.524  0.1382E-26  0.2000E+02
  -9.514  0.9886E-27  0.2000E+02
  -9.504  0.7067E-27  0.2000E+02
  -9.494  0.5048E-27  0.2000E+02
  -9.484  0.3602E-27  0.2000E+02
  -9.474  0.2569E-27  0.2000E+02
  -9.464  0.1830E-27  0.2000E+02
  -9.454  0.1302E-27  0.2000E+02
  -9.444  0.9262E-28  0.2000E+02
  -9.434  0.6581E-28  0.2000E+02
  -9.424  0.4672E-28  0.2000E+02
  -9.414  0.3313E-28  0.2000E+02
  -9.404  0.2348E-28  0.2000E+02
  -9.394  0.1662E-28  0.2000E+02
  -9.384  0.1176E-28  0.2000E+02
  -9.374  0.8312E-29  0.2000E+02
  -9.364  0.5870E-29  0.2000E+02
  -9.354  0.4141E-29  0.2000E+02
  -9.344  0.2919E-29  0.2000E+02
  -9.334  0.2056E-29  0.2000E+02
  -9.324  0.1447E-29  0.2000E+02
  -9.314  0.1017E-29  0.2000E+02
  -9.304  0.7145E-30  0.2000E+02
  -9.294  0.5015E-30  0.2000E+02
  -9.284  0.3516E-30  0.2000E+02
  -9.274  0.2464E-30  0.2000E+02
  -9.264  0.1724E-30  0.2000E+02
  -9.254  0.1206E-30  0.2000E+02
  -9.244  0.8427E-31  0.2000E+02
  -9.234  0.5883E-31  0.2000E+02
  -9.224  0.4104E-31  0.2000E+02
  -9.214  0.2860E-31  0.2000E+02
  -9.204  0.1991E-31  0.2000E+02
  -9.194  0.1385E-31  0.2000E+02
  -9.184  0.9629E-32  0.2000E+02
  -9.174  0.6687E-32  0.2000E+02
  -9.164  0.4640E-32  0.2000E+02
  -9.154  0.3217E-32  0.2000E+02
  -9.144  0.2228E-32  0.2000E+02
  -9.134  0.1542E-32  0.2000E+02
  -9.124  0.1066E-32  0.2000E+02
  -9.114  0.7364E-33  0.2000E+02
  -9.104  0.5083E-33  0.2000E+02
  -9.094  0.3505E-33  0.2000E+02
  -9.084  0.2415E-33  0.2000E+02
  -9.074  0.1662E-33  0.2000E+02
  -9.064  0.1143E-33  0.2000E+02
  -9.054  0.7857E-34  0.2000E+02
  -9.044  0.5395E-34  0.2000E+02
  -9.034  0.3701E-34  0.2000E+02
  -9.024  0.2536E-34  0.2000E+02
  -9.014  0.1737E-34  0.2000E+02
  -9.004  0.1188E-34  0.2000E+02
  -8.994  0.8122E-35  0.2000E+02
  -8.984  0.5547E-35  0.2000E+02
  -8.974  0.3785E-35  0.2000E+02
  -8.964  0.2581E-35  0.2000E+02
  -8.954  0.1758E-35  0.2000E+02
  -8.944  0.1196E-35  0.2000E+02
  -8.934  0.8134E-36  0.2000E+02
  -8.924  0.5526E-36  0.2000E+02
  -8.914  0.3751E-36  0.2000E+02
  -8.904  0.2544E-36  0.2000E+02
  -8.894  0.1724E-36  0.2000E+02
  -8.884  0.1167E-36  0.2000E+02
  -8.874  0.7893E-37  0.2000E+02
  -8.864  0.5334E-37  0.2000E+02
  -8.854  0.3601E-37  0.2000E+02
  -8.844  0.2429E-37  0.2000E+02
  -8.834  0.1638E-37  0.2000E+02
  -8.824  0.1103E-37  0.2000E+02
  -8.814  0.7419E-38  0.2000E+02
  -8.804  0.4988E-38  0.2000E+02
  -8.794  0.3350E-38  0.2000E+02
  -8.784  0.2248E-38  0.2000E+02
  -8.774  0.1507E-38  0.2000E+02
  -8.764  0.1010E-38  0.2000E+02
  -8.754  0.6757E-39  0.2000E+02
  -8.744  0.4519E-39  0.2000E+02
  -8.734  0.3019E-39  0.2000E+02
  -8.724  0.2015E-39  0.2000E+02
  -8.714  0.1344E-39  0.2000E+02
  -8.704  0.8956E-40  0.2000E+02
  -8.694  0.5962E-40  0.2000E+02
  -8.684  0.3966E-40  0.2000E+02
  -8.674  0.2636E-40  0.2000E+02
  -8.664  0.1750E-40  0.2000E+02
  -8.654  0.1161E-40  0.2000E+02
  -8.644  0.7696E-41  0.2000E+02
  -8.634  0.5097E-41  0.2000E+02
  -8.624  0.3373E-41  0.2000E+02
  -8.614  0.2230E-41  0.2000E+02
  -8.604  0.1473E-41  0.2000E+02
  -8.594  0.9718E-42  0.2000E+02
  -8.584  0.6408E-42  0.2000E+02
  -8.574  0.4221E-42  0.2000E+02
  -8.564  0.2778E-42  0.2000E+02
  -8.554  0.1827E-42  0.2000E+02
  -8.544  0.1200E-42  0.2000E+02
  -8.534  0.7881E-43  0.2000E+02
  -8.524  0.5169E-43  0.2000E+02
  -8.514  0.3387E-43  0.2000E+02
  -8.504  0.2218E-43  0.2000E+02
  -8.494  0.1451E-43  0.2000E+02
  -8.484  0.9481E-44  0.2000E+02
  -8.474  0.6191E-44  0.2000E+02
  -8.464  0.4039E-44  0.2000E+02
  -8.454  0.2633E-44  0.2000E+02
  -8.444  0.1715E-44  0.2000E+02
  -8.434  0.1116E-44  0.2000E+02
  -8.424  0.7255E-45  0.2000E+02
  -8.414  0.4712E-45  0.2000E+02
  -8.404  0.3058E-45  0.2000E+02
  -8.394  0.1983E-45  0.2000E+02
  -8.384  0.1285E-45  0.2000E+02
  -8.374  0.8316E-46  0.2000E+02
  -8.364  0.5378E-46  0.2000E+02
  -8.354  0.3475E-46  0.2000E+02
  -8.344  0.2243E-46  0.2000E+02
  -8.334  0.1447E-46  0.2000E+02
  -8.324  0.9325E-47  0.2000E+02
  -8.314  0.6004E-47  0.2000E+02
  -8.304  0.3862E-47  0.2000E+02
  -8.294  0.2482E-47  0.2000E+02
  -8.284  0.1594E-47  0.2000E+02
  -8.274  0.1023E-47  0.2000E+02
  -8.264  0.6557E-48  0.2000E+02
  -8.254  0.4200E-48  0.2000E+02
  -8.244  0.2687E-48  0.2000E+02
  -8.234  0.1718E-48  0.2000E+02
  -8.224  0.1098E-48  0.2000E+02
  -8.214  0.7005E-49  0.2000E+02
  -8.204  0.4467E-49  0.2000E+02
  -8.194  0.2846E-49  0.2000E+02
  -8.184  0.1812E-49  0.2000E+02
  -8.174  0.1152E-49  0.2000E+02
  -8.164  0.7321E-50  0.2000E+02
  -8.154  0.4648E-50  0.2000E+02
  -8.144  0.2948E-50  0.2000E+02
  -8.134  0.1868E-50  0.2000E+02
  -8.124  0.1183E-50  0.2000E+02
  -8.114  0.7484E-51  0.2000E+02
  -8.104  0.4731E-51  0.2000E+02
  -8.094  0.2988E-51  0.2000E+02
  -8.084  0.1885E-51  0.2000E+02
  -8.074  0.1188E-51  0.2000E+02
  -8.064  0.7485E-52  0.2000E+02
  -8.054  0.4711E-52  0.2000E+02
  -8.044  0.2962E-52  0.2000E+02
  -8.034  0.1861E-52  0.2000E+02
  -8.024  0.1168E-52  0.2000E+02
  -8.014  0.7331E-53  0.2000E+02
  -8.004  0.4601E-53  0.2000E+02
  -7.994  0.2893E-53  0.2000E+02
  -7.984  0.1830E-53  0.2000E+02
  -7.974  0.1176E-53  0.2000E+02
  -7.964  0.7859E-54  0.2000E+02
  -7.954  0.5724E-54  0.2000E+02
  -7.944  0.4872E-54  0.2000E+02
  -7.934  0.5102E-54  0.2000E+02
  -7.924  0.6453E-54  0.2000E+02
  -7.914  0.9204E-54  0.2000E+02
  -7.904  0.1393E-53  0.2000E+02
  -7.894  0.2163E-53  0.2000E+02
  -7.884  0.3392E-53  0.2000E+02
  -7.874  0.5338E-53  0.2000E+02
  -7.864  0.8407E-53  0.2000E+02
  -7.854  0.1324E-52  0.2000E+02
  -7.844  0.2083E-52  0.2000E+02
  -7.834  0.3276E-52  0.2000E+02
  -7.824  0.5147E-52  0.2000E+02
  -7.814  0.8079E-52  0.2000E+02
  -7.804  0.1267E-51  0.2000E+02
  -7.794  0.1986E-51  0.2000E+02
  -7.784  0.3109E-51  0.2000E+02
  -7.774  0.4863E-51  0.2000E+02
  -7.764  0.7601E-51  0.2000E+02
  -7.754  0.1187E-50  0.2000E+02
  -7.744  0.1852E-50  0.2000E+02
  -7.734  0.2887E-50  0.2000E+02
  -7.724  0.4496E-50  0.2000E+02
  -7.714  0.6996E-50  0.2000E+02
  -7.704  0.1088E-49  0.2000E+02
  -7.694  0.1690E-49  0.2000E+02
  -7.684  0.2623E-49  0.2000E+02
  -7.674  0.4067E-49  0.2000E+02
  -7.664  0.6301E-49  0.2000E+02
  -7.654  0.9754E-49  0.2000E+02
  -7.644  0.1509E-48  0.2000E+02
  -7.634  0.2331E-48  0.2000E+02
  -7.624  0.3599E-48  0.2000E+02
  -7.614  0.5552E-48  0.2000E+02
  -7.604  0.8557E-48  0.2000E+02
  -7.594  0.1318E-47  0.2000E+02
  -7.584  0.2027E-47  0.2000E+02
  -7.574  0.3116E-47  0.2000E+02
  -7.564  0.4786E-47  0.2000E+02
  -7.554  0.7344E-47  0.2000E+02
  -7.544  0.1126E-46  0.2000E+02
  -7.534  0.1725E-46  0.2000E+02
  -7.524  0.2640E-46  0.2000E+02
  -7.514  0.4037E-46  0.2000E+02
  -7.504  0.6167E-46  0.2000E+02
  -7.494  0.9414E-46  0.2000E+02
  -7.484  0.1436E-45  0.2000E+02
  -7.474  0.2188E-45  0.2000E+02
  -7.464  0.3331E-45  0.2000E+02
  -7.454  0.5067E-45  0.2000E+02
  -7.444  0.7701E-45  0.2000E+02
  -7.434  0.1169E-44  0.2000E+02
  -7.424  0.1774E-44  0.2000E+02
  -7.414  0.2689E-44  0.2000E+02
  -7.404  0.4073E-44  0.2000E+02
  -7.394  0.6164E-44  0.2000E+02
  -7.384  0.9319E-44  0.2000E+02
  -7.374  0.1408E-43  0.2000E+02
  -7.364  0.2124E-43  0.2000E+02
  -7.354  0.3204E-43  0.2000E+02
  -7.344  0.4826E-43  0.2000E+02
  -7.334  0.7265E-43  0.2000E+02
  -7.324  0.1093E-42  0.2000E+02
  -7.314  0.1642E-42  0.2000E+02
  -7.304  0.2465E-42  0.2000E+02
  -7.294  0.3698E-42  0.2000E+02
  -7.284  0.5542E-42  0.2000E+02
  -7.274  0.8299E-42  0.2000E+02
  -7.264  0.1242E-41  0.2000E+02
  -7.254  0.1856E-41  0.2000E+02
  -7.244  0.2772E-41  0.2000E+02
  -7.234  0.4136E-41  0.2000E+02
  -7.224  0.6166E-41  0.2000E+02
  -7.214  0.9185E-41  0.2000E+02
  -7.204  0.1367E-40  0.2000E+02
  -7.194  0.2033E-40  0.2000E+02
  -7.184  0.3020E-40  0.2000E+02
  -7.174  0.4483E-40  0.2000E+02
  -7.164  0.6649E-40  0.2000E+02
  -7.154  0.9852E-40  0.2000E+02
  -7.144  0.1459E-39  0.2000E+02
  -7.134  0.2158E-39  0.2000E+02
  -7.124  0.3189E-39  0.2000E+02
  -7.114  0.4709E-39  0.2000E+02
  -7.104  0.6947E-39  0.2000E+02
  -7.094  0.1024E-38  0.2000E+02
  -7.084  0.1508E-38  0.2000E+02
  -7.074  0.2219E-38  0.2000E+02
  -7.064  0.3263E-38  0.2000E+02
  -7.054  0.4793E-38  0.2000E+02
  -7.044  0.7034E-38  0.2000E+02
  -7.034  0.1031E-37  0.2000E+02
  -7.024  0.1511E-37  0.2000E+02
  -7.014  0.2212E-37  0.2000E+02
  -7.004  0.3235E-37  0.2000E+02
  -6.994  0.4728E-37  0.2000E+02
  -6.984  0.6902E-37  0.2000E+02
  -6.974  0.1007E-36  0.2000E+02
  -6.964  0.1467E-36  0.2000E+02
  -6.954  0.2137E-36  0.2000E+02
  -6.944  0.3109E-36  0.2000E+02
  -6.934  0.4519E-36  0.2000E+02
  -6.924  0.6563E-36  0.2000E+02
  -6.914  0.9524E-36  0.2000E+02
  -6.904  0.1381E-35  0.2000E+02
  -6.894  0.2000E-35  0.2000E+02
  -6.884  0.2895E-35  0.2000E+02
  -6.874  0.4186E-35  0.2000E+02
  -6.864  0.6048E-35  0.2000E+02
  -6.854  0.8730E-35  0.2000E+02
  -6.844  0.1259E-34  0.2000E+02
  -6.834  0.1814E-34  0.2000E+02
  -6.824  0.2612E-34  0.2000E+02
  -6.814  0.3757E-34  0.2000E+02
  -6.804  0.5400E-34  0.2000E+02
  -6.794  0.7755E-34  0.2000E+02
  -6.784  0.1113E-33  0.2000E+02
  -6.774  0.1595E-33  0.2000E+02
  -6.764  0.2284E-33  0.2000E+02
  -6.754  0.3269E-33  0.2000E+02
  -6.744  0.4673E-33  0.2000E+02
  -6.734  0.6675E-33  0.2000E+02
  -6.724  0.9527E-33  0.2000E+02
  -6.714  0.1359E-32  0.2000E+02
  -6.704  0.1936E-32  0.2000E+02
  -6.694  0.2755E-32  0.2000E+02
  -6.684  0.3919E-32  0.2000E+02
  -6.674  0.5569E-32  0.2000E+02
  -6.664  0.7907E-32  0.2000E+02
  -6.654  0.1122E-31  0.2000E+02
  -6.644  0.1590E-31  0.2000E+02
  -6.634  0.2251E-31  0.2000E+02
  -6.624  0.3185E-31  0.2000E+02
  -6.614  0.4502E-31  0.2000E+02
  -6.604  0.6359E-31  0.2000E+02
  -6.594  0.8973E-31  0.2000E+02
  -6.584  0.1265E-30  0.2000E+02
  -6.574  0.1782E-30  0.2000E+02
  -6.564  0.2508E-30  0.2000E+02
  -6.554  0.3527E-30  0.2000E+02
  -6.544  0.4956E-30  0.2000E+02
  -6.534  0.6957E-30  0.2000E+02
  -6.524  0.9758E-30  0.2000E+02
  -6.514  0.1367E-29  0.2000E+02
  -6.504  0.1915E-29  0.2000E+02
  -6.494  0.2678E-29  0.2000E+02
  -6.484  0.3743E-29  0.2000E+02
  -6.474  0.5228E-29  0.2000E+02
  -6.464  0.7294E-29  0.2000E+02
  -6.454  0.1017E-28  0.2000E+02
  -6.444  0.1416E-28  0.2000E+02
  -6.434  0.1971E-28  0.2000E+02
  -6.424  0.2740E-28  0.2000E+02
  -6.414  0.3807E-28  0.2000E+02
  -6.404  0.5284E-28  0.2000E+02
  -6.394  0.7327E-28  0.2000E+02
  -6.384  0.1015E-27  0.2000E+02
  -6.374  0.1405E-27  0.2000E+02
  -6.364  0.1944E-27  0.2000E+02
  -6.354  0.2686E-27  0.2000E+02
  -6.344  0.3709E-27  0.2000E+02
  -6.334  0.5117E-27  0.2000E+02
  -6.324  0.7053E-27  0.2000E+02
  -6.314  0.9713E-27  0.2000E+02
  -6.304  0.1336E-26  0.2000E+02
  -6.294  0.1837E-26  0.2000E+02
  -6.284  0.2524E-26  0.2000E+02
  -6.274  0.3463E-26  0.2000E+02
  -6.264  0.4749E-26  0.2000E+02
  -6.254  0.6506E-26  0.2000E+02
  -6.244  0.8905E-26  0.2000E+02
  -6.234  0.1218E-25  0.2000E+02
  -6.224  0.1664E-25  0.2000E+02
  -6.214  0.2272E-25  0.2000E+02
  -6.204  0.3099E-25  0.2000E+02
  -6.194  0.4223E-25  0.2000E+02
  -6.184  0.5751E-25  0.2000E+02
  -6.174  0.7824E-25  0.2000E+02
  -6.164  0.1063E-24  0.2000E+02
  -6.154  0.1444E-24  0.2000E+02
  -6.144  0.1960E-24  0.2000E+02
  -6.134  0.2657E-24  0.2000E+02
  -6.124  0.3599E-24  0.2000E+02
  -6.114  0.4871E-24  0.2000E+02
  -6.104  0.6587E-24  0.2000E+02
  -6.094  0.8899E-24  0.2000E+02
  -6.084  0.1201E-23  0.2000E+02
  -6.074  0.1620E-23  0.2000E+02
  -6.064  0.2183E-23  0.2000E+02
  -6.054  0.2939E-23  0.2000E+02
  -6.044  0.3954E-23  0.2000E+02
  -6.034  0.5314E-23  0.2000E+02
  -6.024  0.7136E-23  0.2000E+02
  -6.014  0.9575E-23  0.2000E+02
  -6.004  0.1284E-22  0.2000E+02
  -5.994  0.1719E-22  0.2000E+02
  -5.984  0.2300E-22  0.2000E+02
  -5.974  0.3076E-22  0.2000E+02
  -5.964  0.4109E-22  0.2000E+02
  -5.954  0.5484E-22  0.2000E+02
  -5.944  0.7313E-22  0.2000E+02
  -5.934  0.9744E-22  0.2000E+02
  -5.924  0.1297E-21  0.2000E+02
  -5.914  0.1725E-21  0.2000E+02
  -5.904  0.2293E-21  0.2000E+02
  -5.894  0.3045E-21  0.2000E+02
  -5.884  0.4039E-21  0.2000E+02
  -5.874  0.5354E-21  0.2000E+02
  -5.864  0.7090E-21  0.2000E+02
  -5.854  0.9381E-21  0.2000E+02
  -5.844  0.1240E-20  0.2000E+02
  -5.834  0.1638E-20  0.2000E+02
  -5.824  0.2162E-20  0.2000E+02
  -5.814  0.2851E-20  0.2000E+02
  -5.804  0.3756E-20  0.2000E+02
  -5.794  0.4944E-20  0.2000E+02
  -5.784  0.6502E-20  0.2000E+02
  -5.774  0.8544E-20  0.2000E+02
  -5.764  0.1122E-19  0.2000E+02
  -5.754  0.1471E-19  0.2000E+02
  -5.744  0.1929E-19  0.2000E+02
  -5.734  0.2525E-19  0.2000E+02
  -5.724  0.3304E-19  0.2000E+02
  -5.714  0.4319E-19  0.2000E+02
  -5.704  0.5641E-19  0.2000E+02
  -5.694  0.7362E-19  0.2000E+02
  -5.684  0.9598E-19  0.2000E+02
  -5.674  0.1250E-18  0.2000E+02
  -5.664  0.1627E-18  0.2000E+02
  -5.654  0.2116E-18  0.2000E+02
  -5.644  0.2750E-18  0.2000E+02
  -5.634  0.3570E-18  0.2000E+02
  -5.624  0.4630E-18  0.2000E+02
  -5.614  0.6001E-18  0.2000E+02
  -5.604  0.7770E-18  0.2000E+02
  -5.594  0.1005E-17  0.2000E+02
  -5.584  0.1299E-17  0.2000E+02
  -5.574  0.1678E-17  0.2000E+02
  -5.564  0.2165E-17  0.2000E+02
  -5.554  0.2792E-17  0.2000E+02
  -5.544  0.3596E-17  0.2000E+02
  -5.534  0.4628E-17  0.2000E+02
  -5.524  0.5951E-17  0.2000E+02
  -5.514  0.7646E-17  0.2000E+02
  -5.504  0.9815E-17  0.2000E+02
  -5.494  0.1259E-16  0.2000E+02
  -5.484  0.1613E-16  0.2000E+02
  -5.474  0.2065E-16  0.2000E+02
  -5.464  0.2642E-16  0.2000E+02
  -5.454  0.3377E-16  0.2000E+02
  -5.444  0.4313E-16  0.2000E+02
  -5.434  0.5503E-16  0.2000E+02
  -5.424  0.7015E-16  0.2000E+02
  -5.414  0.8936E-16  0.2000E+02
  -5.404  0.1137E-15  0.2000E+02
  -5.394  0.1446E-15  0.2000E+02
  -5.384  0.1837E-15  0.2000E+02
  -5.374  0.2332E-15  0.2000E+02
  -5.364  0.2957E-15  0.2000E+02
  -5.354  0.3748E-15  0.2000E+02
  -5.344  0.4745E-15  0.2000E+02
  -5.334  0.6002E-15  0.2000E+02
  -5.324  0.7586E-15  0.2000E+02
  -5.314  0.9580E-15  0.2000E+02
  -5.304  0.1209E-14  0.2000E+02
  -5.294  0.1524E-14  0.2000E+02
  -5.284  0.1919E-14  0.2000E+02
  -5.274  0.2415E-14  0.2000E+02
  -5.264  0.3037E-14  0.2000E+02
  -5.254  0.3815E-14  0.2000E+02
  -5.244  0.4789E-14  0.2000E+02
  -5.234  0.6006E-14  0.2000E+02
  -5.224  0.7526E-14  0.2000E+02
  -5.214  0.9422E-14  0.2000E+02
  -5.204  0.1179E-13  0.2000E+02
  -5.194  0.1473E-13  0.2000E+02
  -5.184  0.1839E-13  0.2000E+02
  -5.174  0.2295E-13  0.2000E+02
  -5.164  0.2861E-13  0.2000E+02
  -5.154  0.3564E-13  0.2000E+02
  -5.144  0.4435E-13  0.2000E+02
  -5.134  0.5514E-13  0.2000E+02
  -5.124  0.6850E-13  0.2000E+02
  -5.114  0.8503E-13  0.2000E+02
  -5.104  0.1055E-12  0.2000E+02
  -5.094  0.1307E-12  0.2000E+02
  -5.084  0.1618E-12  0.2000E+02
  -5.074  0.2001E-12  0.2000E+02
  -5.064  0.2474E-12  0.2000E+02
  -5.054  0.3055E-12  0.2000E+02
  -5.044  0.3769E-12  0.2000E+02
  -5.034  0.4646E-12  0.2000E+02
  -5.024  0.5723E-12  0.2000E+02
  -5.014  0.7043E-12  0.2000E+02
  -5.004  0.8660E-12  0.2000E+02
  -4.994  0.1064E-11  0.2000E+02
  -4.984  0.1306E-11  0.2000E+02
  -4.974  0.1602E-11  0.2000E+02
  -4.964  0.1963E-11  0.2000E+02
  -4.954  0.2403E-11  0.2000E+02
  -4.944  0.2940E-11  0.2000E+02
  -4.934  0.3593E-11  0.2000E+02
  -4.924  0.4388E-11  0.2000E+02
  -4.914  0.5354E-11  0.2000E+02
  -4.904  0.6527E-11  0.2000E+02
  -4.894  0.7951E-11  0.2000E+02
  -4.884  0.9676E-11  0.2000E+02
  -4.874  0.1177E-10  0.2000E+02
  -4.864  0.1430E-10  0.2000E+02
  -4.854  0.1735E-10  0.2000E+02
  -4.844  0.2105E-10  0.2000E+02
  -4.834  0.2551E-10  0.2000E+02
  -4.824  0.3089E-10  0.2000E+02
  -4.814  0.3737E-10  0.2000E+02
  -4.804  0.4517E-10  0.2000E+02
  -4.794  0.5455E-10  0.2000E+02
  -4.784  0.6583E-10  0.2000E+02
  -4.774  0.7937E-10  0.2000E+02
  -4.764  0.9561E-10  0.2000E+02
  -4.754  0.1151E-09  0.2000E+02
  -4.744  0.1384E-09  0.2000E+02
  -4.734  0.1663E-09  0.2000E+02
  -4.724  0.1997E-09  0.2000E+02
  -4.714  0.2395E-09  0.2000E+02
  -4.704  0.2870E-09  0.2000E+02
  -4.694  0.3437E-09  0.2000E+02
  -4.684  0.4113E-09  0.2000E+02
  -4.674  0.4917E-09  0.2000E+02
  -4.664  0.5873E-09  0.2000E+02
  -4.654  0.7009E-09  0.2000E+02
  -4.644  0.8358E-09  0.2000E+02
  -4.634  0.9958E-09  0.2000E+02
  -4.624  0.1185E-08  0.2000E+02
  -4.614  0.1410E-08  0.2000E+02
  -4.604  0.1676E-08  0.2000E+02
  -4.594  0.1990E-08  0.2000E+02
  -4.584  0.2360E-08  0.2000E+02
  -4.574  0.2798E-08  0.2000E+02
  -4.564  0.3314E-08  0.2000E+02
  -4.554  0.3922E-08  0.2000E+02
  -4.544  0.4637E-08  0.2000E+02
  -4.534  0.5478E-08  0.2000E+02
  -4.524  0.6466E-08  0.2000E+02
  -4.514  0.7627E-08  0.2000E+02
  -4.504  0.8987E-08  0.2000E+02
  -4.494  0.1058E-07  0.2000E+02
  -4.484  0.1245E-07  0.2000E+02
  -4.474  0.1463E-07  0.2000E+02
  -4.464  0.1718E-07  0.2000E+02
  -4.454  0.2017E-07  0.2000E+02
  -4.444  0.2364E-07  0.2000E+02
  -4.434  0.2770E-07  0.2000E+02
  -4.424  0.3242E-07  0.2000E+02
  -4.414  0.3791E-07  0.2000E+02
  -4.404  0.4430E-07  0.2000E+02
  -4.394  0.5173E-07  0.2000E+02
  -4.384  0.6034E-07  0.2000E+02
  -4.374  0.7034E-07  0.2000E+02
  -4.364  0.8191E-07  0.2000E+02
  -4.354  0.9532E-07  0.2000E+02
  -4.344  0.1108E-06  0.2000E+02
  -4.334  0.1287E-06  0.2000E+02
  -4.324  0.1494E-06  0.2000E+02
  -4.314  0.1733E-06  0.2000E+02
  -4.304  0.2008E-06  0.2000E+02
  -4.294  0.2325E-06  0.2000E+02
  -4.284  0.2690E-06  0.2000E+02
  -4.274  0.3109E-06  0.2000E+02
  -4.264  0.3591E-06  0.2000E+02
  -4.254  0.4144E-06  0.2000E+02
  -4.244  0.4778E-06  0.2000E+02
  -4.234  0.5504E-06  0.2000E+02
  -4.224  0.6336E-06  0.2000E+02
  -4.214  0.7287E-06  0.2000E+02
  -4.204  0.8374E-06  0.2000E+02
  -4.194  0.9615E-06  0.2000E+02
  -4.184  0.1103E-05  0.2000E+02
  -4.174  0.1264E-05  0.2000E+02
  -4.164  0.1448E-05  0.2000E+02
  -4.154  0.1657E-05  0.2000E+02
  -4.144  0.1895E-05  0.2000E+02
  -4.134  0.2165E-05  0.2000E+02
  -4.124  0.2472E-05  0.2000E+02
  -4.114  0.2820E-05  0.2000E+02
  -4.104  0.3213E-05  0.2000E+02
  -4.094  0.3659E-05  0.2000E+02
  -4.084  0.4164E-05  0.2000E+02
  -4.074  0.4734E-05  0.2000E+02
  -4.064  0.5377E-05  0.2000E+02
  -4.054  0.6103E-05  0.2000E+02
  -4.044  0.6921E-05  0.2000E+02
  -4.034  0.7843E-05  0.2000E+02
  -4.024  0.8880E-05  0.2000E+02
  -4.014  0.1005E-04  0.2000E+02
  -4.004  0.1136E-04  0.2000E+02
  -3.994  0.1283E-04  0.2000E+02
  -3.984  0.1447E-04  0.2000E+02
  -3.974  0.1632E-04  0.2000E+02
  -3.964  0.1839E-04  0.2000E+02
  -3.954  0.2070E-04  0.2000E+02
  -3.944  0.2329E-04  0.2000E+02
  -3.934  0.2617E-04  0.2000E+02
  -3.924  0.2939E-04  0.2000E+02
  -3.914  0.3298E-04  0.2000E+02
  -3.904  0.3698E-04  0.2000E+02
  -3.894  0.4143E-04  0.2000E+02
  -3.884  0.4637E-04  0.2000E+02
  -3.874  0.5187E-04  0.2000E+02
  -3.864  0.5797E-04  0.2000E+02
  -3.854  0.6473E-04  0.2000E+02
  -3.844  0.7223E-04  0.2000E+02
  -3.834  0.8053E-04  0.2000E+02
  -3.824  0.8970E-04  0.2000E+02
  -3.814  0.9985E-04  0.2000E+02
  -3.804  0.1111E-03  0.2000E+02
  -3.794  0.1234E-03  0.2000E+02
  -3.784  0.1370E-03  0.2000E+02
  -3.774  0.1521E-03  0.2000E+02
  -3.764  0.1686E-03  0.2000E+02
  -3.754  0.1867E-03  0.2000E+02
  -3.744  0.2067E-03  0.2000E+02
  -3.734  0.2286E-03  0.2000E+02
  -3.724  0.2527E-03  0.2000E+02
  -3.714  0.2790E-03  0.2000E+02
  -3.704  0.3078E-03  0.2000E+02
  -3.694  0.3394E-03  0.2000E+02
  -3.684  0.3739E-03  0.2000E+02
  -3.674  0.4116E-03  0.2000E+02
  -3.664  0.4527E-03  0.2000E+02
  -3.654  0.4975E-03  0.2000E+02
  -3.644  0.5464E-03  0.2000E+02
  -3.634  0.5996E-03  0.2000E+02
  -3.624  0.6574E-03  0.2000E+02
  -3.614  0.7202E-03  0.2000E+02
  -3.604  0.7885E-03  0.2000E+02
  -3.594  0.8625E-03  0.2000E+02
  -3.584  0.9428E-03  0.2000E+02
  -3.574  0.1030E-02  0.2000E+02
  -3.564  0.1124E-02  0.2000E+02
  -3.554  0.1226E-02  0.2000E+02
  -3.544  0.1335E-02  0.2000E+02
  -3.534  0.1454E-02  0.2000E+02
  -3.524  0.1582E-02  0.2000E+02
  -3.514  0.1720E-02  0.2000E+02
  -3.504  0.1869E-02  0.2000E+02
  -3.494  0.2028E-02  0.2000E+02
  -3.484  0.2200E-02  0.2000E+02
  -3.474  0.2385E-02  0.2000E+02
  -3.464  0.2583E-02  0.2000E+02
  -3.454  0.2795E-02  0.2000E+02
  -3.444  0.3023E-02  0.2000E+02
  -3.434  0.3266E-02  0.2000E+02
  -3.424  0.3527E-02  0.2000E+02
  -3.414  0.3805E-02  0.2000E+02
  -3.404  0.4103E-02  0.2000E+02
  -3.394  0.4420E-02  0.2000E+02
  -3.384  0.4759E-02  0.2000E+02
  -3.374  0.5119E-02  0.2000E+02
  -3.364  0.5503E-02  0.2000E+02
  -3.354  0.5911E-02  0.2000E+02
  -3.344  0.6345E-02  0.2000E+02
  -3.334  0.6806E-02  0.2000E+02
  -3.324  0.7295E-02  0.2000E+02
  -3.314  0.7813E-02  0.2000E+02
  -3.304  0.8362E-02  0.2000E+02
  -3.294  0.8943E-02  0.2000E+02
  -3.284  0.9558E-02  0.2000E+02
  -3.274  0.1021E-01  0.2000E+02
  -3.264  0.1089E-01  0.2000E+02
  -3.254  0.1162E-01  0.2000E+02
  -3.244  0.1238E-01  0.2000E+02
  -3.234  0.1318E-01  0.2000E+02
  -3.224  0.1403E-01  0.2000E+02
  -3.214  0.1492E-01  0.2000E+02
  -3.204  0.1585E-01  0.2000E+02
  -3.194  0.1683E-01  0.2000E+02
  -3.184  0.1786E-01  0.2000E+02
  -3.174  0.1894E-01  0.2000E+02
  -3.164  0.2007E-01  0.2000E+02
  -3.154  0.2126E-01  0.2000E+02
  -3.144  0.2250E-01  0.2000E+02
  -3.134  0.2379E-01  0.2000E+02
  -3.124  0.2514E-01  0.2000E+02
  -3.114  0.2655E-01  0.2000E+02
  -3.104  0.2802E-01  0.2000E+02
  -3.094  0.2955E-01  0.2000E+02
  -3.084  0.3115E-01  0.2001E+02
  -3.074  0.3281E-01  0.2001E+02
  -3.064  0.3453E-01  0.2001E+02
  -3.054  0.3632E-01  0.2001E+02
  -3.044  0.3818E-01  0.2001E+02
  -3.034  0.4011E-01  0.2001E+02
  -3.024  0.4211E-01  0.2001E+02
  -3.014  0.4418E-01  0.2001E+02
  -3.004  0.4632E-01  0.2001E+02
  -2.994  0.4854E-01  0.2001E+02
  -2.984  0.5083E-01  0.2001E+02
  -2.974  0.5319E-01  0.2001E+02
  -2.964  0.5563E-01  0.2001E+02
  -2.954  0.5814E-01  0.2001E+02
  -2.944  0.6073E-01  0.2001E+02
  -2.934  0.6340E-01  0.2001E+02
  -2.924  0.6614E-01  0.2001E+02
  -2.914  0.6896E-01  0.2001E+02
  -2.904  0.7186E-01  0.2001E+02
  -2.894  0.7484E-01  0.2002E+02
  -2.884  0.7789E-01  0.2002E+02
  -2.874  0.8102E-01  0.2002E+02
  -2.864  0.8422E-01  0.2002E+02
  -2.854  0.8750E-01  0.2002E+02
  -2.844  0.9086E-01  0.2002E+02
  -2.834  0.9430E-01  0.2002E+02
  -2.824  0.9780E-01  0.2002E+02
  -2.814  0.1014E+00  0.2002E+02
  -2.804  0.1050E+00  0.2002E+02
  -2.794  0.1088E+00  0.2002E+02
  -2.784  0.1126E+00  0.2003E+02
  -2.774  0.1164E+00  0.2003E+02
  -2.764  0.1204E+00  0.2003E+02
  -2.754  0.1244E+00  0.2003E+02
  -2.744  0.1284E+00  0.2003E+02
  -2.734  0.1326E+00  0.2003E+02
  -2.724  0.1368E+00  0.2003E+02
  -2.714  0.1410E+00  0.2003E+02
  -2.704  0.1453E+00  0.2004E+02
  -2.694  0.1497E+00  0.2004E+02
  -2.684  0.1541E+00  0.2004E+02
  -2.674  0.1586E+00  0.2004E+02
  -2.664  0.1632E+00  0.2004E+02
  -2.654  0.1678E+00  0.2004E+02
  -2.644  0.1724E+00  0.2005E+02
  -2.634  0.1771E+00  0.2005E+02
  -2.624  0.1818E+00  0.2005E+02
  -2.614  0.1866E+00  0.2005E+02
  -2.604  0.1914E+00  0.2005E+02
  -2.594  0.1962E+00  0.2005E+02
  -2.584  0.2011E+00  0.2006E+02
  -2.574  0.2060E+00  0.2006E+02
  -2.564  0.2109E+00  0.2006E+02
  -2.554  0.2159E+00  0.2006E+02
  -2.544  0.2209E+00  0.2007E+02
  -2.534  0.2259E+00  0.2007E+02
  -2.524  0.2310E+00  0.2007E+02
  -2.514  0.2361E+00  0.2007E+02
  -2.504  0.2412E+00  0.2007E+02
  -2.494  0.2463E+00  0.2008E+02
  -2.484  0.2514E+00  0.2008E+02
  -2.474  0.2565E+00  0.2008E+02
  -2.464  0.2617E+00  0.2008E+02
  -2.454  0.2668E+00  0.2009E+02
  -2.444  0.2720E+00  0.2009E+02
  -2.434  0.2771E+00  0.2009E+02
  -2.424  0.2823E+00  0.2010E+02
  -2.414  0.2875E+00  0.2010E+02
  -2.404  0.2927E+00  0.2010E+02
  -2.394  0.2978E+00  0.2010E+02
  -2.384  0.3030E+00  0.2011E+02
  -2.374  0.3082E+00  0.2011E+02
  -2.364  0.3134E+00  0.2011E+02
  -2.354  0.3185E+00  0.2012E+02
  -2.344  0.3237E+00  0.2012E+02
  -2.334  0.3288E+00  0.2012E+02
  -2.324  0.3340E+00  0.2013E+02
  -2.314  0.3391E+00  0.2013E+02
  -2.304  0.3442E+00  0.2013E+02
  -2.294  0.3493E+00  0.2014E+02
  -2.284  0.3544E+00  0.2014E+02
  -2.274  0.3595E+00  0.2014E+02
  -2.264  0.3646E+00  0.2015E+02
  -2.254  0.3697E+00  0.2015E+02
  -2.244  0.3747E+00  0.2016E+02
  -2.234  0.3798E+00  0.2016E+02
  -2.224  0.3848E+00  0.2016E+02
  -2.214  0.3898E+00  0.2017E+02
  -2.204  0.3948E+00  0.2017E+02
  -2.194  0.3998E+00  0.2018E+02
  -2.184  0.4048E+00  0.2018E+02
  -2.174  0.4098E+00  0.2018E+02
  -2.164  0.4147E+00  0.2019E+02
  -2.154  0.4197E+00  0.2019E+02
  -2.144  0.4246E+00  0.2020E+02
  -2.134  0.4295E+00  0.2020E+02
  -2.124  0.4344E+00  0.2020E+02
  -2.114  0.4393E+00  0.2021E+02
  -2.104  0.4442E+00  0.2021E+02
  -2.094  0.4491E+00  0.2022E+02
  -2.084  0.4540E+00  0.2022E+02
  -2.074  0.4589E+00  0.2023E+02
  -2.064  0.4637E+00  0.2023E+02
  -2.054  0.4686E+00  0.2024E+02
  -2.044  0.4735E+00  0.2024E+02
  -2.034  0.4783E+00  0.2025E+02
  -2.024  0.4832E+00  0.2025E+02
  -2.014  0.4880E+00  0.2026E+02
  -2.004  0.4929E+00  0.2026E+02
  -1.994  0.4978E+00  0.2027E+02
  -1.984  0.5026E+00  0.2027E+02
  -1.974  0.5075E+00  0.2028E+02
  -1.964  0.5124E+00  0.2028E+02
  -1.954  0.5172E+00  0.2029E+02
  -1.944  0.5221E+00  0.2029E+02
  -1.934  0.5270E+00  0.2030E+02
  -1.924  0.5319E+00  0.2030E+02
  -1.914  0.5368E+00  0.2031E+02
  -1.904  0.5418E+00  0.2031E+02
  -1.894  0.5467E+00  0.2032E+02
  -1.884  0.5516E+00  0.2032E+02
  -1.874  0.5566E+00  0.2033E+02
  -1.864  0.5616E+00  0.2033E+02
  -1.854  0.5666E+00  0.2034E+02
  -1.844  0.5716E+00  0.2035E+02
  -1.834  0.5767E+00  0.2035E+02
  -1.824  0.5817E+00  0.2036E+02
  -1.814  0.5868E+00  0.2036E+02
  -1.804  0.5919E+00  0.2037E+02
  -1.794  0.5970E+00  0.2038E+02
  -1.784  0.6022E+00  0.2038E+02
  -1.774  0.6073E+00  0.2039E+02
  -1.764  0.6125E+00  0.2039E+02
  -1.754  0.6178E+00  0.2040E+02
  -1.744  0.6230E+00  0.2041E+02
  -1.734  0.6283E+00  0.2041E+02
  -1.724  0.6336E+00  0.2042E+02
  -1.714  0.6389E+00  0.2042E+02
  -1.704  0.6443E+00  0.2043E+02
  -1.694  0.6497E+00  0.2044E+02
  -1.684  0.6551E+00  0.2044E+02
  -1.674  0.6606E+00  0.2045E+02
  -1.664  0.6660E+00  0.2046E+02
  -1.654  0.6715E+00  0.2046E+02
  -1.644  0.6771E+00  0.2047E+02
  -1.634  0.6826E+00  0.2048E+02
  -1.624  0.6882E+00  0.2048E+02
  -1.614  0.6938E+00  0.2049E+02
  -1.604  0.6995E+00  0.2050E+02
  -1.594  0.7051E+00  0.2051E+02
  -1.584  0.7108E+00  0.2051E+02
  -1.574  0.7165E+00  0.2052E+02
  -1.564  0.7222E+00  0.2053E+02
  -1.554  0.7280E+00  0.2053E+02
  -1.544  0.7337E+00  0.2054E+02
  -1.534  0.7395E+00  0.2055E+02
  -1.524  0.7453E+00  0.2056E+02
  -1.514  0.7511E+00  0.2056E+02
  -1.504  0.7569E+00  0.2057E+02
  -1.494  0.7627E+00  0.2058E+02
  -1.484  0.7686E+00  0.2059E+02
  -1.474  0.7744E+00  0.2059E+02
  -1.464  0.7802E+00  0.2060E+02
  -1.454  0.7860E+00  0.2061E+02
  -1.444  0.7919E+00  0.2062E+02
  -1.434  0.7977E+00  0.2063E+02
  -1.424  0.8035E+00  0.2063E+02
  -1.414  0.8092E+00  0.2064E+02
  -1.404  0.8150E+00  0.2065E+02
  -1.394  0.8207E+00  0.2066E+02
  -1.384  0.8264E+00  0.2067E+02
  -1.374  0.8321E+00  0.2068E+02
  -1.364  0.8377E+00  0.2068E+02
  -1.354  0.8433E+00  0.2069E+02
  -1.344  0.8489E+00  0.2070E+02
  -1.334  0.8544E+00  0.2071E+02
  -1.324  0.8598E+00  0.2072E+02
  -1.314  0.8652E+00  0.2073E+02
  -1.304  0.8705E+00  0.2074E+02
  -1.294  0.8758E+00  0.2074E+02
  -1.284  0.8810E+00  0.2075E+02
  -1.274  0.8861E+00  0.2076E+02
  -1.264  0.8912E+00  0.2077E+02
  -1.254  0.8961E+00  0.2078E+02
  -1.244  0.9010E+00  0.2079E+02
  -1.234  0.9057E+00  0.2080E+02
  -1.224  0.9104E+00  0.2081E+02
  -1.214  0.9150E+00  0.2082E+02
  -1.204  0.9194E+00  0.2083E+02
  -1.194  0.9238E+00  0.2083E+02
  -1.184  0.9280E+00  0.2084E+02
  -1.174  0.9321E+00  0.2085E+02
  -1.164  0.9361E+00  0.2086E+02
  -1.154  0.9400E+00  0.2087E+02
  -1.144  0.9437E+00  0.2088E+02
  -1.134  0.9473E+00  0.2089E+02
  -1.124  0.9507E+00  0.2090E+02
  -1.114  0.9540E+00  0.2091E+02
  -1.104  0.9572E+00  0.2092E+02
  -1.094  0.9602E+00  0.2093E+02
  -1.084  0.9630E+00  0.2094E+02
  -1.074  0.9657E+00  0.2095E+02
  -1.064  0.9682E+00  0.2096E+02
  -1.054  0.9706E+00  0.2097E+02
  -1.044  0.9728E+00  0.2098E+02
  -1.034  0.9748E+00  0.2099E+02
  -1.024  0.9767E+00  0.2100E+02
  -1.014  0.9784E+00  0.2101E+02
  -1.004  0.9799E+00  0.2102E+02
  -0.994  0.9812E+00  0.2103E+02
  -0.984  0.9824E+00  0.2104E+02
  -0.974  0.9834E+00  0.2105E+02
  -0.964  0.9842E+00  0.2106E+02
  -0.954  0.9849E+00  0.2107E+02
  -0.944  0.9853E+00  0.2108E+02
  -0.934  0.9856E+00  0.2109E+02
  -0.924  0.9857E+00  0.2110E+02
  -0.914  0.9856E+00  0.2110E+02
  -0.904  0.9854E+00  0.2111E+02
  -0.894  0.9849E+00  0.2112E+02
  -0.884  0.9843E+00  0.2113E+02
  -0.874  0.9835E+00  0.2114E+02
  -0.864  0.9826E+00  0.2115E+02
  -0.854  0.9814E+00  0.2116E+02
  -0.844  0.9801E+00  0.2117E+02
  -0.834  0.9786E+00  0.2118E+02
  -0.824  0.9770E+00  0.2119E+02
  -0.814  0.9752E+00  0.2120E+02
  -0.804  0.9732E+00  0.2121E+02
  -0.794  0.9710E+00  0.2122E+02
  -0.784  0.9687E+00  0.2123E+02
  -0.774  0.9663E+00  0.2124E+02
  -0.764  0.9636E+00  0.2125E+02
  -0.754  0.9609E+00  0.2126E+02
  -0.744  0.9579E+00  0.2127E+02
  -0.734  0.9549E+00  0.2128E+02
  -0.724  0.9516E+00  0.2129E+02
  -0.714  0.9483E+00  0.2130E+02
  -0.704  0.9448E+00  0.2131E+02
  -0.694  0.9411E+00  0.2132E+02
  -0.684  0.9374E+00  0.2133E+02
  -0.674  0.9335E+00  0.2134E+02
  -0.664  0.9294E+00  0.2135E+02
  -0.654  0.9253E+00  0.2136E+02
  -0.644  0.9210E+00  0.2136E+02
  -0.634  0.9166E+00  0.2137E+02
  -0.624  0.9121E+00  0.2138E+02
  -0.614  0.9075E+00  0.2139E+02
  -0.604  0.9028E+00  0.2140E+02
  -0.594  0.8979E+00  0.2141E+02
  -0.584  0.8930E+00  0.2142E+02
  -0.574  0.8880E+00  0.2143E+02
  -0.564  0.8828E+00  0.2144E+02
  -0.554  0.8776E+00  0.2145E+02
  -0.544  0.8723E+00  0.2145E+02
  -0.534  0.8669E+00  0.2146E+02
  -0.524  0.8614E+00  0.2147E+02
  -0.514  0.8558E+00  0.2148E+02
  -0.504  0.8501E+00  0.2149E+02
  -0.494  0.8444E+00  0.2150E+02
  -0.484  0.8386E+00  0.2151E+02
  -0.474  0.8327E+00  0.2151E+02
  -0.464  0.8267E+00  0.2152E+02
  -0.454  0.8207E+00  0.2153E+02
  -0.444  0.8146E+00  0.2154E+02
  -0.434  0.8084E+00  0.2155E+02
  -0.424  0.8022E+00  0.2155E+02
  -0.414  0.7959E+00  0.2156E+02
  -0.404  0.7896E+00  0.2157E+02
  -0.394  0.7832E+00  0.2158E+02
  -0.384  0.7768E+00  0.2159E+02
  -0.374  0.7703E+00  0.2159E+02
  -0.364  0.7637E+00  0.2160E+02
  -0.354  0.7571E+00  0.2161E+02
  -0.344  0.7505E+00  0.2162E+02
  -0.334  0.7438E+00  0.2162E+02
  -0.324  0.7371E+00  0.2163E+02
  -0.314  0.7304E+00  0.2164E+02
  -0.304  0.7236E+00  0.2165E+02
  -0.294  0.7168E+00  0.2165E+02
  -0.284  0.7099E+00  0.2166E+02
  -0.274  0.7030E+00  0.2167E+02
  -0.264  0.6961E+00  0.2167E+02
  -0.254  0.6892E+00  0.2168E+02
  -0.244  0.6822E+00  0.2169E+02
  -0.234  0.6752E+00  0.2169E+02
  -0.224  0.6682E+00  0.2170E+02
  -0.214  0.6612E+00  0.2171E+02
  -0.204  0.6541E+00  0.2171E+02
  -0.194  0.6471E+00  0.2172E+02
  -0.184  0.6400E+00  0.2173E+02
  -0.174  0.6330E+00  0.2173E+02
  -0.164  0.6259E+00  0.2174E+02
  -0.154  0.6188E+00  0.2175E+02
  -0.144  0.6118E+00  0.2175E+02
  -0.134  0.6047E+00  0.2176E+02
  -0.124  0.5977E+00  0.2176E+02
  -0.114  0.5906E+00  0.2177E+02
  -0.104  0.5836E+00  0.2178E+02
  -0.094  0.5766E+00  0.2178E+02
  -0.084  0.5696E+00  0.2179E+02
  -0.074  0.5626E+00  0.2179E+02
  -0.064  0.5557E+00  0.2180E+02
  -0.054  0.5488E+00  0.2180E+02
  -0.044  0.5419E+00  0.2181E+02
  -0.034  0.5351E+00  0.2181E+02
  -0.024  0.5283E+00  0.2182E+02
  -0.014  0.5216E+00  0.2182E+02
  -0.004  0.5149E+00  0.2183E+02
   0.006  0.5083E+00  0.2184E+02
   0.016  0.5017E+00  0.2184E+02
   0.026  0.4952E+00  0.2185E+02
   0.036  0.4888E+00  0.2185E+02
   0.046  0.4824E+00  0.2185E+02
   0.056  0.4762E+00  0.2186E+02
   0.066  0.4700E+00  0.2186E+02
   0.076  0.4639E+00  0.2187E+02
   0.086  0.4579E+00  0.2187E+02
   0.096  0.4520E+00  0.2188E+02
   0.106  0.4462E+00  0.2188E+02
   0.116  0.4405E+00  0.2189E+02
   0.126  0.4349E+00  0.2189E+02
   0.136  0.4294E+00  0.2190E+02
   0.146  0.4241E+00  0.2190E+02
   0.156  0.4188E+00  0.2190E+02
   0.166  0.4137E+00  0.2191E+02
   0.176  0.4088E+00  0.2191E+02
   0.186  0.4040E+00  0.2192E+02
   0.196  0.3993E+00  0.2192E+02
   0.206  0.3948E+00  0.2192E+02
   0.216  0.3904E+00  0.2193E+02
   0.226  0.3862E+00  0.2193E+02
   0.236  0.3822E+00  0.2194E+02
   0.246  0.3783E+00  0.2194E+02
   0.256  0.3746E+00  0.2194E+02
   0.266  0.3711E+00  0.2195E+02
   0.276  0.3678E+00  0.2195E+02
   0.286  0.3646E+00  0.2195E+02
   0.296  0.3616E+00  0.2196E+02
   0.306  0.3588E+00  0.2196E+02
   0.316  0.3562E+00  0.2197E+02
   0.326  0.3538E+00  0.2197E+02
   0.336  0.3516E+00  0.2197E+02
   0.346  0.3496E+00  0.2198E+02
   0.356  0.3478E+00  0.2198E+02
   0.366  0.3462E+00  0.2198E+02
   0.376  0.3447E+00  0.2199E+02
   0.386  0.3435E+00  0.2199E+02
   0.396  0.3426E+00  0.2199E+02
   0.406  0.3418E+00  0.2200E+02
   0.416  0.3412E+00  0.2200E+02
   0.426  0.3408E+00  0.2200E+02
   0.436  0.3407E+00  0.2201E+02
   0.446  0.3407E+00  0.2201E+02
   0.456  0.3410E+00  0.2201E+02
   0.466  0.3415E+00  0.2202E+02
   0.476  0.3422E+00  0.2202E+02
   0.486  0.3431E+00  0.2202E+02
   0.496  0.3442E+00  0.2203E+02
   0.506  0.3455E+00  0.2203E+02
   0.516  0.3470E+00  0.2203E+02
   0.526  0.3487E+00  0.2204E+02
   0.536  0.3506E+00  0.2204E+02
   0.546  0.3527E+00  0.2204E+02
   0.556  0.3551E+00  0.2205E+02
   0.566  0.3576E+00  0.2205E+02
   0.576  0.3603E+00  0.2206E+02
   0.586  0.3632E+00  0.2206E+02
   0.596  0.3663E+00  0.2206E+02
   0.606  0.3695E+00  0.2207E+02
   0.616  0.3730E+00  0.2207E+02
   0.626  0.3766E+00  0.2207E+02
   0.636  0.3804E+00  0.2208E+02
   0.646  0.3844E+00  0.2208E+02
   0.656  0.3885E+00  0.2209E+02
   0.666  0.3928E+00  0.2209E+02
   0.676  0.3973E+00  0.2209E+02
   0.686  0.4020E+00  0.2210E+02
   0.696  0.4067E+00  0.2210E+02
   0.706  0.4117E+00  0.2211E+02
   0.716  0.4167E+00  0.2211E+02
   0.726  0.4220E+00  0.2211E+02
   0.736  0.4273E+00  0.2212E+02
   0.746  0.4328E+00  0.2212E+02
   0.756  0.4384E+00  0.2213E+02
   0.766  0.4442E+00  0.2213E+02
   0.776  0.4501E+00  0.2214E+02
   0.786  0.4561E+00  0.2214E+02
   0.796  0.4622E+00  0.2214E+02
   0.806  0.4684E+00  0.2215E+02
   0.816  0.4747E+00  0.2215E+02
   0.826  0.4811E+00  0.2216E+02
   0.836  0.4877E+00  0.2216E+02
   0.846  0.4943E+00  0.2217E+02
   0.856  0.5010E+00  0.2217E+02
   0.866  0.5078E+00  0.2218E+02
   0.876  0.5147E+00  0.2218E+02
   0.886  0.5216E+00  0.2219E+02
   0.896  0.5286E+00  0.2219E+02
   0.906  0.5357E+00  0.2220E+02
   0.916  0.5429E+00  0.2221E+02
   0.926  0.5501E+00  0.2221E+02
   0.936  0.5574E+00  0.2222E+02
   0.946  0.5648E+00  0.2222E+02
   0.956  0.5722E+00  0.2223E+02
   0.966  0.5796E+00  0.2223E+02
   0.976  0.5871E+00  0.2224E+02
   0.986  0.5946E+00  0.2225E+02
   0.996  0.6022E+00  0.2225E+02
   1.006  0.6097E+00  0.2226E+02
   1.016  0.6173E+00  0.2226E+02
   1.026  0.6250E+00  0.2227E+02
   1.036  0.6326E+00  0.2228E+02
   1.046  0.6403E+00  0.2228E+02
   1.056  0.6479E+00  0.2229E+02
   1.066  0.6556E+00  0.2230E+02
   1.076  0.6633E+00  0.2230E+02
   1.086  0.6709E+00  0.2231E+02
   1.096  0.6785E+00  0.2232E+02
   1.106  0.6862E+00  0.2232E+02
   1.116  0.6938E+00  0.2233E+02
   1.126  0.7013E+00  0.2234E+02
   1.136  0.7089E+00  0.2234E+02
   1.146  0.7163E+00  0.2235E+02
   1.156  0.7238E+00  0.2236E+02
   1.166  0.7312E+00  0.2237E+02
   1.176  0.7385E+00  0.2237E+02
   1.186  0.7458E+00  0.2238E+02
   1.196  0.7530E+00  0.2239E+02
   1.206  0.7601E+00  0.2240E+02
   1.216  0.7672E+00  0.2240E+02
   1.226  0.7742E+00  0.2241E+02
   1.236  0.7810E+00  0.2242E+02
   1.246  0.7878E+00  0.2243E+02
   1.256  0.7945E+00  0.2243E+02
   1.266  0.8010E+00  0.2244E+02
   1.276  0.8074E+00  0.2245E+02
   1.286  0.8137E+00  0.2246E+02
   1.296  0.8199E+00  0.2247E+02
   1.306  0.8260E+00  0.2248E+02
   1.316  0.8318E+00  0.2248E+02
   1.326  0.8376E+00  0.2249E+02
   1.336  0.8431E+00  0.2250E+02
   1.346  0.8486E+00  0.2251E+02
   1.356  0.8538E+00  0.2252E+02
   1.366  0.8589E+00  0.2253E+02
   1.376  0.8637E+00  0.2253E+02
   1.386  0.8684E+00  0.2254E+02
   1.396  0.8729E+00  0.2255E+02
   1.406  0.8772E+00  0.2256E+02
   1.416  0.8813E+00  0.2257E+02
   1.426  0.8852E+00  0.2258E+02
   1.436  0.8889E+00  0.2259E+02
   1.446  0.8923E+00  0.2260E+02
   1.456  0.8956E+00  0.2261E+02
   1.466  0.8986E+00  0.2261E+02
   1.476  0.9013E+00  0.2262E+02
   1.486  0.9039E+00  0.2263E+02
   1.496  0.9061E+00  0.2264E+02
   1.506  0.9082E+00  0.2265E+02
   1.516  0.9100E+00  0.2266E+02
   1.526  0.9116E+00  0.2267E+02
   1.536  0.9129E+00  0.2268E+02
   1.546  0.9140E+00  0.2269E+02
   1.556  0.9148E+00  0.2270E+02
   1.566  0.9153E+00  0.2271E+02
   1.576  0.9157E+00  0.2271E+02
   1.586  0.9157E+00  0.2272E+02
   1.596  0.9155E+00  0.2273E+02
   1.606  0.9151E+00  0.2274E+02
   1.616  0.9144E+00  0.2275E+02
   1.626  0.9135E+00  0.2276E+02
   1.636  0.9123E+00  0.2277E+02
   1.646  0.9109E+00  0.2278E+02
   1.656  0.9093E+00  0.2279E+02
   1.666  0.9074E+00  0.2280E+02
   1.676  0.9052E+00  0.2281E+02
   1.686  0.9029E+00  0.2281E+02
   1.696  0.9003E+00  0.2282E+02
   1.706  0.8975E+00  0.2283E+02
   1.716  0.8945E+00  0.2284E+02
   1.726  0.8913E+00  0.2285E+02
   1.736  0.8879E+00  0.2286E+02
   1.746  0.8843E+00  0.2287E+02
   1.756  0.8805E+00  0.2288E+02
   1.766  0.8765E+00  0.2289E+02
   1.776  0.8723E+00  0.2289E+02
   1.786  0.8679E+00  0.2290E+02
   1.796  0.8634E+00  0.2291E+02
   1.806  0.8587E+00  0.2292E+02
   1.816  0.8539E+00  0.2293E+02
   1.826  0.8489E+00  0.2294E+02
   1.836  0.8438E+00  0.2295E+02
   1.846  0.8386E+00  0.2295E+02
   1.856  0.8332E+00  0.2296E+02
   1.866  0.8277E+00  0.2297E+02
   1.876  0.8221E+00  0.2298E+02
   1.886  0.8164E+00  0.2299E+02
   1.896  0.8106E+00  0.2300E+02
   1.906  0.8047E+00  0.2300E+02
   1.916  0.7988E+00  0.2301E+02
   1.926  0.7927E+00  0.2302E+02
   1.936  0.7866E+00  0.2303E+02
   1.946  0.7805E+00  0.2303E+02
   1.956  0.7743E+00  0.2304E+02
   1.966  0.7680E+00  0.2305E+02
   1.976  0.7617E+00  0.2306E+02
   1.986  0.7554E+00  0.2307E+02
   1.996  0.7490E+00  0.2307E+02
   2.006  0.7427E+00  0.2308E+02
   2.016  0.7363E+00  0.2309E+02
   2.026  0.7299E+00  0.2310E+02
   2.036  0.7235E+00  0.2310E+02
   2.046  0.7171E+00  0.2311E+02
   2.056  0.7107E+00  0.2312E+02
   2.066  0.7043E+00  0.2312E+02
   2.076  0.6979E+00  0.2313E+02
   2.086  0.6916E+00  0.2314E+02
   2.096  0.6853E+00  0.2314E+02
   2.106  0.6790E+00  0.2315E+02
   2.116  0.6727E+00  0.2316E+02
   2.126  0.6665E+00  0.2316E+02
   2.136  0.6603E+00  0.2317E+02
   2.146  0.6542E+00  0.2318E+02
   2.156  0.6481E+00  0.2318E+02
   2.166  0.6420E+00  0.2319E+02
   2.176  0.6360E+00  0.2320E+02
   2.186  0.6301E+00  0.2320E+02
   2.196  0.6242E+00  0.2321E+02
   2.206  0.6184E+00  0.2322E+02
   2.216  0.6126E+00  0.2322E+02
   2.226  0.6069E+00  0.2323E+02
   2.236  0.6013E+00  0.2323E+02
   2.246  0.5957E+00  0.2324E+02
   2.256  0.5902E+00  0.2325E+02
   2.266  0.5847E+00  0.2325E+02
   2.276  0.5793E+00  0.2326E+02
   2.286  0.5740E+00  0.2326E+02
   2.296  0.5688E+00  0.2327E+02
   2.306  0.5636E+00  0.2327E+02
   2.316  0.5585E+00  0.2328E+02
   2.326  0.5534E+00  0.2329E+02
   2.336  0.5484E+00  0.2329E+02
   2.346  0.5435E+00  0.2330E+02
   2.356  0.5387E+00  0.2330E+02
   2.366  0.5339E+00  0.2331E+02
   2.376  0.5292E+00  0.2331E+02
   2.386  0.5246E+00  0.2332E+02
   2.396  0.5200E+00  0.2332E+02
   2.406  0.5155E+00  0.2333E+02
   2.416  0.5111E+00  0.2333E+02
   2.426  0.5067E+00  0.2334E+02
   2.436  0.5024E+00  0.2334E+02
   2.446  0.4981E+00  0.2335E+02
   2.456  0.4939E+00  0.2335E+02
   2.466  0.4898E+00  0.2336E+02
   2.476  0.4857E+00  0.2336E+02
   2.486  0.4817E+00  0.2337E+02
   2.496  0.4777E+00  0.2337E+02
   2.506  0.4738E+00  0.2338E+02
   2.516  0.4700E+00  0.2338E+02
   2.526  0.4662E+00  0.2339E+02
   2.536  0.4625E+00  0.2339E+02
   2.546  0.4588E+00  0.2340E+02
   2.556  0.4551E+00  0.2340E+02
   2.566  0.4515E+00  0.2341E+02
   2.576  0.4480E+00  0.2341E+02
   2.586  0.4445E+00  0.2341E+02
   2.596  0.4410E+00  0.2342E+02
   2.606  0.4376E+00  0.2342E+02
   2.616  0.4342E+00  0.2343E+02
   2.626  0.4309E+00  0.2343E+02
   2.636  0.4276E+00  0.2344E+02
   2.646  0.4244E+00  0.2344E+02
   2.656  0.4212E+00  0.2344E+02
   2.666  0.4180E+00  0.2345E+02
   2.676  0.4148E+00  0.2345E+02
   2.686  0.4117E+00  0.2346E+02
   2.696  0.4087E+00  0.2346E+02
   2.706  0.4056E+00  0.2346E+02
   2.716  0.4026E+00  0.2347E+02
   2.726  0.3996E+00  0.2347E+02
   2.736  0.3967E+00  0.2348E+02
   2.746  0.3938E+00  0.2348E+02
   2.756  0.3909E+00  0.2348E+02
   2.766  0.3880E+00  0.2349E+02
   2.776  0.3852E+00  0.2349E+02
   2.786  0.3824E+00  0.2350E+02
   2.796  0.3796E+00  0.2350E+02
   2.806  0.3769E+00  0.2350E+02
   2.816  0.3741E+00  0.2351E+02
   2.826  0.3714E+00  0.2351E+02
   2.836  0.3688E+00  0.2351E+02
   2.846  0.3661E+00  0.2352E+02
   2.856  0.3635E+00  0.2352E+02
   2.866  0.3609E+00  0.2353E+02
   2.876  0.3583E+00  0.2353E+02
   2.886  0.3558E+00  0.2353E+02
   2.896  0.3532E+00  0.2354E+02
   2.906  0.3507E+00  0.2354E+02
   2.916  0.3483E+00  0.2354E+02
   2.926  0.3458E+00  0.2355E+02
   2.936  0.3434E+00  0.2355E+02
   2.946  0.3410E+00  0.2355E+02
   2.956  0.3386E+00  0.2356E+02
   2.966  0.3362E+00  0.2356E+02
   2.976  0.3339E+00  0.2356E+02
   2.986  0.3316E+00  0.2357E+02
   2.996  0.3293E+00  0.2357E+02
   3.006  0.3270E+00  0.2357E+02
   3.016  0.3248E+00  0.2358E+02
   3.026  0.3225E+00  0.2358E+02
   3.036  0.3203E+00  0.2358E+02
   3.046  0.3182E+00  0.2359E+02
   3.056  0.3160E+00  0.2359E+02
   3.066  0.3139E+00  0.2359E+02
   3.076  0.3118E+00  0.2360E+02
   3.086  0.3097E+00  0.2360E+02
   3.096  0.3076E+00  0.2360E+02
   3.106  0.3055E+00  0.2361E+02
   3.116  0.3035E+00  0.2361E+02
   3.126  0.3015E+00  0.2361E+02
   3.136  0.2995E+00  0.2361E+02
   3.146  0.2975E+00  0.2362E+02
   3.156  0.2956E+00  0.2362E+02
   3.166  0.2936E+00  0.2362E+02
   3.176  0.2917E+00  0.2363E+02
   3.186  0.2898E+00  0.2363E+02
   3.196  0.2879E+00  0.2363E+02
   3.206  0.2861E+00  0.2363E+02
   3.216  0.2842E+00  0.2364E+02
   3.226  0.2824E+00  0.2364E+02
   3.236  0.2806E+00  0.2364E+02
   3.246  0.2788E+00  0.2365E+02
   3.256  0.2770E+00  0.2365E+02
   3.266  0.2752E+00  0.2365E+02
   3.276  0.2734E+00  0.2365E+02
   3.286  0.2717E+00  0.2366E+02
   3.296  0.2699E+00  0.2366E+02
   3.306  0.2682E+00  0.2366E+02
   3.316  0.2665E+00  0.2366E+02
   3.326  0.2648E+00  0.2367E+02
   3.336  0.2631E+00  0.2367E+02
   3.346  0.2614E+00  0.2367E+02
   3.356  0.2597E+00  0.2368E+02
   3.366  0.2581E+00  0.2368E+02
   3.376  0.2564E+00  0.2368E+02
   3.386  0.2548E+00  0.2368E+02
   3.396  0.2532E+00  0.2369E+02
   3.406  0.2516E+00  0.2369E+02
   3.416  0.2500E+00  0.2369E+02
   3.426  0.2484E+00  0.2369E+02
   3.436  0.2469E+00  0.2370E+02
   3.446  0.2453E+00  0.2370E+02
   3.456  0.2438E+00  0.2370E+02
   3.466  0.2423E+00  0.2370E+02
   3.476  0.2408E+00  0.2371E+02
   3.486  0.2393E+00  0.2371E+02
   3.496  0.2379E+00  0.2371E+02
   3.506  0.2365E+00  0.2371E+02
   3.516  0.2351E+00  0.2371E+02
   3.526  0.2337E+00  0.2372E+02
   3.536  0.2324E+00  0.2372E+02
   3.546  0.2311E+00  0.2372E+02
   3.556  0.2298E+00  0.2372E+02
   3.566  0.2286E+00  0.2373E+02
   3.576  0.2274E+00  0.2373E+02
   3.586  0.2262E+00  0.2373E+02
   3.596  0.2251E+00  0.2373E+02
   3.606  0.2240E+00  0.2374E+02
   3.616  0.2230E+00  0.2374E+02
   3.626  0.2221E+00  0.2374E+02
   3.636  0.2211E+00  0.2374E+02
   3.646  0.2203E+00  0.2374E+02
   3.656  0.2195E+00  0.2375E+02
   3.666  0.2188E+00  0.2375E+02
   3.676  0.2181E+00  0.2375E+02
   3.686  0.2175E+00  0.2375E+02
   3.696  0.2170E+00  0.2376E+02
   3.706  0.2166E+00  0.2376E+02
   3.716  0.2163E+00  0.2376E+02
   3.726  0.2160E+00  0.2376E+02
   3.736  0.2159E+00  0.2376E+02
   3.746  0.2159E+00  0.2377E+02
   3.756  0.2159E+00  0.2377E+02
   3.766  0.2161E+00  0.2377E+02
   3.776  0.2163E+00  0.2377E+02
   3.786  0.2167E+00  0.2377E+02
   3.796  0.2173E+00  0.2378E+02
   3.806  0.2179E+00  0.2378E+02
   3.816  0.2187E+00  0.2378E+02
   3.826  0.2196E+00  0.2378E+02
   3.836  0.2207E+00  0.2379E+02
   3.846  0.2219E+00  0.2379E+02
   3.856  0.2233E+00  0.2379E+02
   3.866  0.2248E+00  0.2379E+02
   3.876  0.2265E+00  0.2379E+02
   3.886  0.2284E+00  0.2380E+02
   3.896  0.2304E+00  0.2380E+02
   3.906  0.2327E+00  0.2380E+02
   3.916  0.2351E+00  0.2380E+02
   3.926  0.2377E+00  0.2381E+02
   3.936  0.2406E+00  0.2381E+02
   3.946  0.2436E+00  0.2381E+02
   3.956  0.2468E+00  0.2381E+02
   3.966  0.2503E+00  0.2382E+02
   3.976  0.2540E+00  0.2382E+02
   3.986  0.2579E+00  0.2382E+02
   3.996  0.2621E+00  0.2382E+02
   4.006  0.2665E+00  0.2383E+02
   4.016  0.2712E+00  0.2383E+02
   4.026  0.2761E+00  0.2383E+02
   4.036  0.2812E+00  0.2383E+02
   4.046  0.2867E+00  0.2384E+02
   4.056  0.2924E+00  0.2384E+02
   4.066  0.2983E+00  0.2384E+02
   4.076  0.3046E+00  0.2385E+02
   4.086  0.3111E+00  0.2385E+02
   4.096  0.3179E+00  0.2385E+02
   4.106  0.3250E+00  0.2386E+02
   4.116  0.3323E+00  0.2386E+02
   4.126  0.3400E+00  0.2386E+02
   4.136  0.3479E+00  0.2387E+02
   4.146  0.3562E+00  0.2387E+02
   4.156  0.3647E+00  0.2387E+02
   4.166  0.3735E+00  0.2388E+02
   4.176  0.3827E+00  0.2388E+02
   4.186  0.3921E+00  0.2388E+02
   4.196  0.4018E+00  0.2389E+02
   4.206  0.4118E+00  0.2389E+02
   4.216  0.4221E+00  0.2390E+02
   4.226  0.4327E+00  0.2390E+02
   4.236  0.4436E+00  0.2391E+02
   4.246  0.4547E+00  0.2391E+02
   4.256  0.4662E+00  0.2392E+02
   4.266  0.4779E+00  0.2392E+02
   4.276  0.4898E+00  0.2392E+02
   4.286  0.5021E+00  0.2393E+02
   4.296  0.5146E+00  0.2394E+02
   4.306  0.5273E+00  0.2394E+02
   4.316  0.5403E+00  0.2395E+02
   4.326  0.5535E+00  0.2395E+02
   4.336  0.5670E+00  0.2396E+02
   4.346  0.5807E+00  0.2396E+02
   4.356  0.5945E+00  0.2397E+02
   4.366  0.6086E+00  0.2397E+02
   4.376  0.6229E+00  0.2398E+02
   4.386  0.6373E+00  0.2399E+02
   4.396  0.6519E+00  0.2399E+02
   4.406  0.6666E+00  0.2400E+02
   4.416  0.6815E+00  0.2401E+02
   4.426  0.6966E+00  0.2401E+02
   4.436  0.7117E+00  0.2402E+02
   4.446  0.7269E+00  0.2403E+02
   4.456  0.7423E+00  0.2404E+02
   4.466  0.7577E+00  0.2404E+02
   4.476  0.7731E+00  0.2405E+02
   4.486  0.7886E+00  0.2406E+02
   4.496  0.8042E+00  0.2407E+02
   4.506  0.8197E+00  0.2408E+02
   4.516  0.8353E+00  0.2408E+02
   4.526  0.8508E+00  0.2409E+02
   4.536  0.8664E+00  0.2410E+02
   4.546  0.8819E+00  0.2411E+02
   4.556  0.8973E+00  0.2412E+02
   4.566  0.9127E+00  0.2413E+02
   4.576  0.9280E+00  0.2414E+02
   4.586  0.9432E+00  0.2415E+02
   4.596  0.9583E+00  0.2416E+02
   4.606  0.9733E+00  0.2417E+02
   4.616  0.9881E+00  0.2418E+02
   4.626  0.1003E+01  0.2419E+02
   4.636  0.1017E+01  0.2420E+02
   4.646  0.1032E+01  0.2421E+02
   4.656  0.1046E+01  0.2422E+02
   4.666  0.1060E+01  0.2423E+02
   4.676  0.1074E+01  0.2424E+02
   4.686  0.1088E+01  0.2425E+02
   4.696  0.1101E+01  0.2426E+02
   4.706  0.1114E+01  0.2427E+02
   4.716  0.1127E+01  0.2428E+02
   4.726  0.1140E+01  0.2429E+02
   4.736  0.1153E+01  0.2431E+02
   4.746  0.1165E+01  0.2432E+02
   4.756  0.1177E+01  0.2433E+02
   4.766  0.1189E+01  0.2434E+02
   4.776  0.1201E+01  0.2435E+02
   4.786  0.1212E+01  0.2436E+02
   4.796  0.1223E+01  0.2438E+02
   4.806  0.1234E+01  0.2439E+02
   4.816  0.1245E+01  0.2440E+02
   4.826  0.1255E+01  0.2441E+02
   4.836  0.1265E+01  0.2443E+02
   4.846  0.1275E+01  0.2444E+02
   4.856  0.1285E+01  0.2445E+02
   4.866  0.1294E+01  0.2447E+02
   4.876  0.1304E+01  0.2448E+02
   4.886  0.1313E+01  0.2449E+02
   4.896  0.1321E+01  0.2451E+02
   4.906  0.1330E+01  0.2452E+02
   4.916  0.1338E+01  0.2453E+02
   4.926  0.1346E+01  0.2455E+02
   4.936  0.1354E+01  0.2456E+02
   4.946  0.1362E+01  0.2457E+02
   4.956  0.1369E+01  0.2459E+02
   4.966  0.1377E+01  0.2460E+02
   4.976  0.1384E+01  0.2461E+02
   4.986  0.1391E+01  0.2463E+02
   4.996  0.1398E+01  0.2464E+02
   5.006  0.1405E+01  0.2466E+02
   5.016  0.1411E+01  0.2467E+02
   5.026  0.1418E+01  0.2468E+02
   5.036  0.1424E+01  0.2470E+02
   5.046  0.1430E+01  0.2471E+02
   5.056  0.1436E+01  0.2473E+02
   5.066  0.1442E+01  0.2474E+02
   5.076  0.1448E+01  0.2476E+02
   5.086  0.1454E+01  0.2477E+02
   5.096  0.1459E+01  0.2478E+02
   5.106  0.1465E+01  0.2480E+02
   5.116  0.1470E+01  0.2481E+02
   5.126  0.1476E+01  0.2483E+02
   5.136  0.1481E+01  0.2484E+02
   5.146  0.1487E+01  0.2486E+02
   5.156  0.1492E+01  0.2487E+02
   5.166  0.1497E+01  0.2489E+02
   5.176  0.1502E+01  0.2490E+02
   5.186  0.1507E+01  0.2492E+02
   5.196  0.1512E+01  0.2493E+02
   5.206  0.1517E+01  0.2495E+02
   5.216  0.1522E+01  0.2496E+02
   5.226  0.1527E+01  0.2498E+02
   5.236  0.1532E+01  0.2499E+02
   5.246  0.1537E+01  0.2501E+02
   5.256  0.1542E+01  0.2503E+02
   5.266  0.1547E+01  0.2504E+02
   5.276  0.1552E+01  0.2506E+02
   5.286  0.1557E+01  0.2507E+02
   5.296  0.1561E+01  0.2509E+02
   5.306  0.1566E+01  0.2510E+02
   5.316  0.1571E+01  0.2512E+02
   5.326  0.1575E+01  0.2513E+02
   5.336  0.1580E+01  0.2515E+02
   5.346  0.1584E+01  0.2517E+02
   5.356  0.1589E+01  0.2518E+02
   5.366  0.1593E+01  0.2520E+02
   5.376  0.1598E+01  0.2521E+02
   5.386  0.1602E+01  0.2523E+02
   5.396  0.1606E+01  0.2525E+02
   5.406  0.1611E+01  0.2526E+02
   5.416  0.1615E+01  0.2528E+02
   5.426  0.1619E+01  0.2529E+02
   5.436  0.1623E+01  0.2531E+02
   5.446  0.1627E+01  0.2533E+02
   5.456  0.1631E+01  0.2534E+02
   5.466  0.1635E+01  0.2536E+02
   5.476  0.1638E+01  0.2538E+02
   5.486  0.1642E+01  0.2539E+02
   5.496  0.1645E+01  0.2541E+02
   5.506  0.1649E+01  0.2543E+02
   5.516  0.1652E+01  0.2544E+02
   5.526  0.1655E+01  0.2546E+02
   5.536  0.1658E+01  0.2548E+02
   5.546  0.1661E+01  0.2549E+02
   5.556  0.1664E+01  0.2551E+02
   5.566  0.1666E+01  0.2553E+02
   5.576  0.1669E+01  0.2554E+02
   5.586  0.1671E+01  0.2556E+02
   5.596  0.1673E+01  0.2558E+02
   5.606  0.1675E+01  0.2559E+02
   5.616  0.1677E+01  0.2561E+02
   5.626  0.1679E+01  0.2563E+02
   5.636  0.1681E+01  0.2564E+02
   5.646  0.1682E+01  0.2566E+02
   5.656  0.1683E+01  0.2568E+02
   5.666  0.1684E+01  0.2569E+02
   5.676  0.1685E+01  0.2571E+02
   5.686  0.1686E+01  0.2573E+02
   5.696  0.1687E+01  0.2574E+02
   5.706  0.1687E+01  0.2576E+02
   5.716  0.1687E+01  0.2578E+02
   5.726  0.1688E+01  0.2579E+02
   5.736  0.1687E+01  0.2581E+02
   5.746  0.1687E+01  0.2583E+02
   5.756  0.1687E+01  0.2584E+02
   5.766  0.1686E+01  0.2586E+02
   5.776  0.1686E+01  0.2588E+02
   5.786  0.1685E+01  0.2590E+02
   5.796  0.1684E+01  0.2591E+02
   5.806  0.1683E+01  0.2593E+02
   5.816  0.1681E+01  0.2595E+02
   5.826  0.1680E+01  0.2596E+02
   5.836  0.1678E+01  0.2598E+02
   5.846  0.1677E+01  0.2600E+02
   5.856  0.1675E+01  0.2601E+02
   5.866  0.1673E+01  0.2603E+02
   5.876  0.1671E+01  0.2605E+02
   5.886  0.1668E+01  0.2606E+02
   5.896  0.1666E+01  0.2608E+02
   5.906  0.1664E+01  0.2610E+02
   5.916  0.1661E+01  0.2611E+02
   5.926  0.1658E+01  0.2613E+02
   5.936  0.1655E+01  0.2615E+02
   5.946  0.1653E+01  0.2616E+02
   5.956  0.1650E+01  0.2618E+02
   5.966  0.1646E+01  0.2620E+02
   5.976  0.1643E+01  0.2621E+02
   5.986  0.1640E+01  0.2623E+02
   5.996  0.1637E+01  0.2624E+02
   6.006  0.1633E+01  0.2626E+02
   6.016  0.1630E+01  0.2628E+02
   6.026  0.1626E+01  0.2629E+02
   6.036  0.1622E+01  0.2631E+02
   6.046  0.1618E+01  0.2633E+02
   6.056  0.1615E+01  0.2634E+02
   6.066  0.1611E+01  0.2636E+02
   6.076  0.1607E+01  0.2637E+02
   6.086  0.1603E+01  0.2639E+02
   6.096  0.1599E+01  0.2641E+02
   6.106  0.1595E+01  0.2642E+02
   6.116  0.1590E+01  0.2644E+02
   6.126  0.1586E+01  0.2645E+02
   6.136  0.1582E+01  0.2647E+02
   6.146  0.1577E+01  0.2649E+02
   6.156  0.1573E+01  0.2650E+02
   6.166  0.1568E+01  0.2652E+02
   6.176  0.1564E+01  0.2653E+02
   6.186  0.1559E+01  0.2655E+02
   6.196  0.1555E+01  0.2656E+02
   6.206  0.1550E+01  0.2658E+02
   6.216  0.1545E+01  0.2659E+02
   6.226  0.1540E+01  0.2661E+02
   6.236  0.1535E+01  0.2663E+02
   6.246  0.1530E+01  0.2664E+02
   6.256  0.1525E+01  0.2666E+02
   6.266  0.1520E+01  0.2667E+02
   6.276  0.1515E+01  0.2669E+02
   6.286  0.1510E+01  0.2670E+02
   6.296  0.1504E+01  0.2672E+02
   6.306  0.1499E+01  0.2673E+02
   6.316  0.1493E+01  0.2675E+02
   6.326  0.1488E+01  0.2676E+02
   6.336  0.1482E+01  0.2678E+02
   6.346  0.1476E+01  0.2679E+02
   6.356  0.1470E+01  0.2681E+02
   6.366  0.1464E+01  0.2682E+02
   6.376  0.1458E+01  0.2684E+02
   6.386  0.1452E+01  0.2685E+02
   6.396  0.1446E+01  0.2686E+02
   6.406  0.1439E+01  0.2688E+02
   6.416  0.1433E+01  0.2689E+02
   6.426  0.1426E+01  0.2691E+02
   6.436  0.1419E+01  0.2692E+02
   6.446  0.1412E+01  0.2694E+02
   6.456  0.1405E+01  0.2695E+02
   6.466  0.1398E+01  0.2696E+02
   6.476  0.1391E+01  0.2698E+02
   6.486  0.1384E+01  0.2699E+02
   6.496  0.1376E+01  0.2700E+02
   6.506  0.1369E+01  0.2702E+02
   6.516  0.1361E+01  0.2703E+02
   6.526  0.1353E+01  0.2705E+02
   6.536  0.1345E+01  0.2706E+02
   6.546  0.1337E+01  0.2707E+02
   6.556  0.1328E+01  0.2709E+02
   6.566  0.1320E+01  0.2710E+02
   6.576  0.1311E+01  0.2711E+02
   6.586  0.1303E+01  0.2713E+02
   6.596  0.1294E+01  0.2714E+02
   6.606  0.1285E+01  0.2715E+02
   6.616  0.1276E+01  0.2716E+02
   6.626  0.1267E+01  0.2718E+02
   6.636  0.1257E+01  0.2719E+02
   6.646  0.1248E+01  0.2720E+02
   6.656  0.1238E+01  0.2721E+02
   6.666  0.1229E+01  0.2723E+02
   6.676  0.1219E+01  0.2724E+02
   6.686  0.1209E+01  0.2725E+02
   6.696  0.1199E+01  0.2726E+02
   6.706  0.1189E+01  0.2727E+02
   6.716  0.1178E+01  0.2729E+02
   6.726  0.1168E+01  0.2730E+02
   6.736  0.1157E+01  0.2731E+02
   6.746  0.1147E+01  0.2732E+02
   6.756  0.1136E+01  0.2733E+02
   6.766  0.1125E+01  0.2734E+02
   6.776  0.1115E+01  0.2735E+02
   6.786  0.1104E+01  0.2737E+02
   6.796  0.1093E+01  0.2738E+02
   6.806  0.1082E+01  0.2739E+02
   6.816  0.1070E+01  0.2740E+02
   6.826  0.1059E+01  0.2741E+02
   6.836  0.1048E+01  0.2742E+02
   6.846  0.1037E+01  0.2743E+02
   6.856  0.1025E+01  0.2744E+02
   6.866  0.1014E+01  0.2745E+02
   6.876  0.1002E+01  0.2746E+02
   6.886  0.9908E+00  0.2747E+02
   6.896  0.9793E+00  0.2748E+02
   6.906  0.9677E+00  0.2749E+02
   6.916  0.9561E+00  0.2750E+02
   6.926  0.9445E+00  0.2751E+02
   6.936  0.9329E+00  0.2752E+02
   6.946  0.9213E+00  0.2753E+02
   6.956  0.9097E+00  0.2754E+02
   6.966  0.8981E+00  0.2754E+02
   6.976  0.8865E+00  0.2755E+02
   6.986  0.8749E+00  0.2756E+02
   6.996  0.8634E+00  0.2757E+02
   7.006  0.8518E+00  0.2758E+02
   7.016  0.8403E+00  0.2759E+02
   7.026  0.8288E+00  0.2760E+02
   7.036  0.8174E+00  0.2760E+02
   7.046  0.8060E+00  0.2761E+02
   7.056  0.7946E+00  0.2762E+02
   7.066  0.7833E+00  0.2763E+02
   7.076  0.7720E+00  0.2764E+02
   7.086  0.7608E+00  0.2764E+02
   7.096  0.7497E+00  0.2765E+02
   7.106  0.7386E+00  0.2766E+02
   7.116  0.7276E+00  0.2767E+02
   7.126  0.7167E+00  0.2767E+02
   7.136  0.7058E+00  0.2768E+02
   7.146  0.6951E+00  0.2769E+02
   7.156  0.6844E+00  0.2769E+02
   7.166  0.6737E+00  0.2770E+02
   7.176  0.6632E+00  0.2771E+02
   7.186  0.6528E+00  0.2771E+02
   7.196  0.6424E+00  0.2772E+02
   7.206  0.6322E+00  0.2773E+02
   7.216  0.6220E+00  0.2773E+02
   7.226  0.6119E+00  0.2774E+02
   7.236  0.6020E+00  0.2774E+02
   7.246  0.5921E+00  0.2775E+02
   7.256  0.5823E+00  0.2776E+02
   7.266  0.5727E+00  0.2776E+02
   7.276  0.5631E+00  0.2777E+02
   7.286  0.5536E+00  0.2777E+02
   7.296  0.5443E+00  0.2778E+02
   7.306  0.5351E+00  0.2778E+02
   7.316  0.5259E+00  0.2779E+02
   7.326  0.5169E+00  0.2779E+02
   7.336  0.5080E+00  0.2780E+02
   7.346  0.4992E+00  0.2780E+02
   7.356  0.4905E+00  0.2781E+02
   7.366  0.4820E+00  0.2781E+02
   7.376  0.4735E+00  0.2782E+02
   7.386  0.4651E+00  0.2782E+02
   7.396  0.4569E+00  0.2783E+02
   7.406  0.4488E+00  0.2783E+02
   7.416  0.4408E+00  0.2784E+02
   7.426  0.4329E+00  0.2784E+02
   7.436  0.4251E+00  0.2785E+02
   7.446  0.4174E+00  0.2785E+02
   7.456  0.4099E+00  0.2785E+02
   7.466  0.4025E+00  0.2786E+02
   7.476  0.3951E+00  0.2786E+02
   7.486  0.3879E+00  0.2787E+02
   7.496  0.3808E+00  0.2787E+02
   7.506  0.3739E+00  0.2787E+02
   7.516  0.3670E+00  0.2788E+02
   7.526  0.3602E+00  0.2788E+02
   7.536  0.3536E+00  0.2788E+02
   7.546  0.3471E+00  0.2789E+02
   7.556  0.3407E+00  0.2789E+02
   7.566  0.3344E+00  0.2789E+02
   7.576  0.3282E+00  0.2790E+02
   7.586  0.3222E+00  0.2790E+02
   7.596  0.3163E+00  0.2790E+02
   7.606  0.3104E+00  0.2791E+02
   7.616  0.3047E+00  0.2791E+02
   7.626  0.2992E+00  0.2791E+02
   7.636  0.2937E+00  0.2792E+02
   7.646  0.2884E+00  0.2792E+02
   7.656  0.2832E+00  0.2792E+02
   7.666  0.2781E+00  0.2792E+02
   7.676  0.2731E+00  0.2793E+02
   7.686  0.2682E+00  0.2793E+02
   7.696  0.2635E+00  0.2793E+02
   7.706  0.2589E+00  0.2794E+02
   7.716  0.2544E+00  0.2794E+02
   7.726  0.2501E+00  0.2794E+02
   7.736  0.2459E+00  0.2794E+02
   7.746  0.2418E+00  0.2795E+02
   7.756  0.2378E+00  0.2795E+02
   7.766  0.2340E+00  0.2795E+02
   7.776  0.2303E+00  0.2795E+02
   7.786  0.2268E+00  0.2795E+02
   7.796  0.2234E+00  0.2796E+02
   7.806  0.2201E+00  0.2796E+02
   7.816  0.2170E+00  0.2796E+02
   7.826  0.2140E+00  0.2796E+02
   7.836  0.2111E+00  0.2797E+02
   7.846  0.2084E+00  0.2797E+02
   7.856  0.2059E+00  0.2797E+02
   7.866  0.2035E+00  0.2797E+02
   7.876  0.2012E+00  0.2797E+02
   7.886  0.1991E+00  0.2798E+02
   7.896  0.1972E+00  0.2798E+02
   7.906  0.1954E+00  0.2798E+02
   7.916  0.1938E+00  0.2798E+02
   7.926  0.1923E+00  0.2798E+02
   7.936  0.1910E+00  0.2799E+02
   7.946  0.1898E+00  0.2799E+02
   7.956  0.1889E+00  0.2799E+02
   7.966  0.1881E+00  0.2799E+02
   7.976  0.1874E+00  0.2799E+02
   7.986  0.1870E+00  0.2799E+02
   7.996  0.1867E+00  0.2800E+02
   8.006  0.1866E+00  0.2800E+02
   8.016  0.1867E+00  0.2800E+02
   8.026  0.1869E+00  0.2800E+02
   8.036  0.1874E+00  0.2800E+02
   8.046  0.1880E+00  0.2801E+02
   8.056  0.1888E+00  0.2801E+02
   8.066  0.1898E+00  0.2801E+02
   8.076  0.1910E+00  0.2801E+02
   8.086  0.1924E+00  0.2801E+02
   8.096  0.1940E+00  0.2802E+02
   8.106  0.1958E+00  0.2802E+02
   8.116  0.1978E+00  0.2802E+02
   8.126  0.1999E+00  0.2802E+02
   8.136  0.2023E+00  0.2802E+02
   8.146  0.2049E+00  0.2803E+02
   8.156  0.2077E+00  0.2803E+02
   8.166  0.2107E+00  0.2803E+02
   8.176  0.2139E+00  0.2803E+02
   8.186  0.2174E+00  0.2803E+02
   8.196  0.2210E+00  0.2804E+02
   8.206  0.2248E+00  0.2804E+02
   8.216  0.2289E+00  0.2804E+02
   8.226  0.2332E+00  0.2804E+02
   8.236  0.2377E+00  0.2805E+02
   8.246  0.2424E+00  0.2805E+02
   8.256  0.2473E+00  0.2805E+02
   8.266  0.2525E+00  0.2805E+02
   8.276  0.2579E+00  0.2806E+02
   8.286  0.2635E+00  0.2806E+02
   8.296  0.2693E+00  0.2806E+02
   8.306  0.2754E+00  0.2806E+02
   8.316  0.2817E+00  0.2807E+02
   8.326  0.2882E+00  0.2807E+02
   8.336  0.2949E+00  0.2807E+02
   8.346  0.3019E+00  0.2808E+02
   8.356  0.3091E+00  0.2808E+02
   8.366  0.3165E+00  0.2808E+02
   8.376  0.3242E+00  0.2808E+02
   8.386  0.3321E+00  0.2809E+02
   8.396  0.3403E+00  0.2809E+02
   8.406  0.3486E+00  0.2810E+02
   8.416  0.3573E+00  0.2810E+02
   8.426  0.3661E+00  0.2810E+02
   8.436  0.3752E+00  0.2811E+02
   8.446  0.3845E+00  0.2811E+02
   8.456  0.3941E+00  0.2811E+02
   8.466  0.4039E+00  0.2812E+02
   8.476  0.4140E+00  0.2812E+02
   8.486  0.4243E+00  0.2813E+02
   8.496  0.4348E+00  0.2813E+02
   8.506  0.4456E+00  0.2814E+02
   8.516  0.4566E+00  0.2814E+02
   8.526  0.4678E+00  0.2814E+02
   8.536  0.4793E+00  0.2815E+02
   8.546  0.4910E+00  0.2815E+02
   8.556  0.5030E+00  0.2816E+02
   8.566  0.5152E+00  0.2816E+02
   8.576  0.5276E+00  0.2817E+02
   8.586  0.5403E+00  0.2817E+02
   8.596  0.5532E+00  0.2818E+02
   8.606  0.5663E+00  0.2819E+02
   8.616  0.5797E+00  0.2819E+02
   8.626  0.5933E+00  0.2820E+02
   8.636  0.6071E+00  0.2820E+02
   8.646  0.6211E+00  0.2821E+02
   8.656  0.6354E+00  0.2822E+02
   8.666  0.6498E+00  0.2822E+02
   8.676  0.6645E+00  0.2823E+02
   8.686  0.6794E+00  0.2824E+02
   8.696  0.6944E+00  0.2824E+02
   8.706  0.7097E+00  0.2825E+02
   8.716  0.7251E+00  0.2826E+02
   8.726  0.7407E+00  0.2827E+02
   8.736  0.7565E+00  0.2827E+02
   8.746  0.7725E+00  0.2828E+02
   8.756  0.7886E+00  0.2829E+02
   8.766  0.8049E+00  0.2830E+02
   8.776  0.8213E+00  0.2830E+02
   8.786  0.8378E+00  0.2831E+02
   8.796  0.8545E+00  0.2832E+02
   8.806  0.8713E+00  0.2833E+02
   8.816  0.8882E+00  0.2834E+02
   8.826  0.9052E+00  0.2835E+02
   8.836  0.9223E+00  0.2836E+02
   8.846  0.9394E+00  0.2837E+02
   8.856  0.9566E+00  0.2838E+02
   8.866  0.9739E+00  0.2839E+02
   8.876  0.9911E+00  0.2840E+02
   8.886  0.1008E+01  0.2841E+02
   8.896  0.1026E+01  0.2842E+02
   8.906  0.1043E+01  0.2843E+02
   8.916  0.1060E+01  0.2844E+02
   8.926  0.1078E+01  0.2845E+02
   8.936  0.1095E+01  0.2846E+02
   8.946  0.1112E+01  0.2847E+02
   8.956  0.1129E+01  0.2848E+02
   8.966  0.1146E+01  0.2849E+02
   8.976  0.1163E+01  0.2850E+02
   8.986  0.1180E+01  0.2852E+02
   8.996  0.1196E+01  0.2853E+02
   9.006  0.1213E+01  0.2854E+02
   9.016  0.1229E+01  0.2855E+02
   9.026  0.1245E+01  0.2857E+02
   9.036  0.1261E+01  0.2858E+02
   9.046  0.1276E+01  0.2859E+02
   9.056  0.1292E+01  0.2860E+02
   9.066  0.1307E+01  0.2862E+02
   9.076  0.1322E+01  0.2863E+02
   9.086  0.1337E+01  0.2864E+02
   9.096  0.1351E+01  0.2866E+02
   9.106  0.1365E+01  0.2867E+02
   9.116  0.1379E+01  0.2868E+02
   9.126  0.1392E+01  0.2870E+02
   9.136  0.1405E+01  0.2871E+02
   9.146  0.1418E+01  0.2873E+02
   9.156  0.1430E+01  0.2874E+02
   9.166  0.1442E+01  0.2875E+02
   9.176  0.1453E+01  0.2877E+02
   9.186  0.1464E+01  0.2878E+02
   9.196  0.1475E+01  0.2880E+02
   9.206  0.1485E+01  0.2881E+02
   9.216  0.1495E+01  0.2883E+02
   9.226  0.1504E+01  0.2884E+02
   9.236  0.1513E+01  0.2886E+02
   9.246  0.1522E+01  0.2887E+02
   9.256  0.1530E+01  0.2889E+02
   9.266  0.1537E+01  0.2890E+02
   9.276  0.1544E+01  0.2892E+02
   9.286  0.1551E+01  0.2894E+02
   9.296  0.1557E+01  0.2895E+02
   9.306  0.1563E+01  0.2897E+02
   9.316  0.1568E+01  0.2898E+02
   9.326  0.1573E+01  0.2900E+02
   9.336  0.1577E+01  0.2901E+02
   9.346  0.1581E+01  0.2903E+02
   9.356  0.1584E+01  0.2905E+02
   9.366  0.1587E+01  0.2906E+02
   9.376  0.1589E+01  0.2908E+02
   9.386  0.1591E+01  0.2909E+02
   9.396  0.1593E+01  0.2911E+02
   9.406  0.1594E+01  0.2913E+02
   9.416  0.1595E+01  0.2914E+02
   9.426  0.1595E+01  0.2916E+02
   9.436  0.1595E+01  0.2917E+02
   9.446  0.1594E+01  0.2919E+02
   9.456  0.1594E+01  0.2920E+02
   9.466  0.1592E+01  0.2922E+02
   9.476  0.1591E+01  0.2924E+02
   9.486  0.1589E+01  0.2925E+02
   9.496  0.1586E+01  0.2927E+02
   9.506  0.1584E+01  0.2928E+02
   9.516  0.1581E+01  0.2930E+02
   9.526  0.1578E+01  0.2932E+02
   9.536  0.1574E+01  0.2933E+02
   9.546  0.1571E+01  0.2935E+02
   9.556  0.1567E+01  0.2936E+02
   9.566  0.1562E+01  0.2938E+02
   9.576  0.1558E+01  0.2939E+02
   9.586  0.1553E+01  0.2941E+02
   9.596  0.1548E+01  0.2943E+02
   9.606  0.1543E+01  0.2944E+02
   9.616  0.1538E+01  0.2946E+02
   9.626  0.1533E+01  0.2947E+02
   9.636  0.1528E+01  0.2949E+02
   9.646  0.1522E+01  0.2950E+02
   9.656  0.1516E+01  0.2952E+02
   9.666  0.1511E+01  0.2953E+02
   9.676  0.1505E+01  0.2955E+02
   9.686  0.1499E+01  0.2956E+02
   9.696  0.1493E+01  0.2958E+02
   9.706  0.1487E+01  0.2959E+02
   9.716  0.1481E+01  0.2961E+02
   9.726  0.1475E+01  0.2962E+02
   9.736  0.1469E+01  0.2964E+02
   9.746  0.1463E+01  0.2965E+02
   9.756  0.1457E+01  0.2967E+02
   9.766  0.1451E+01  0.2968E+02
   9.776  0.1445E+01  0.2969E+02
   9.786  0.1439E+01  0.2971E+02
   9.796  0.1433E+01  0.2972E+02
   9.806  0.1427E+01  0.2974E+02
   9.816  0.1421E+01  0.2975E+02
   9.826  0.1416E+01  0.2977E+02
   9.836  0.1410E+01  0.2978E+02
   9.846  0.1404E+01  0.2979E+02
   9.856  0.1398E+01  0.2981E+02
   9.866  0.1393E+01  0.2982E+02
   9.876  0.1387E+01  0.2984E+02
   9.886  0.1382E+01  0.2985E+02
   9.896  0.1376E+01  0.2986E+02
   9.906  0.1371E+01  0.2988E+02
   9.916  0.1365E+01  0.2989E+02
   9.926  0.1360E+01  0.2990E+02
   9.936  0.1355E+01  0.2992E+02
   9.946  0.1350E+01  0.2993E+02
   9.956  0.1344E+01  0.2994E+02
   9.966  0.1339E+01  0.2996E+02
   9.976  0.1334E+01  0.2997E+02
   9.986  0.1329E+01  0.2998E+02
   9.996  0.1324E+01  0.3000E+02
  10.006  0.1319E+01  0.3001E+02
  10.016  0.1314E+01  0.3002E+02
  10.026  0.1309E+01  0.3004E+02
  10.036  0.1305E+01  0.3005E+02
  10.046  0.1300E+01  0.3006E+02
  10.056  0.1295E+01  0.3008E+02
  10.066  0.1290E+01  0.3009E+02
  10.076  0.1286E+01  0.3010E+02
  10.086  0.1281E+01  0.3011E+02
  10.096  0.1277E+01  0.3013E+02
  10.106  0.1272E+01  0.3014E+02
  10.116  0.1268E+01  0.3015E+02
  10.126  0.1264E+01  0.3017E+02
  10.136  0.1260E+01  0.3018E+02
  10.146  0.1255E+01  0.3019E+02
  10.156  0.1251E+01  0.3020E+02
  10.166  0.1247E+01  0.3022E+02
  10.176  0.1244E+01  0.3023E+02
  10.186  0.1240E+01  0.3024E+02
  10.196  0.1236E+01  0.3025E+02
  10.206  0.1233E+01  0.3027E+02
  10.216  0.1229E+01  0.3028E+02
  10.226  0.1226E+01  0.3029E+02
  10.236  0.1223E+01  0.3030E+02
  10.246  0.1220E+01  0.3031E+02
  10.256  0.1218E+01  0.3033E+02
  10.266  0.1215E+01  0.3034E+02
  10.276  0.1213E+01  0.3035E+02
  10.286  0.1211E+01  0.3036E+02
  10.296  0.1209E+01  0.3038E+02
  10.306  0.1208E+01  0.3039E+02
  10.316  0.1206E+01  0.3040E+02
  10.326  0.1205E+01  0.3041E+02
  10.336  0.1205E+01  0.3042E+02
  10.346  0.1204E+01  0.3044E+02
  10.356  0.1204E+01  0.3045E+02
  10.366  0.1204E+01  0.3046E+02
  10.376  0.1204E+01  0.3047E+02
  10.386  0.1205E+01  0.3048E+02
  10.396  0.1206E+01  0.3050E+02
  10.406  0.1208E+01  0.3051E+02
  10.416  0.1210E+01  0.3052E+02
  10.426  0.1212E+01  0.3053E+02
  10.436  0.1214E+01  0.3054E+02
  10.446  0.1217E+01  0.3056E+02
  10.456  0.1220E+01  0.3057E+02
  10.466  0.1224E+01  0.3058E+02
  10.476  0.1228E+01  0.3059E+02
  10.486  0.1232E+01  0.3061E+02
  10.496  0.1237E+01  0.3062E+02
  10.506  0.1242E+01  0.3063E+02
  10.516  0.1247E+01  0.3064E+02
  10.526  0.1253E+01  0.3066E+02
  10.536  0.1259E+01  0.3067E+02
  10.546  0.1265E+01  0.3068E+02
  10.556  0.1272E+01  0.3069E+02
  10.566  0.1279E+01  0.3071E+02
  10.576  0.1286E+01  0.3072E+02
  10.586  0.1294E+01  0.3073E+02
  10.596  0.1301E+01  0.3074E+02
  10.606  0.1309E+01  0.3076E+02
  10.616  0.1318E+01  0.3077E+02
  10.626  0.1326E+01  0.3078E+02
  10.636  0.1335E+01  0.3080E+02
  10.646  0.1344E+01  0.3081E+02
  10.656  0.1353E+01  0.3082E+02
  10.666  0.1362E+01  0.3084E+02
  10.676  0.1371E+01  0.3085E+02
  10.686  0.1380E+01  0.3087E+02
  10.696  0.1390E+01  0.3088E+02
  10.706  0.1399E+01  0.3089E+02
  10.716  0.1408E+01  0.3091E+02
  10.726  0.1418E+01  0.3092E+02
  10.736  0.1427E+01  0.3094E+02
  10.746  0.1436E+01  0.3095E+02
  10.756  0.1446E+01  0.3096E+02
  10.766  0.1455E+01  0.3098E+02
  10.776  0.1464E+01  0.3099E+02
  10.786  0.1473E+01  0.3101E+02
  10.796  0.1481E+01  0.3102E+02
  10.806  0.1490E+01  0.3104E+02
  10.816  0.1498E+01  0.3105E+02
  10.826  0.1506E+01  0.3107E+02
  10.836  0.1514E+01  0.3108E+02
  10.846  0.1522E+01  0.3110E+02
  10.856  0.1529E+01  0.3111E+02
  10.866  0.1536E+01  0.3113E+02
  10.876  0.1543E+01  0.3114E+02
  10.886  0.1549E+01  0.3116E+02
  10.896  0.1555E+01  0.3118E+02
  10.906  0.1561E+01  0.3119E+02
  10.916  0.1566E+01  0.3121E+02
  10.926  0.1571E+01  0.3122E+02
  10.936  0.1575E+01  0.3124E+02
  10.946  0.1579E+01  0.3125E+02
  10.956  0.1583E+01  0.3127E+02
  10.966  0.1587E+01  0.3129E+02
  10.976  0.1590E+01  0.3130E+02
  10.986  0.1592E+01  0.3132E+02
  10.996  0.1595E+01  0.3133E+02
  11.006  0.1597E+01  0.3135E+02
  11.016  0.1598E+01  0.3137E+02
  11.026  0.1599E+01  0.3138E+02
  11.036  0.1600E+01  0.3140E+02
  11.046  0.1601E+01  0.3141E+02
  11.056  0.1601E+01  0.3143E+02
  11.066  0.1600E+01  0.3145E+02
  11.076  0.1600E+01  0.3146E+02
  11.086  0.1599E+01  0.3148E+02
  11.096  0.1598E+01  0.3149E+02
  11.106  0.1597E+01  0.3151E+02
  11.116  0.1595E+01  0.3153E+02
  11.126  0.1593E+01  0.3154E+02
  11.136  0.1591E+01  0.3156E+02
  11.146  0.1589E+01  0.3157E+02
  11.156  0.1586E+01  0.3159E+02
  11.166  0.1584E+01  0.3161E+02
  11.176  0.1581E+01  0.3162E+02
  11.186  0.1578E+01  0.3164E+02
  11.196  0.1575E+01  0.3165E+02
  11.206  0.1572E+01  0.3167E+02
  11.216  0.1568E+01  0.3168E+02
  11.226  0.1565E+01  0.3170E+02
  11.236  0.1562E+01  0.3172E+02
  11.246  0.1558E+01  0.3173E+02
  11.256  0.1555E+01  0.3175E+02
  11.266  0.1552E+01  0.3176E+02
  11.276  0.1548E+01  0.3178E+02
  11.286  0.1545E+01  0.3179E+02
  11.296  0.1542E+01  0.3181E+02
  11.306  0.1539E+01  0.3182E+02
  11.316  0.1536E+01  0.3184E+02
  11.326  0.1533E+01  0.3185E+02
  11.336  0.1530E+01  0.3187E+02
  11.346  0.1527E+01  0.3188E+02
  11.356  0.1525E+01  0.3190E+02
  11.366  0.1522E+01  0.3192E+02
  11.376  0.1520E+01  0.3193E+02
  11.386  0.1518E+01  0.3195E+02
  11.396  0.1516E+01  0.3196E+02
  11.406  0.1514E+01  0.3198E+02
  11.416  0.1513E+01  0.3199E+02
  11.426  0.1511E+01  0.3201E+02
  11.436  0.1510E+01  0.3202E+02
  11.446  0.1509E+01  0.3204E+02
  11.456  0.1508E+01  0.3205E+02
  11.466  0.1508E+01  0.3207E+02
  11.476  0.1508E+01  0.3208E+02
  11.486  0.1507E+01  0.3210E+02
  11.496  0.1508E+01  0.3211E+02
  11.506  0.1508E+01  0.3213E+02
  11.516  0.1508E+01  0.3214E+02
  11.526  0.1509E+01  0.3216E+02
  11.536  0.1510E+01  0.3217E+02
  11.546  0.1511E+01  0.3219E+02
  11.556  0.1512E+01  0.3220E+02
  11.566  0.1514E+01  0.3222E+02
  11.576  0.1516E+01  0.3223E+02
  11.586  0.1517E+01  0.3225E+02
  11.596  0.1519E+01  0.3226E+02
  11.606  0.1522E+01  0.3228E+02
  11.616  0.1524E+01  0.3229E+02
  11.626  0.1526E+01  0.3231E+02
  11.636  0.1529E+01  0.3232E+02
  11.646  0.1532E+01  0.3234E+02
  11.656  0.1535E+01  0.3235E+02
  11.666  0.1538E+01  0.3237E+02
  11.676  0.1541E+01  0.3239E+02
  11.686  0.1544E+01  0.3240E+02
  11.696  0.1548E+01  0.3242E+02
  11.706  0.1551E+01  0.3243E+02
  11.716  0.1555E+01  0.3245E+02
  11.726  0.1558E+01  0.3246E+02
  11.736  0.1562E+01  0.3248E+02
  11.746  0.1566E+01  0.3249E+02
  11.756  0.1569E+01  0.3251E+02
  11.766  0.1573E+01  0.3253E+02
  11.776  0.1577E+01  0.3254E+02
  11.786  0.1581E+01  0.3256E+02
  11.796  0.1585E+01  0.3257E+02
  11.806  0.1589E+01  0.3259E+02
  11.816  0.1593E+01  0.3261E+02
  11.826  0.1596E+01  0.3262E+02
  11.836  0.1600E+01  0.3264E+02
  11.846  0.1604E+01  0.3265E+02
  11.856  0.1608E+01  0.3267E+02
  11.866  0.1612E+01  0.3269E+02
  11.876  0.1616E+01  0.3270E+02
  11.886  0.1619E+01  0.3272E+02
  11.896  0.1623E+01  0.3273E+02
  11.906  0.1626E+01  0.3275E+02
  11.916  0.1630E+01  0.3277E+02
  11.926  0.1633E+01  0.3278E+02
  11.936  0.1636E+01  0.3280E+02
  11.946  0.1640E+01  0.3282E+02
  11.956  0.1643E+01  0.3283E+02
  11.966  0.1646E+01  0.3285E+02
  11.976  0.1648E+01  0.3286E+02
  11.986  0.1651E+01  0.3288E+02
  11.996  0.1654E+01  0.3290E+02
  12.006  0.1656E+01  0.3291E+02
  12.016  0.1658E+01  0.3293E+02
  12.026  0.1661E+01  0.3295E+02
  12.036  0.1662E+01  0.3296E+02
  12.046  0.1664E+01  0.3298E+02
  12.056  0.1666E+01  0.3300E+02
  12.066  0.1667E+01  0.3301E+02
  12.076  0.1669E+01  0.3303E+02
  12.086  0.1670E+01  0.3305E+02
  12.096  0.1670E+01  0.3306E+02
  12.106  0.1671E+01  0.3308E+02
  12.116  0.1672E+01  0.3310E+02
  12.126  0.1672E+01  0.3311E+02
  12.136  0.1672E+01  0.3313E+02
  12.146  0.1672E+01  0.3315E+02
  12.156  0.1671E+01  0.3316E+02
  12.166  0.1671E+01  0.3318E+02
  12.176  0.1670E+01  0.3320E+02
  12.186  0.1669E+01  0.3321E+02
  12.196  0.1667E+01  0.3323E+02
  12.206  0.1666E+01  0.3325E+02
  12.216  0.1664E+01  0.3326E+02
  12.226  0.1662E+01  0.3328E+02
  12.236  0.1660E+01  0.3330E+02
  12.246  0.1657E+01  0.3331E+02
  12.256  0.1654E+01  0.3333E+02
  12.266  0.1651E+01  0.3335E+02
  12.276  0.1648E+01  0.3336E+02
  12.286  0.1645E+01  0.3338E+02
  12.296  0.1641E+01  0.3340E+02
  12.306  0.1637E+01  0.3341E+02
  12.316  0.1633E+01  0.3343E+02
  12.326  0.1629E+01  0.3345E+02
  12.336  0.1624E+01  0.3346E+02
  12.346  0.1619E+01  0.3348E+02
  12.356  0.1614E+01  0.3349E+02
  12.366  0.1609E+01  0.3351E+02
  12.376  0.1604E+01  0.3353E+02
  12.386  0.1598E+01  0.3354E+02
  12.396  0.1592E+01  0.3356E+02
  12.406  0.1587E+01  0.3357E+02
  12.416  0.1581E+01  0.3359E+02
  12.426  0.1574E+01  0.3361E+02
  12.436  0.1568E+01  0.3362E+02
  12.446  0.1562E+01  0.3364E+02
  12.456  0.1555E+01  0.3365E+02
  12.466  0.1548E+01  0.3367E+02
  12.476  0.1542E+01  0.3368E+02
  12.486  0.1535E+01  0.3370E+02
  12.496  0.1528E+01  0.3371E+02
  12.506  0.1521E+01  0.3373E+02
  12.516  0.1514E+01  0.3374E+02
  12.526  0.1507E+01  0.3376E+02
  12.536  0.1500E+01  0.3377E+02
  12.546  0.1493E+01  0.3379E+02
  12.556  0.1485E+01  0.3380E+02
  12.566  0.1478E+01  0.3382E+02
  12.576  0.1471E+01  0.3383E+02
  12.586  0.1464E+01  0.3385E+02
  12.596  0.1457E+01  0.3386E+02
  12.606  0.1450E+01  0.3388E+02
  12.616  0.1443E+01  0.3389E+02
  12.626  0.1436E+01  0.3391E+02
  12.636  0.1430E+01  0.3392E+02
  12.646  0.1423E+01  0.3393E+02
  12.656  0.1416E+01  0.3395E+02
  12.666  0.1410E+01  0.3396E+02
  12.676  0.1404E+01  0.3398E+02
  12.686  0.1397E+01  0.3399E+02
  12.696  0.1391E+01  0.3401E+02
  12.706  0.1385E+01  0.3402E+02
  12.716  0.1380E+01  0.3403E+02
  12.726  0.1374E+01  0.3405E+02
  12.736  0.1369E+01  0.3406E+02
  12.746  0.1363E+01  0.3407E+02
  12.756  0.1358E+01  0.3409E+02
  12.766  0.1353E+01  0.3410E+02
  12.776  0.1348E+01  0.3411E+02
  12.786  0.1344E+01  0.3413E+02
  12.796  0.1339E+01  0.3414E+02
  12.806  0.1335E+01  0.3415E+02
  12.816  0.1331E+01  0.3417E+02
  12.826  0.1327E+01  0.3418E+02
  12.836  0.1323E+01  0.3419E+02
  12.846  0.1320E+01  0.3421E+02
  12.856  0.1317E+01  0.3422E+02
  12.866  0.1314E+01  0.3423E+02
  12.876  0.1311E+01  0.3425E+02
  12.886  0.1308E+01  0.3426E+02
  12.896  0.1305E+01  0.3427E+02
  12.906  0.1303E+01  0.3429E+02
  12.916  0.1301E+01  0.3430E+02
  12.926  0.1299E+01  0.3431E+02
  12.936  0.1297E+01  0.3433E+02
  12.946  0.1295E+01  0.3434E+02
  12.956  0.1294E+01  0.3435E+02
  12.966  0.1292E+01  0.3436E+02
  12.976  0.1291E+01  0.3438E+02
  12.986  0.1290E+01  0.3439E+02
  12.996  0.1289E+01  0.3440E+02
  13.006  0.1288E+01  0.3442E+02
  13.016  0.1288E+01  0.3443E+02
  13.026  0.1287E+01  0.3444E+02
  13.036  0.1287E+01  0.3445E+02
  13.046  0.1286E+01  0.3447E+02
  13.056  0.1286E+01  0.3448E+02
  13.066  0.1286E+01  0.3449E+02
  13.076  0.1286E+01  0.3451E+02
  13.086  0.1286E+01  0.3452E+02
  13.096  0.1286E+01  0.3453E+02
  13.106  0.1287E+01  0.3454E+02
  13.116  0.1287E+01  0.3456E+02
  13.126  0.1287E+01  0.3457E+02
  13.136  0.1288E+01  0.3458E+02
  13.146  0.1288E+01  0.3460E+02
  13.156  0.1289E+01  0.3461E+02
  13.166  0.1289E+01  0.3462E+02
  13.176  0.1290E+01  0.3463E+02
  13.186  0.1290E+01  0.3465E+02
  13.196  0.1291E+01  0.3466E+02
  13.206  0.1291E+01  0.3467E+02
  13.216  0.1292E+01  0.3469E+02
  13.226  0.1292E+01  0.3470E+02
  13.236  0.1293E+01  0.3471E+02
  13.246  0.1293E+01  0.3472E+02
  13.256  0.1294E+01  0.3474E+02
  13.266  0.1294E+01  0.3475E+02
  13.276  0.1295E+01  0.3476E+02
  13.286  0.1295E+01  0.3478E+02
  13.296  0.1295E+01  0.3479E+02
  13.306  0.1296E+01  0.3480E+02
  13.316  0.1296E+01  0.3482E+02
  13.326  0.1296E+01  0.3483E+02
  13.336  0.1296E+01  0.3484E+02
  13.346  0.1296E+01  0.3485E+02
  13.356  0.1296E+01  0.3487E+02
  13.366  0.1296E+01  0.3488E+02
  13.376  0.1295E+01  0.3489E+02
  13.386  0.1295E+01  0.3491E+02
  13.396  0.1295E+01  0.3492E+02
  13.406  0.1294E+01  0.3493E+02
  13.416  0.1294E+01  0.3494E+02
  13.426  0.1293E+01  0.3496E+02
  13.436  0.1292E+01  0.3497E+02
  13.446  0.1292E+01  0.3498E+02
  13.456  0.1291E+01  0.3500E+02
  13.466  0.1290E+01  0.3501E+02
  13.476  0.1289E+01  0.3502E+02
  13.486  0.1288E+01  0.3504E+02
  13.496  0.1286E+01  0.3505E+02
  13.506  0.1285E+01  0.3506E+02
  13.516  0.1284E+01  0.3507E+02
  13.526  0.1282E+01  0.3509E+02
  13.536  0.1281E+01  0.3510E+02
  13.546  0.1279E+01  0.3511E+02
  13.556  0.1278E+01  0.3513E+02
  13.566  0.1276E+01  0.3514E+02
  13.576  0.1275E+01  0.3515E+02
  13.586  0.1273E+01  0.3516E+02
  13.596  0.1271E+01  0.3518E+02
  13.606  0.1269E+01  0.3519E+02
  13.616  0.1268E+01  0.3520E+02
  13.626  0.1266E+01  0.3521E+02
  13.636  0.1264E+01  0.3523E+02
  13.646  0.1262E+01  0.3524E+02
  13.656  0.1260E+01  0.3525E+02
  13.666  0.1259E+01  0.3526E+02
  13.676  0.1257E+01  0.3528E+02
  13.686  0.1255E+01  0.3529E+02
  13.696  0.1253E+01  0.3530E+02
  13.706  0.1252E+01  0.3531E+02
  13.716  0.1250E+01  0.3533E+02
  13.726  0.1249E+01  0.3534E+02
  13.736  0.1247E+01  0.3535E+02
  13.746  0.1246E+01  0.3536E+02
  13.756  0.1245E+01  0.3538E+02
  13.766  0.1243E+01  0.3539E+02
  13.776  0.1242E+01  0.3540E+02
  13.786  0.1241E+01  0.3541E+02
  13.796  0.1240E+01  0.3543E+02
  13.806  0.1239E+01  0.3544E+02
  13.816  0.1239E+01  0.3545E+02
  13.826  0.1238E+01  0.3546E+02
  13.836  0.1238E+01  0.3548E+02
  13.846  0.1237E+01  0.3549E+02
  13.856  0.1237E+01  0.3550E+02
  13.866  0.1237E+01  0.3551E+02
  13.876  0.1237E+01  0.3553E+02
  13.886  0.1237E+01  0.3554E+02
  13.896  0.1237E+01  0.3555E+02
  13.906  0.1238E+01  0.3556E+02
  13.916  0.1239E+01  0.3558E+02
  13.926  0.1239E+01  0.3559E+02
  13.936  0.1240E+01  0.3560E+02
  13.946  0.1241E+01  0.3561E+02
  13.956  0.1242E+01  0.3562E+02
  13.966  0.1244E+01  0.3564E+02
  13.976  0.1245E+01  0.3565E+02
  13.986  0.1247E+01  0.3566E+02
  13.996  0.1249E+01  0.3567E+02
  14.006  0.1251E+01  0.3569E+02
  14.016  0.1253E+01  0.3570E+02
  14.026  0.1255E+01  0.3571E+02
  14.036  0.1257E+01  0.3572E+02
  14.046  0.1260E+01  0.3574E+02
  14.056  0.1262E+01  0.3575E+02
  14.066  0.1265E+01  0.3576E+02
  14.076  0.1268E+01  0.3578E+02
  14.086  0.1271E+01  0.3579E+02
  14.096  0.1274E+01  0.3580E+02
  14.106  0.1277E+01  0.3581E+02
  14.116  0.1280E+01  0.3583E+02
  14.126  0.1283E+01  0.3584E+02
  14.136  0.1287E+01  0.3585E+02
  14.146  0.1290E+01  0.3587E+02
  14.156  0.1294E+01  0.3588E+02
  14.166  0.1297E+01  0.3589E+02
  14.176  0.1301E+01  0.3590E+02
  14.186  0.1305E+01  0.3592E+02
  14.196  0.1308E+01  0.3593E+02
  14.206  0.1312E+01  0.3594E+02
  14.216  0.1316E+01  0.3596E+02
  14.226  0.1320E+01  0.3597E+02
  14.236  0.1324E+01  0.3598E+02
  14.246  0.1328E+01  0.3600E+02
  14.256  0.1332E+01  0.3601E+02
  14.266  0.1336E+01  0.3602E+02
  14.276  0.1341E+01  0.3604E+02
  14.286  0.1345E+01  0.3605E+02
  14.296  0.1349E+01  0.3606E+02
  14.306  0.1353E+01  0.3608E+02
  14.316  0.1357E+01  0.3609E+02
  14.326  0.1362E+01  0.3610E+02
  14.336  0.1366E+01  0.3612E+02
  14.346  0.1370E+01  0.3613E+02
  14.356  0.1375E+01  0.3614E+02
  14.366  0.1379E+01  0.3616E+02
  14.376  0.1383E+01  0.3617E+02
  14.386  0.1388E+01  0.3619E+02
  14.396  0.1392E+01  0.3620E+02
  14.406  0.1397E+01  0.3621E+02
  14.416  0.1401E+01  0.3623E+02
  14.426  0.1406E+01  0.3624E+02
  14.436  0.1411E+01  0.3626E+02
  14.446  0.1415E+01  0.3627E+02
  14.456  0.1420E+01  0.3628E+02
  14.466  0.1425E+01  0.3630E+02
  14.476  0.1429E+01  0.3631E+02
  14.486  0.1434E+01  0.3633E+02
  14.496  0.1439E+01  0.3634E+02
  14.506  0.1444E+01  0.3636E+02
  14.516  0.1449E+01  0.3637E+02
  14.526  0.1454E+01  0.3639E+02
  14.536  0.1459E+01  0.3640E+02
  14.546  0.1464E+01  0.3641E+02
  14.556  0.1469E+01  0.3643E+02
  14.566  0.1474E+01  0.3644E+02
  14.576  0.1480E+01  0.3646E+02
  14.586  0.1485E+01  0.3647E+02
  14.596  0.1491E+01  0.3649E+02
  14.606  0.1496E+01  0.3650E+02
  14.616  0.1502E+01  0.3652E+02
  14.626  0.1507E+01  0.3653E+02
  14.636  0.1513E+01  0.3655E+02
  14.646  0.1519E+01  0.3656E+02
  14.656  0.1525E+01  0.3658E+02
  14.666  0.1531E+01  0.3659E+02
  14.676  0.1537E+01  0.3661E+02
  14.686  0.1543E+01  0.3663E+02
  14.696  0.1549E+01  0.3664E+02
  14.706  0.1555E+01  0.3666E+02
  14.716  0.1561E+01  0.3667E+02
  14.726  0.1567E+01  0.3669E+02
  14.736  0.1574E+01  0.3670E+02
  14.746  0.1580E+01  0.3672E+02
  14.756  0.1586E+01  0.3674E+02
  14.766  0.1592E+01  0.3675E+02
  14.776  0.1599E+01  0.3677E+02
  14.786  0.1605E+01  0.3678E+02
  14.796  0.1612E+01  0.3680E+02
  14.806  0.1618E+01  0.3682E+02
  14.816  0.1624E+01  0.3683E+02
  14.826  0.1631E+01  0.3685E+02
  14.836  0.1637E+01  0.3686E+02
  14.846  0.1643E+01  0.3688E+02
  14.856  0.1649E+01  0.3690E+02
  14.866  0.1656E+01  0.3691E+02
  14.876  0.1662E+01  0.3693E+02
  14.886  0.1668E+01  0.3695E+02
  14.896  0.1674E+01  0.3696E+02
  14.906  0.1679E+01  0.3698E+02
  14.916  0.1685E+01  0.3700E+02
  14.926  0.1691E+01  0.3701E+02
  14.936  0.1696E+01  0.3703E+02
  14.946  0.1702E+01  0.3705E+02
  14.956  0.1707E+01  0.3707E+02
  14.966  0.1712E+01  0.3708E+02
  14.976  0.1717E+01  0.3710E+02
  14.986  0.1722E+01  0.3712E+02
  14.996  0.1727E+01  0.3713E+02
  15.006  0.1731E+01  0.3715E+02
  15.016  0.1735E+01  0.3717E+02
  15.026  0.1739E+01  0.3719E+02
  15.036  0.1743E+01  0.3720E+02
  15.046  0.1747E+01  0.3722E+02
  15.056  0.1751E+01  0.3724E+02
  15.066  0.1754E+01  0.3726E+02
  15.076  0.1757E+01  0.3727E+02
  15.086  0.1760E+01  0.3729E+02
  15.096  0.1763E+01  0.3731E+02
  15.106  0.1765E+01  0.3733E+02
  15.116  0.1767E+01  0.3734E+02
  15.126  0.1769E+01  0.3736E+02
  15.136  0.1771E+01  0.3738E+02
  15.146  0.1773E+01  0.3740E+02
  15.156  0.1774E+01  0.3742E+02
  15.166  0.1775E+01  0.3743E+02
  15.176  0.1776E+01  0.3745E+02
  15.186  0.1777E+01  0.3747E+02
  15.196  0.1778E+01  0.3749E+02
  15.206  0.1778E+01  0.3750E+02
  15.216  0.1778E+01  0.3752E+02
  15.226  0.1778E+01  0.3754E+02
  15.236  0.1777E+01  0.3756E+02
  15.246  0.1777E+01  0.3758E+02
  15.256  0.1776E+01  0.3759E+02
  15.266  0.1775E+01  0.3761E+02
  15.276  0.1774E+01  0.3763E+02
  15.286  0.1773E+01  0.3765E+02
  15.296  0.1772E+01  0.3766E+02
  15.306  0.1770E+01  0.3768E+02
  15.316  0.1768E+01  0.3770E+02
  15.326  0.1766E+01  0.3772E+02
  15.336  0.1764E+01  0.3773E+02
  15.346  0.1762E+01  0.3775E+02
  15.356  0.1760E+01  0.3777E+02
  15.366  0.1757E+01  0.3779E+02
  15.376  0.1755E+01  0.3781E+02
  15.386  0.1752E+01  0.3782E+02
  15.396  0.1750E+01  0.3784E+02
  15.406  0.1747E+01  0.3786E+02
  15.416  0.1744E+01  0.3787E+02
  15.426  0.1741E+01  0.3789E+02
  15.436  0.1738E+01  0.3791E+02
  15.446  0.1735E+01  0.3793E+02
  15.456  0.1732E+01  0.3794E+02
  15.466  0.1729E+01  0.3796E+02
  15.476  0.1726E+01  0.3798E+02
  15.486  0.1723E+01  0.3800E+02
  15.496  0.1720E+01  0.3801E+02
  15.506  0.1717E+01  0.3803E+02
  15.516  0.1714E+01  0.3805E+02
  15.526  0.1711E+01  0.3806E+02
  15.536  0.1709E+01  0.3808E+02
  15.546  0.1706E+01  0.3810E+02
  15.556  0.1703E+01  0.3812E+02
  15.566  0.1700E+01  0.3813E+02
  15.576  0.1698E+01  0.3815E+02
  15.586  0.1695E+01  0.3817E+02
  15.596  0.1693E+01  0.3818E+02
  15.606  0.1690E+01  0.3820E+02
  15.616  0.1688E+01  0.3822E+02
  15.626  0.1686E+01  0.3823E+02
  15.636  0.1684E+01  0.3825E+02
  15.646  0.1682E+01  0.3827E+02
  15.656  0.1680E+01  0.3828E+02
  15.666  0.1679E+01  0.3830E+02
  15.676  0.1677E+01  0.3832E+02
  15.686  0.1676E+01  0.3834E+02
  15.696  0.1675E+01  0.3835E+02
  15.706  0.1674E+01  0.3837E+02
  15.716  0.1673E+01  0.3839E+02
  15.726  0.1672E+01  0.3840E+02
  15.736  0.1672E+01  0.3842E+02
  15.746  0.1671E+01  0.3844E+02
  15.756  0.1671E+01  0.3845E+02
  15.766  0.1671E+01  0.3847E+02
  15.776  0.1671E+01  0.3849E+02
  15.786  0.1672E+01  0.3850E+02
  15.796  0.1672E+01  0.3852E+02
  15.806  0.1673E+01  0.3854E+02
  15.816  0.1673E+01  0.3855E+02
  15.826  0.1674E+01  0.3857E+02
  15.836  0.1675E+01  0.3859E+02
  15.846  0.1676E+01  0.3860E+02
  15.856  0.1678E+01  0.3862E+02
  15.866  0.1679E+01  0.3864E+02
  15.876  0.1681E+01  0.3865E+02
  15.886  0.1683E+01  0.3867E+02
  15.896  0.1685E+01  0.3869E+02
  15.906  0.1687E+01  0.3870E+02
  15.916  0.1689E+01  0.3872E+02
  15.926  0.1691E+01  0.3874E+02
  15.936  0.1693E+01  0.3875E+02
  15.946  0.1696E+01  0.3877E+02
  15.956  0.1698E+01  0.3879E+02
  15.966  0.1701E+01  0.3881E+02
  15.976  0.1704E+01  0.3882E+02
  15.986  0.1707E+01  0.3884E+02
  15.996  0.1709E+01  0.3886E+02
  16.006  0.1712E+01  0.3887E+02
  16.016  0.1715E+01  0.3889E+02
  16.026  0.1718E+01  0.3891E+02
  16.036  0.1721E+01  0.3893E+02
  16.046  0.1724E+01  0.3894E+02
  16.056  0.1728E+01  0.3896E+02
  16.066  0.1731E+01  0.3898E+02
  16.076  0.1734E+01  0.3899E+02
  16.086  0.1737E+01  0.3901E+02
  16.096  0.1740E+01  0.3903E+02
  16.106  0.1743E+01  0.3905E+02
  16.116  0.1746E+01  0.3906E+02
  16.126  0.1749E+01  0.3908E+02
  16.136  0.1753E+01  0.3910E+02
  16.146  0.1756E+01  0.3912E+02
  16.156  0.1759E+01  0.3913E+02
  16.166  0.1762E+01  0.3915E+02
  16.176  0.1765E+01  0.3917E+02
  16.186  0.1768E+01  0.3919E+02
  16.196  0.1770E+01  0.3921E+02
  16.206  0.1773E+01  0.3922E+02
  16.216  0.1776E+01  0.3924E+02
  16.226  0.1779E+01  0.3926E+02
  16.236  0.1782E+01  0.3928E+02
  16.246  0.1784E+01  0.3929E+02
  16.256  0.1787E+01  0.3931E+02
  16.266  0.1789E+01  0.3933E+02
  16.276  0.1792E+01  0.3935E+02
  16.286  0.1794E+01  0.3937E+02
  16.296  0.1797E+01  0.3938E+02
  16.306  0.1799E+01  0.3940E+02
  16.316  0.1801E+01  0.3942E+02
  16.326  0.1803E+01  0.3944E+02
  16.336  0.1806E+01  0.3946E+02
  16.346  0.1808E+01  0.3947E+02
  16.356  0.1810E+01  0.3949E+02
  16.366  0.1812E+01  0.3951E+02
  16.376  0.1814E+01  0.3953E+02
  16.386  0.1816E+01  0.3955E+02
  16.396  0.1818E+01  0.3956E+02
  16.406  0.1820E+01  0.3958E+02
  16.416  0.1822E+01  0.3960E+02
  16.426  0.1824E+01  0.3962E+02
  16.436  0.1826E+01  0.3964E+02
  16.446  0.1827E+01  0.3966E+02
  16.456  0.1829E+01  0.3967E+02
  16.466  0.1831E+01  0.3969E+02
  16.476  0.1833E+01  0.3971E+02
  16.486  0.1835E+01  0.3973E+02
  16.496  0.1837E+01  0.3975E+02
  16.506  0.1838E+01  0.3977E+02
  16.516  0.1840E+01  0.3978E+02
  16.526  0.1842E+01  0.3980E+02
  16.536  0.1844E+01  0.3982E+02
  16.546  0.1845E+01  0.3984E+02
  16.556  0.1847E+01  0.3986E+02
  16.566  0.1849E+01  0.3988E+02
  16.576  0.1851E+01  0.3989E+02
  16.586  0.1853E+01  0.3991E+02
  16.596  0.1854E+01  0.3993E+02
  16.606  0.1856E+01  0.3995E+02
  16.616  0.1858E+01  0.3997E+02
  16.626  0.1860E+01  0.3999E+02
  16.636  0.1861E+01  0.4001E+02
  16.646  0.1863E+01  0.4002E+02
  16.656  0.1865E+01  0.4004E+02
  16.666  0.1867E+01  0.4006E+02
  16.676  0.1869E+01  0.4008E+02
  16.686  0.1870E+01  0.4010E+02
  16.696  0.1872E+01  0.4012E+02
  16.706  0.1874E+01  0.4014E+02
  16.716  0.1875E+01  0.4016E+02
  16.726  0.1877E+01  0.4017E+02
  16.736  0.1879E+01  0.4019E+02
  16.746  0.1881E+01  0.4021E+02
  16.756  0.1882E+01  0.4023E+02
  16.766  0.1884E+01  0.4025E+02
  16.776  0.1885E+01  0.4027E+02
  16.786  0.1887E+01  0.4029E+02
  16.796  0.1888E+01  0.4031E+02
  16.806  0.1890E+01  0.4033E+02
  16.816  0.1891E+01  0.4034E+02
  16.826  0.1893E+01  0.4036E+02
  16.836  0.1894E+01  0.4038E+02
  16.846  0.1896E+01  0.4040E+02
  16.856  0.1897E+01  0.4042E+02
  16.866  0.1898E+01  0.4044E+02
  16.876  0.1899E+01  0.4046E+02
  16.886  0.1901E+01  0.4048E+02
  16.896  0.1902E+01  0.4050E+02
  16.906  0.1903E+01  0.4052E+02
  16.916  0.1904E+01  0.4053E+02
  16.926  0.1905E+01  0.4055E+02
  16.936  0.1906E+01  0.4057E+02
  16.946  0.1907E+01  0.4059E+02
  16.956  0.1908E+01  0.4061E+02
  16.966  0.1909E+01  0.4063E+02
  16.976  0.1910E+01  0.4065E+02
  16.986  0.1911E+01  0.4067E+02
  16.996  0.1912E+01  0.4069E+02
  17.006  0.1913E+01  0.4071E+02
  17.016  0.1913E+01  0.4073E+02
  17.026  0.1914E+01  0.4074E+02
  17.036  0.1915E+01  0.4076E+02
  17.046  0.1916E+01  0.4078E+02
  17.056  0.1917E+01  0.4080E+02
  17.066  0.1918E+01  0.4082E+02
  17.076  0.1919E+01  0.4084E+02
  17.086  0.1920E+01  0.4086E+02
  17.096  0.1921E+01  0.4088E+02
  17.106  0.1922E+01  0.4090E+02
  17.116  0.1923E+01  0.4092E+02
  17.126  0.1924E+01  0.4094E+02
  17.136  0.1925E+01  0.4096E+02
  17.146  0.1926E+01  0.4097E+02
  17.156  0.1927E+01  0.4099E+02
  17.166  0.1929E+01  0.4101E+02
  17.176  0.1930E+01  0.4103E+02
  17.186  0.1931E+01  0.4105E+02
  17.196  0.1933E+01  0.4107E+02
  17.206  0.1934E+01  0.4109E+02
  17.216  0.1936E+01  0.4111E+02
  17.226  0.1938E+01  0.4113E+02
  17.236  0.1939E+01  0.4115E+02
  17.246  0.1941E+01  0.4117E+02
  17.256  0.1943E+01  0.4119E+02
  17.266  0.1945E+01  0.4121E+02
  17.276  0.1947E+01  0.4123E+02
  17.286  0.1949E+01  0.4125E+02
  17.296  0.1952E+01  0.4127E+02
  17.306  0.1954E+01  0.4128E+02
  17.316  0.1956E+01  0.4130E+02
  17.326  0.1959E+01  0.4132E+02
  17.336  0.1961E+01  0.4134E+02
  17.346  0.1964E+01  0.4136E+02
  17.356  0.1966E+01  0.4138E+02
  17.366  0.1969E+01  0.4140E+02
  17.376  0.1972E+01  0.4142E+02
  17.386  0.1975E+01  0.4144E+02
  17.396  0.1977E+01  0.4146E+02
  17.406  0.1980E+01  0.4148E+02
  17.416  0.1983E+01  0.4150E+02
  17.426  0.1986E+01  0.4152E+02
  17.436  0.1989E+01  0.4154E+02
  17.446  0.1992E+01  0.4156E+02
  17.456  0.1995E+01  0.4158E+02
  17.466  0.1998E+01  0.4160E+02
  17.476  0.2001E+01  0.4162E+02
  17.486  0.2003E+01  0.4164E+02
  17.496  0.2006E+01  0.4166E+02
  17.506  0.2009E+01  0.4168E+02
  17.516  0.2012E+01  0.4170E+02
  17.526  0.2015E+01  0.4172E+02
  17.536  0.2017E+01  0.4174E+02
  17.546  0.2020E+01  0.4176E+02
  17.556  0.2022E+01  0.4178E+02
  17.566  0.2025E+01  0.4180E+02
  17.576  0.2027E+01  0.4182E+02
  17.586  0.2029E+01  0.4184E+02
  17.596  0.2031E+01  0.4186E+02
  17.606  0.2033E+01  0.4188E+02
  17.616  0.2035E+01  0.4190E+02
  17.626  0.2037E+01  0.4192E+02
  17.636  0.2039E+01  0.4194E+02
  17.646  0.2040E+01  0.4197E+02
  17.656  0.2041E+01  0.4199E+02
  17.666  0.2042E+01  0.4201E+02
  17.676  0.2043E+01  0.4203E+02
  17.686  0.2044E+01  0.4205E+02
  17.696  0.2045E+01  0.4207E+02
  17.706  0.2045E+01  0.4209E+02
  17.716  0.2045E+01  0.4211E+02
  17.726  0.2046E+01  0.4213E+02
  17.736  0.2045E+01  0.4215E+02
  17.746  0.2045E+01  0.4217E+02
  17.756  0.2045E+01  0.4219E+02
  17.766  0.2044E+01  0.4221E+02
