#  E (eV)   dos(E)     Int dos(E) EFermi =   7.984 eV
 -15.070  0.5433E-03  0.5433E-05
 -15.060  0.6321E-03  0.1175E-04
 -15.050  0.7345E-03  0.1910E-04
 -15.040  0.8525E-03  0.2762E-04
 -15.030  0.9884E-03  0.3751E-04
 -15.020  0.1145E-02  0.4895E-04
 -15.010  0.1324E-02  0.6219E-04
 -15.000  0.1529E-02  0.7749E-04
 -14.990  0.1765E-02  0.9514E-04
 -14.980  0.2034E-02  0.1155E-03
 -14.970  0.2342E-02  0.1389E-03
 -14.960  0.2694E-02  0.1658E-03
 -14.950  0.3094E-02  0.1968E-03
 -14.940  0.3550E-02  0.2323E-03
 -14.930  0.4068E-02  0.2730E-03
 -14.920  0.4657E-02  0.3195E-03
 -14.910  0.5325E-02  0.3728E-03
 -14.900  0.6081E-02  0.4336E-03
 -14.890  0.6937E-02  0.5030E-03
 -14.880  0.7905E-02  0.5820E-03
 -14.870  0.8997E-02  0.6720E-03
 -14.860  0.1023E-01  0.7743E-03
 -14.850  0.1161E-01  0.8904E-03
 -14.840  0.1317E-01  0.1022E-02
 -14.830  0.1492E-01  0.1171E-02
 -14.820  0.1689E-01  0.1340E-02
 -14.810  0.1909E-01  0.1531E-02
 -14.800  0.2156E-01  0.1747E-02
 -14.790  0.2431E-01  0.1990E-02
 -14.780  0.2739E-01  0.2264E-02
 -14.770  0.3082E-01  0.2572E-02
 -14.760  0.3464E-01  0.2918E-02
 -14.750  0.3888E-01  0.3307E-02
 -14.740  0.4361E-01  0.3743E-02
 -14.730  0.4885E-01  0.4232E-02
 -14.720  0.5465E-01  0.4778E-02
 -14.710  0.6108E-01  0.5389E-02
 -14.700  0.6819E-01  0.6071E-02
 -14.690  0.7604E-01  0.6831E-02
 -14.680  0.8470E-01  0.7678E-02
 -14.670  0.9423E-01  0.8620E-02
 -14.660  0.1047E+00  0.9668E-02
 -14.650  0.1163E+00  0.1083E-01
 -14.640  0.1289E+00  0.1212E-01
 -14.630  0.1428E+00  0.1355E-01
 -14.620  0.1580E+00  0.1513E-01
 -14.610  0.1746E+00  0.1687E-01
 -14.600  0.1928E+00  0.1880E-01
 -14.590  0.2126E+00  0.2093E-01
 -14.580  0.2342E+00  0.2327E-01
 -14.570  0.2576E+00  0.2585E-01
 -14.560  0.2832E+00  0.2868E-01
 -14.550  0.3109E+00  0.3179E-01
 -14.540  0.3410E+00  0.3520E-01
 -14.530  0.3735E+00  0.3893E-01
 -14.520  0.4087E+00  0.4302E-01
 -14.510  0.4468E+00  0.4749E-01
 -14.500  0.4878E+00  0.5236E-01
 -14.490  0.5321E+00  0.5769E-01
 -14.480  0.5797E+00  0.6348E-01
 -14.470  0.6310E+00  0.6979E-01
 -14.460  0.6860E+00  0.7665E-01
 -14.450  0.7450E+00  0.8410E-01
 -14.440  0.8082E+00  0.9218E-01
 -14.430  0.8758E+00  0.1009E+00
 -14.420  0.9481E+00  0.1104E+00
 -14.410  0.1025E+01  0.1207E+00
 -14.400  0.1108E+01  0.1318E+00
 -14.390  0.1195E+01  0.1437E+00
 -14.380  0.1288E+01  0.1566E+00
 -14.370  0.1387E+01  0.1705E+00
 -14.360  0.1492E+01  0.1854E+00
 -14.350  0.1603E+01  0.2014E+00
 -14.340  0.1721E+01  0.2186E+00
 -14.330  0.1845E+01  0.2371E+00
 -14.320  0.1977E+01  0.2568E+00
 -14.310  0.2115E+01  0.2780E+00
 -14.300  0.2261E+01  0.3006E+00
 -14.290  0.2415E+01  0.3248E+00
 -14.280  0.2576E+01  0.3505E+00
 -14.270  0.2745E+01  0.3780E+00
 -14.260  0.2922E+01  0.4072E+00
 -14.250  0.3108E+01  0.4383E+00
 -14.240  0.3302E+01  0.4713E+00
 -14.230  0.3505E+01  0.5063E+00
 -14.220  0.3716E+01  0.5435E+00
 -14.210  0.3936E+01  0.5829E+00
 -14.200  0.4165E+01  0.6245E+00
 -14.190  0.4403E+01  0.6685E+00
 -14.180  0.4650E+01  0.7150E+00
 -14.170  0.4905E+01  0.7641E+00
 -14.160  0.5170E+01  0.8158E+00
 -14.150  0.5444E+01  0.8702E+00
 -14.140  0.5727E+01  0.9275E+00
 -14.130  0.6018E+01  0.9877E+00
 -14.120  0.6319E+01  0.1051E+01
 -14.110  0.6628E+01  0.1117E+01
 -14.100  0.6945E+01  0.1187E+01
 -14.090  0.7270E+01  0.1259E+01
 -14.080  0.7604E+01  0.1335E+01
 -14.070  0.7945E+01  0.1415E+01
 -14.060  0.8294E+01  0.1498E+01
 -14.050  0.8650E+01  0.1584E+01
 -14.040  0.9013E+01  0.1674E+01
 -14.030  0.9382E+01  0.1768E+01
 -14.020  0.9758E+01  0.1866E+01
 -14.010  0.1014E+02  0.1967E+01
 -14.000  0.1053E+02  0.2072E+01
 -13.990  0.1092E+02  0.2182E+01
 -13.980  0.1131E+02  0.2295E+01
 -13.970  0.1171E+02  0.2412E+01
 -13.960  0.1211E+02  0.2533E+01
 -13.950  0.1252E+02  0.2658E+01
 -13.940  0.1292E+02  0.2787E+01
 -13.930  0.1333E+02  0.2921E+01
 -13.920  0.1374E+02  0.3058E+01
 -13.910  0.1415E+02  0.3200E+01
 -13.900  0.1456E+02  0.3345E+01
 -13.890  0.1497E+02  0.3495E+01
 -13.880  0.1537E+02  0.3649E+01
 -13.870  0.1577E+02  0.3806E+01
 -13.860  0.1617E+02  0.3968E+01
 -13.850  0.1657E+02  0.4134E+01
 -13.840  0.1696E+02  0.4303E+01
 -13.830  0.1734E+02  0.4477E+01
 -13.820  0.1772E+02  0.4654E+01
 -13.810  0.1809E+02  0.4835E+01
 -13.800  0.1845E+02  0.5019E+01
 -13.790  0.1881E+02  0.5207E+01
 -13.780  0.1915E+02  0.5399E+01
 -13.770  0.1949E+02  0.5594E+01
 -13.760  0.1981E+02  0.5792E+01
 -13.750  0.2013E+02  0.5993E+01
 -13.740  0.2043E+02  0.6198E+01
 -13.730  0.2072E+02  0.6405E+01
 -13.720  0.2099E+02  0.6615E+01
 -13.710  0.2126E+02  0.6827E+01
 -13.700  0.2150E+02  0.7042E+01
 -13.690  0.2174E+02  0.7260E+01
 -13.680  0.2196E+02  0.7479E+01
 -13.670  0.2216E+02  0.7701E+01
 -13.660  0.2234E+02  0.7924E+01
 -13.650  0.2251E+02  0.8149E+01
 -13.640  0.2266E+02  0.8376E+01
 -13.630  0.2280E+02  0.8604E+01
 -13.620  0.2291E+02  0.8833E+01
 -13.610  0.2301E+02  0.9063E+01
 -13.600  0.2309E+02  0.9294E+01
 -13.590  0.2315E+02  0.9526E+01
 -13.580  0.2319E+02  0.9758E+01
 -13.570  0.2322E+02  0.9990E+01
 -13.560  0.2322E+02  0.1022E+02
 -13.550  0.2321E+02  0.1045E+02
 -13.540  0.2318E+02  0.1069E+02
 -13.530  0.2312E+02  0.1092E+02
 -13.520  0.2305E+02  0.1115E+02
 -13.510  0.2297E+02  0.1138E+02
 -13.500  0.2286E+02  0.1161E+02
 -13.490  0.2273E+02  0.1183E+02
 -13.480  0.2259E+02  0.1206E+02
 -13.470  0.2243E+02  0.1228E+02
 -13.460  0.2225E+02  0.1251E+02
 -13.450  0.2206E+02  0.1273E+02
 -13.440  0.2185E+02  0.1294E+02
 -13.430  0.2162E+02  0.1316E+02
 -13.420  0.2138E+02  0.1337E+02
 -13.410  0.2112E+02  0.1359E+02
 -13.400  0.2085E+02  0.1379E+02
 -13.390  0.2056E+02  0.1400E+02
 -13.380  0.2026E+02  0.1420E+02
 -13.370  0.1995E+02  0.1440E+02
 -13.360  0.1962E+02  0.1460E+02
 -13.350  0.1929E+02  0.1479E+02
 -13.340  0.1894E+02  0.1498E+02
 -13.330  0.1859E+02  0.1517E+02
 -13.320  0.1822E+02  0.1535E+02
 -13.310  0.1785E+02  0.1553E+02
 -13.300  0.1747E+02  0.1570E+02
 -13.290  0.1708E+02  0.1587E+02
 -13.280  0.1669E+02  0.1604E+02
 -13.270  0.1629E+02  0.1620E+02
 -13.260  0.1589E+02  0.1636E+02
 -13.250  0.1548E+02  0.1652E+02
 -13.240  0.1507E+02  0.1667E+02
 -13.230  0.1466E+02  0.1681E+02
 -13.220  0.1424E+02  0.1696E+02
 -13.210  0.1383E+02  0.1709E+02
 -13.200  0.1341E+02  0.1723E+02
 -13.190  0.1300E+02  0.1736E+02
 -13.180  0.1259E+02  0.1748E+02
 -13.170  0.1217E+02  0.1761E+02
 -13.160  0.1176E+02  0.1772E+02
 -13.150  0.1136E+02  0.1784E+02
 -13.140  0.1096E+02  0.1795E+02
 -13.130  0.1056E+02  0.1805E+02
 -13.120  0.1017E+02  0.1815E+02
 -13.110  0.9779E+01  0.1825E+02
 -13.100  0.9397E+01  0.1835E+02
 -13.090  0.9022E+01  0.1844E+02
 -13.080  0.8653E+01  0.1852E+02
 -13.070  0.8291E+01  0.1861E+02
 -13.060  0.7937E+01  0.1868E+02
 -13.050  0.7591E+01  0.1876E+02
 -13.040  0.7252E+01  0.1883E+02
 -13.030  0.6922E+01  0.1890E+02
 -13.020  0.6601E+01  0.1897E+02
 -13.010  0.6288E+01  0.1903E+02
 -13.000  0.5984E+01  0.1909E+02
 -12.990  0.5689E+01  0.1915E+02
 -12.980  0.5404E+01  0.1920E+02
 -12.970  0.5127E+01  0.1925E+02
 -12.960  0.4860E+01  0.1930E+02
 -12.950  0.4602E+01  0.1935E+02
 -12.940  0.4353E+01  0.1939E+02
 -12.930  0.4114E+01  0.1943E+02
 -12.920  0.3884E+01  0.1947E+02
 -12.910  0.3663E+01  0.1951E+02
 -12.900  0.3451E+01  0.1954E+02
 -12.890  0.3248E+01  0.1958E+02
 -12.880  0.3054E+01  0.1961E+02
 -12.870  0.2868E+01  0.1963E+02
 -12.860  0.2691E+01  0.1966E+02
 -12.850  0.2523E+01  0.1969E+02
 -12.840  0.2362E+01  0.1971E+02
 -12.830  0.2209E+01  0.1973E+02
 -12.820  0.2064E+01  0.1975E+02
 -12.810  0.1927E+01  0.1977E+02
 -12.800  0.1797E+01  0.1979E+02
 -12.790  0.1673E+01  0.1981E+02
 -12.780  0.1557E+01  0.1982E+02
 -12.770  0.1447E+01  0.1984E+02
 -12.760  0.1344E+01  0.1985E+02
 -12.750  0.1246E+01  0.1986E+02
 -12.740  0.1155E+01  0.1987E+02
 -12.730  0.1069E+01  0.1989E+02
 -12.720  0.9880E+00  0.1990E+02
 -12.710  0.9124E+00  0.1990E+02
 -12.700  0.8418E+00  0.1991E+02
 -12.690  0.7757E+00  0.1992E+02
 -12.680  0.7141E+00  0.1993E+02
 -12.670  0.6567E+00  0.1993E+02
 -12.660  0.6032E+00  0.1994E+02
 -12.650  0.5535E+00  0.1995E+02
 -12.640  0.5073E+00  0.1995E+02
 -12.630  0.4645E+00  0.1996E+02
 -12.620  0.4248E+00  0.1996E+02
 -12.610  0.3881E+00  0.1996E+02
 -12.600  0.3541E+00  0.1997E+02
 -12.590  0.3228E+00  0.1997E+02
 -12.580  0.2940E+00  0.1997E+02
 -12.570  0.2674E+00  0.1998E+02
 -12.560  0.2429E+00  0.1998E+02
 -12.550  0.2205E+00  0.1998E+02
 -12.540  0.1999E+00  0.1998E+02
 -12.530  0.1810E+00  0.1998E+02
 -12.520  0.1637E+00  0.1999E+02
 -12.510  0.1479E+00  0.1999E+02
 -12.500  0.1335E+00  0.1999E+02
 -12.490  0.1204E+00  0.1999E+02
 -12.480  0.1084E+00  0.1999E+02
 -12.470  0.9751E-01  0.1999E+02
 -12.460  0.8761E-01  0.1999E+02
 -12.450  0.7863E-01  0.1999E+02
 -12.440  0.7049E-01  0.1999E+02
 -12.430  0.6313E-01  0.2000E+02
 -12.420  0.5647E-01  0.2000E+02
 -12.410  0.5045E-01  0.2000E+02
 -12.400  0.4503E-01  0.2000E+02
 -12.390  0.4014E-01  0.2000E+02
 -12.380  0.3575E-01  0.2000E+02
 -12.370  0.3180E-01  0.2000E+02
 -12.360  0.2825E-01  0.2000E+02
 -12.350  0.2507E-01  0.2000E+02
 -12.340  0.2222E-01  0.2000E+02
 -12.330  0.1968E-01  0.2000E+02
 -12.320  0.1740E-01  0.2000E+02
 -12.310  0.1538E-01  0.2000E+02
 -12.300  0.1357E-01  0.2000E+02
 -12.290  0.1196E-01  0.2000E+02
 -12.280  0.1053E-01  0.2000E+02
 -12.270  0.9259E-02  0.2000E+02
 -12.260  0.8134E-02  0.2000E+02
 -12.250  0.7137E-02  0.2000E+02
 -12.240  0.6255E-02  0.2000E+02
 -12.230  0.5475E-02  0.2000E+02
 -12.220  0.4788E-02  0.2000E+02
 -12.210  0.4182E-02  0.2000E+02
 -12.200  0.3648E-02  0.2000E+02
 -12.190  0.3179E-02  0.2000E+02
 -12.180  0.2767E-02  0.2000E+02
 -12.170  0.2405E-02  0.2000E+02
 -12.160  0.2089E-02  0.2000E+02
 -12.150  0.1812E-02  0.2000E+02
 -12.140  0.1570E-02  0.2000E+02
 -12.130  0.1359E-02  0.2000E+02
 -12.120  0.1174E-02  0.2000E+02
 -12.110  0.1014E-02  0.2000E+02
 -12.100  0.8744E-03  0.2000E+02
 -12.090  0.7532E-03  0.2000E+02
 -12.080  0.6481E-03  0.2000E+02
 -12.070  0.5570E-03  0.2000E+02
 -12.060  0.4781E-03  0.2000E+02
 -12.050  0.4100E-03  0.2000E+02
 -12.040  0.3511E-03  0.2000E+02
 -12.030  0.3004E-03  0.2000E+02
 -12.020  0.2566E-03  0.2000E+02
 -12.010  0.2190E-03  0.2000E+02
 -12.000  0.1867E-03  0.2000E+02
 -11.990  0.1590E-03  0.2000E+02
 -11.980  0.1352E-03  0.2000E+02
 -11.970  0.1149E-03  0.2000E+02
 -11.960  0.9747E-04  0.2000E+02
 -11.950  0.8260E-04  0.2000E+02
 -11.940  0.6993E-04  0.2000E+02
 -11.930  0.5913E-04  0.2000E+02
 -11.920  0.4994E-04  0.2000E+02
 -11.910  0.4213E-04  0.2000E+02
 -11.900  0.3549E-04  0.2000E+02
 -11.890  0.2987E-04  0.2000E+02
 -11.880  0.2511E-04  0.2000E+02
 -11.870  0.2108E-04  0.2000E+02
 -11.860  0.1768E-04  0.2000E+02
 -11.850  0.1481E-04  0.2000E+02
 -11.840  0.1239E-04  0.2000E+02
 -11.830  0.1036E-04  0.2000E+02
 -11.820  0.8646E-05  0.2000E+02
 -11.810  0.7209E-05  0.2000E+02
 -11.800  0.6004E-05  0.2000E+02
 -11.790  0.4994E-05  0.2000E+02
 -11.780  0.4149E-05  0.2000E+02
 -11.770  0.3443E-05  0.2000E+02
 -11.760  0.2854E-05  0.2000E+02
 -11.750  0.2363E-05  0.2000E+02
 -11.740  0.1954E-05  0.2000E+02
 -11.730  0.1614E-05  0.2000E+02
 -11.720  0.1332E-05  0.2000E+02
 -11.710  0.1097E-05  0.2000E+02
 -11.700  0.9031E-06  0.2000E+02
 -11.690  0.7425E-06  0.2000E+02
 -11.680  0.6097E-06  0.2000E+02
 -11.670  0.5000E-06  0.2000E+02
 -11.660  0.4096E-06  0.2000E+02
 -11.650  0.3352E-06  0.2000E+02
 -11.640  0.2739E-06  0.2000E+02
 -11.630  0.2236E-06  0.2000E+02
 -11.620  0.1823E-06  0.2000E+02
 -11.610  0.1485E-06  0.2000E+02
 -11.600  0.1208E-06  0.2000E+02
 -11.590  0.9813E-07  0.2000E+02
 -11.580  0.7963E-07  0.2000E+02
 -11.570  0.6455E-07  0.2000E+02
 -11.560  0.5226E-07  0.2000E+02
 -11.550  0.4226E-07  0.2000E+02
 -11.540  0.3413E-07  0.2000E+02
 -11.530  0.2754E-07  0.2000E+02
 -11.520  0.2219E-07  0.2000E+02
 -11.510  0.1786E-07  0.2000E+02
 -11.500  0.1436E-07  0.2000E+02
 -11.490  0.1153E-07  0.2000E+02
 -11.480  0.9244E-08  0.2000E+02
 -11.470  0.7405E-08  0.2000E+02
 -11.460  0.5925E-08  0.2000E+02
 -11.450  0.4735E-08  0.2000E+02
 -11.440  0.3779E-08  0.2000E+02
 -11.430  0.3013E-08  0.2000E+02
 -11.420  0.2399E-08  0.2000E+02
 -11.410  0.1908E-08  0.2000E+02
 -11.400  0.1516E-08  0.2000E+02
 -11.390  0.1203E-08  0.2000E+02
 -11.380  0.9534E-09  0.2000E+02
 -11.370  0.7548E-09  0.2000E+02
 -11.360  0.5968E-09  0.2000E+02
 -11.350  0.4713E-09  0.2000E+02
 -11.340  0.3718E-09  0.2000E+02
 -11.330  0.2929E-09  0.2000E+02
 -11.320  0.2305E-09  0.2000E+02
 -11.310  0.1812E-09  0.2000E+02
 -11.300  0.1422E-09  0.2000E+02
 -11.290  0.1115E-09  0.2000E+02
 -11.280  0.8735E-10  0.2000E+02
 -11.270  0.6833E-10  0.2000E+02
 -11.260  0.5339E-10  0.2000E+02
 -11.250  0.4167E-10  0.2000E+02
 -11.240  0.3248E-10  0.2000E+02
 -11.230  0.2529E-10  0.2000E+02
 -11.220  0.1967E-10  0.2000E+02
 -11.210  0.1528E-10  0.2000E+02
 -11.200  0.1185E-10  0.2000E+02
 -11.190  0.9183E-11  0.2000E+02
 -11.180  0.7107E-11  0.2000E+02
 -11.170  0.5494E-11  0.2000E+02
 -11.160  0.4242E-11  0.2000E+02
 -11.150  0.3272E-11  0.2000E+02
 -11.140  0.2520E-11  0.2000E+02
 -11.130  0.1939E-11  0.2000E+02
 -11.120  0.1490E-11  0.2000E+02
 -11.110  0.1144E-11  0.2000E+02
 -11.100  0.8768E-12  0.2000E+02
 -11.090  0.6714E-12  0.2000E+02
 -11.080  0.5135E-12  0.2000E+02
 -11.070  0.3923E-12  0.2000E+02
 -11.060  0.2993E-12  0.2000E+02
 -11.050  0.2281E-12  0.2000E+02
 -11.040  0.1736E-12  0.2000E+02
 -11.030  0.1320E-12  0.2000E+02
 -11.020  0.1002E-12  0.2000E+02
 -11.010  0.7603E-13  0.2000E+02
 -11.000  0.5760E-13  0.2000E+02
 -10.990  0.4359E-13  0.2000E+02
 -10.980  0.3294E-13  0.2000E+02
 -10.970  0.2487E-13  0.2000E+02
 -10.960  0.1875E-13  0.2000E+02
 -10.950  0.1412E-13  0.2000E+02
 -10.940  0.1062E-13  0.2000E+02
 -10.930  0.7979E-14  0.2000E+02
 -10.920  0.5987E-14  0.2000E+02
 -10.910  0.4488E-14  0.2000E+02
 -10.900  0.3359E-14  0.2000E+02
 -10.890  0.2512E-14  0.2000E+02
 -10.880  0.1876E-14  0.2000E+02
 -10.870  0.1399E-14  0.2000E+02
 -10.860  0.1043E-14  0.2000E+02
 -10.850  0.7759E-15  0.2000E+02
 -10.840  0.5767E-15  0.2000E+02
 -10.830  0.4281E-15  0.2000E+02
 -10.820  0.3175E-15  0.2000E+02
 -10.810  0.2351E-15  0.2000E+02
 -10.800  0.1739E-15  0.2000E+02
 -10.790  0.1285E-15  0.2000E+02
 -10.780  0.9483E-16  0.2000E+02
 -10.770  0.6990E-16  0.2000E+02
 -10.760  0.5146E-16  0.2000E+02
 -10.750  0.3784E-16  0.2000E+02
 -10.740  0.2779E-16  0.2000E+02
 -10.730  0.2039E-16  0.2000E+02
 -10.720  0.1494E-16  0.2000E+02
 -10.710  0.1093E-16  0.2000E+02
 -10.700  0.7992E-17  0.2000E+02
 -10.690  0.5835E-17  0.2000E+02
 -10.680  0.4255E-17  0.2000E+02
 -10.670  0.3099E-17  0.2000E+02
 -10.660  0.2255E-17  0.2000E+02
 -10.650  0.1638E-17  0.2000E+02
 -10.640  0.1189E-17  0.2000E+02
 -10.630  0.8619E-18  0.2000E+02
 -10.620  0.6241E-18  0.2000E+02
 -10.610  0.4513E-18  0.2000E+02
 -10.600  0.3260E-18  0.2000E+02
 -10.590  0.2352E-18  0.2000E+02
 -10.580  0.1695E-18  0.2000E+02
 -10.570  0.1220E-18  0.2000E+02
 -10.560  0.8767E-19  0.2000E+02
 -10.550  0.6295E-19  0.2000E+02
 -10.540  0.4514E-19  0.2000E+02
 -10.530  0.3234E-19  0.2000E+02
 -10.520  0.2313E-19  0.2000E+02
 -10.510  0.1653E-19  0.2000E+02
 -10.500  0.1180E-19  0.2000E+02
 -10.490  0.8411E-20  0.2000E+02
 -10.480  0.5989E-20  0.2000E+02
 -10.470  0.4259E-20  0.2000E+02
 -10.460  0.3026E-20  0.2000E+02
 -10.450  0.2147E-20  0.2000E+02
 -10.440  0.1521E-20  0.2000E+02
 -10.430  0.1077E-20  0.2000E+02
 -10.420  0.7611E-21  0.2000E+02
 -10.410  0.5374E-21  0.2000E+02
 -10.400  0.3790E-21  0.2000E+02
 -10.390  0.2670E-21  0.2000E+02
 -10.380  0.1878E-21  0.2000E+02
 -10.370  0.1320E-21  0.2000E+02
 -10.360  0.9265E-22  0.2000E+02
 -10.350  0.6495E-22  0.2000E+02
 -10.340  0.4548E-22  0.2000E+02
 -10.330  0.3181E-22  0.2000E+02
 -10.320  0.2222E-22  0.2000E+02
 -10.310  0.1550E-22  0.2000E+02
 -10.300  0.1080E-22  0.2000E+02
 -10.290  0.7520E-23  0.2000E+02
 -10.280  0.5228E-23  0.2000E+02
 -10.270  0.3630E-23  0.2000E+02
 -10.260  0.2518E-23  0.2000E+02
 -10.250  0.1744E-23  0.2000E+02
 -10.240  0.1207E-23  0.2000E+02
 -10.230  0.8340E-24  0.2000E+02
 -10.220  0.5757E-24  0.2000E+02
 -10.210  0.3969E-24  0.2000E+02
 -10.200  0.2733E-24  0.2000E+02
 -10.190  0.1880E-24  0.2000E+02
 -10.180  0.1291E-24  0.2000E+02
 -10.170  0.8859E-25  0.2000E+02
 -10.160  0.6072E-25  0.2000E+02
 -10.150  0.4156E-25  0.2000E+02
 -10.140  0.2841E-25  0.2000E+02
 -10.130  0.1940E-25  0.2000E+02
 -10.120  0.1323E-25  0.2000E+02
 -10.110  0.9015E-26  0.2000E+02
 -10.100  0.6134E-26  0.2000E+02
 -10.090  0.4169E-26  0.2000E+02
 -10.080  0.2830E-26  0.2000E+02
 -10.070  0.1918E-26  0.2000E+02
 -10.060  0.1299E-26  0.2000E+02
 -10.050  0.8787E-27  0.2000E+02
 -10.040  0.5936E-27  0.2000E+02
 -10.030  0.4005E-27  0.2000E+02
 -10.020  0.2699E-27  0.2000E+02
 -10.010  0.1817E-27  0.2000E+02
 -10.000  0.1222E-27  0.2000E+02
  -9.990  0.8203E-28  0.2000E+02
  -9.980  0.5502E-28  0.2000E+02
  -9.970  0.3686E-28  0.2000E+02
  -9.960  0.2466E-28  0.2000E+02
  -9.950  0.1648E-28  0.2000E+02
  -9.940  0.1100E-28  0.2000E+02
  -9.930  0.7336E-29  0.2000E+02
  -9.920  0.4885E-29  0.2000E+02
  -9.910  0.3249E-29  0.2000E+02
  -9.900  0.2159E-29  0.2000E+02
  -9.890  0.1432E-29  0.2000E+02
  -9.880  0.9493E-30  0.2000E+02
  -9.870  0.6284E-30  0.2000E+02
  -9.860  0.4155E-30  0.2000E+02
  -9.850  0.2744E-30  0.2000E+02
  -9.840  0.1810E-30  0.2000E+02
  -9.830  0.1192E-30  0.2000E+02
  -9.820  0.7844E-31  0.2000E+02
  -9.810  0.5155E-31  0.2000E+02
  -9.800  0.3384E-31  0.2000E+02
  -9.790  0.2219E-31  0.2000E+02
  -9.780  0.1453E-31  0.2000E+02
  -9.770  0.9504E-32  0.2000E+02
  -9.760  0.6209E-32  0.2000E+02
  -9.750  0.4052E-32  0.2000E+02
  -9.740  0.2641E-32  0.2000E+02
  -9.730  0.1719E-32  0.2000E+02
  -9.720  0.1118E-32  0.2000E+02
  -9.710  0.7258E-33  0.2000E+02
  -9.700  0.4708E-33  0.2000E+02
  -9.690  0.3050E-33  0.2000E+02
  -9.680  0.1973E-33  0.2000E+02
  -9.670  0.1275E-33  0.2000E+02
  -9.660  0.8233E-34  0.2000E+02
  -9.650  0.5308E-34  0.2000E+02
  -9.640  0.3419E-34  0.2000E+02
  -9.630  0.2199E-34  0.2000E+02
  -9.620  0.1413E-34  0.2000E+02
  -9.610  0.9065E-35  0.2000E+02
  -9.600  0.5810E-35  0.2000E+02
  -9.590  0.3719E-35  0.2000E+02
  -9.580  0.2378E-35  0.2000E+02
  -9.570  0.1519E-35  0.2000E+02
  -9.560  0.9686E-36  0.2000E+02
  -9.550  0.6171E-36  0.2000E+02
  -9.540  0.3927E-36  0.2000E+02
  -9.530  0.2496E-36  0.2000E+02
  -9.520  0.1584E-36  0.2000E+02
  -9.510  0.1004E-36  0.2000E+02
  -9.500  0.6361E-37  0.2000E+02
  -9.490  0.4024E-37  0.2000E+02
  -9.480  0.2542E-37  0.2000E+02
  -9.470  0.1604E-37  0.2000E+02
  -9.460  0.1011E-37  0.2000E+02
  -9.450  0.6364E-38  0.2000E+02
  -9.440  0.4001E-38  0.2000E+02
  -9.430  0.2513E-38  0.2000E+02
  -9.420  0.1576E-38  0.2000E+02
  -9.410  0.9875E-39  0.2000E+02
  -9.400  0.6179E-39  0.2000E+02
  -9.390  0.3862E-39  0.2000E+02
  -9.380  0.2411E-39  0.2000E+02
  -9.370  0.1503E-39  0.2000E+02
  -9.360  0.9361E-40  0.2000E+02
  -9.350  0.5823E-40  0.2000E+02
  -9.340  0.3618E-40  0.2000E+02
  -9.330  0.2245E-40  0.2000E+02
  -9.320  0.1391E-40  0.2000E+02
  -9.310  0.8613E-41  0.2000E+02
  -9.300  0.5325E-41  0.2000E+02
  -9.290  0.3289E-41  0.2000E+02
  -9.280  0.2029E-41  0.2000E+02
  -9.270  0.1250E-41  0.2000E+02
  -9.260  0.7690E-42  0.2000E+02
  -9.250  0.4727E-42  0.2000E+02
  -9.240  0.2902E-42  0.2000E+02
  -9.230  0.1779E-42  0.2000E+02
  -9.220  0.1090E-42  0.2000E+02
  -9.210  0.6664E-43  0.2000E+02
  -9.200  0.4072E-43  0.2000E+02
  -9.190  0.2485E-43  0.2000E+02
  -9.180  0.1514E-43  0.2000E+02
  -9.170  0.9218E-44  0.2000E+02
  -9.160  0.5605E-44  0.2000E+02
  -9.150  0.3404E-44  0.2000E+02
  -9.140  0.2065E-44  0.2000E+02
  -9.130  0.1251E-44  0.2000E+02
  -9.120  0.7569E-45  0.2000E+02
  -9.110  0.4575E-45  0.2000E+02
  -9.100  0.2762E-45  0.2000E+02
  -9.090  0.1665E-45  0.2000E+02
  -9.080  0.1003E-45  0.2000E+02
  -9.070  0.6032E-46  0.2000E+02
  -9.060  0.3624E-46  0.2000E+02
  -9.050  0.2175E-46  0.2000E+02
  -9.040  0.1303E-46  0.2000E+02
  -9.030  0.7802E-47  0.2000E+02
  -9.020  0.4665E-47  0.2000E+02
  -9.010  0.2786E-47  0.2000E+02
  -9.000  0.1662E-47  0.2000E+02
  -8.990  0.9901E-48  0.2000E+02
  -8.980  0.5891E-48  0.2000E+02
  -8.970  0.3502E-48  0.2000E+02
  -8.960  0.2079E-48  0.2000E+02
  -8.950  0.1232E-48  0.2000E+02
  -8.940  0.7299E-49  0.2000E+02
  -8.930  0.4317E-49  0.2000E+02
  -8.920  0.2551E-49  0.2000E+02
  -8.910  0.1505E-49  0.2000E+02
  -8.900  0.8871E-50  0.2000E+02
  -8.890  0.5222E-50  0.2000E+02
  -8.880  0.3071E-50  0.2000E+02
  -8.870  0.1803E-50  0.2000E+02
  -8.860  0.1058E-50  0.2000E+02
  -8.850  0.6197E-51  0.2000E+02
  -8.840  0.3626E-51  0.2000E+02
  -8.830  0.2119E-51  0.2000E+02
  -8.820  0.1237E-51  0.2000E+02
  -8.810  0.7214E-52  0.2000E+02
  -8.800  0.4201E-52  0.2000E+02
  -8.790  0.2444E-52  0.2000E+02
  -8.780  0.1420E-52  0.2000E+02
  -8.770  0.8238E-53  0.2000E+02
  -8.760  0.4775E-53  0.2000E+02
  -8.750  0.2764E-53  0.2000E+02
  -8.740  0.1598E-53  0.2000E+02
  -8.730  0.9229E-54  0.2000E+02
  -8.720  0.5324E-54  0.2000E+02
  -8.710  0.3067E-54  0.2000E+02
  -8.700  0.1765E-54  0.2000E+02
  -8.690  0.1014E-54  0.2000E+02
  -8.680  0.5823E-55  0.2000E+02
  -8.670  0.3339E-55  0.2000E+02
  -8.660  0.1912E-55  0.2000E+02
  -8.650  0.1094E-55  0.2000E+02
  -8.640  0.6249E-56  0.2000E+02
  -8.630  0.3566E-56  0.2000E+02
  -8.620  0.2032E-56  0.2000E+02
  -8.610  0.1157E-56  0.2000E+02
  -8.600  0.6578E-57  0.2000E+02
  -8.590  0.3735E-57  0.2000E+02
  -8.580  0.2119E-57  0.2000E+02
  -8.570  0.1200E-57  0.2000E+02
  -8.560  0.6793E-58  0.2000E+02
  -8.550  0.3839E-58  0.2000E+02
  -8.540  0.2167E-58  0.2000E+02
  -8.530  0.1222E-58  0.2000E+02
  -8.520  0.6882E-59  0.2000E+02
  -8.510  0.3871E-59  0.2000E+02
  -8.500  0.2175E-59  0.2000E+02
  -8.490  0.1220E-59  0.2000E+02
  -8.480  0.6839E-60  0.2000E+02
  -8.470  0.3829E-60  0.2000E+02
  -8.460  0.2141E-60  0.2000E+02
  -8.450  0.1195E-60  0.2000E+02
  -8.440  0.6668E-61  0.2000E+02
  -8.430  0.3715E-61  0.2000E+02
  -8.420  0.2067E-61  0.2000E+02
  -8.410  0.1149E-61  0.2000E+02
  -8.400  0.6378E-62  0.2000E+02
  -8.390  0.3536E-62  0.2000E+02
  -8.380  0.1958E-62  0.2000E+02
  -8.370  0.1083E-62  0.2000E+02
  -8.360  0.5985E-63  0.2000E+02
  -8.350  0.3302E-63  0.2000E+02
  -8.340  0.1820E-63  0.2000E+02
  -8.330  0.1002E-63  0.2000E+02
  -8.320  0.5509E-64  0.2000E+02
  -8.310  0.3025E-64  0.2000E+02
  -8.300  0.1659E-64  0.2000E+02
  -8.290  0.9091E-65  0.2000E+02
  -8.280  0.4975E-65  0.2000E+02
  -8.270  0.2719E-65  0.2000E+02
  -8.260  0.1484E-65  0.2000E+02
  -8.250  0.8093E-66  0.2000E+02
  -8.240  0.4407E-66  0.2000E+02
  -8.230  0.2397E-66  0.2000E+02
  -8.220  0.1302E-66  0.2000E+02
  -8.210  0.7067E-67  0.2000E+02
  -8.200  0.3830E-67  0.2000E+02
  -8.190  0.2073E-67  0.2000E+02
  -8.180  0.1121E-67  0.2000E+02
  -8.170  0.6054E-68  0.2000E+02
  -8.160  0.3265E-68  0.2000E+02
  -8.150  0.1759E-68  0.2000E+02
  -8.140  0.9466E-69  0.2000E+02
  -8.130  0.5088E-69  0.2000E+02
  -8.120  0.2731E-69  0.2000E+02
  -8.110  0.1464E-69  0.2000E+02
  -8.100  0.7842E-70  0.2000E+02
  -8.090  0.4194E-70  0.2000E+02
  -8.080  0.2241E-70  0.2000E+02
  -8.070  0.1196E-70  0.2000E+02
  -8.060  0.6373E-71  0.2000E+02
  -8.050  0.3392E-71  0.2000E+02
  -8.040  0.1804E-71  0.2000E+02
  -8.030  0.9580E-72  0.2000E+02
  -8.020  0.5084E-72  0.2000E+02
  -8.010  0.2698E-72  0.2000E+02
  -8.000  0.1436E-72  0.2000E+02
  -7.990  0.7740E-73  0.2000E+02
  -7.980  0.4373E-73  0.2000E+02
  -7.970  0.2845E-73  0.2000E+02
  -7.960  0.2509E-73  0.2000E+02
  -7.950  0.3213E-73  0.2000E+02
  -7.940  0.5230E-73  0.2000E+02
  -7.930  0.9361E-73  0.2000E+02
  -7.920  0.1725E-72  0.2000E+02
  -7.910  0.3204E-72  0.2000E+02
  -7.900  0.5959E-72  0.2000E+02
  -7.890  0.1108E-71  0.2000E+02
  -7.880  0.2057E-71  0.2000E+02
  -7.870  0.3815E-71  0.2000E+02
  -7.860  0.7068E-71  0.2000E+02
  -7.850  0.1308E-70  0.2000E+02
  -7.840  0.2418E-70  0.2000E+02
  -7.830  0.4463E-70  0.2000E+02
  -7.820  0.8229E-70  0.2000E+02
  -7.810  0.1516E-69  0.2000E+02
  -7.800  0.2788E-69  0.2000E+02
  -7.790  0.5122E-69  0.2000E+02
  -7.780  0.9400E-69  0.2000E+02
  -7.770  0.1723E-68  0.2000E+02
  -7.760  0.3154E-68  0.2000E+02
  -7.750  0.5768E-68  0.2000E+02
  -7.740  0.1053E-67  0.2000E+02
  -7.730  0.1922E-67  0.2000E+02
  -7.720  0.3501E-67  0.2000E+02
  -7.710  0.6372E-67  0.2000E+02
  -7.700  0.1158E-66  0.2000E+02
  -7.690  0.2103E-66  0.2000E+02
  -7.680  0.3813E-66  0.2000E+02
  -7.670  0.6906E-66  0.2000E+02
  -7.660  0.1249E-65  0.2000E+02
  -7.650  0.2258E-65  0.2000E+02
  -7.640  0.4074E-65  0.2000E+02
  -7.630  0.7344E-65  0.2000E+02
  -7.620  0.1322E-64  0.2000E+02
  -7.610  0.2378E-64  0.2000E+02
  -7.600  0.4271E-64  0.2000E+02
  -7.590  0.7663E-64  0.2000E+02
  -7.580  0.1373E-63  0.2000E+02
  -7.570  0.2457E-63  0.2000E+02
  -7.560  0.4393E-63  0.2000E+02
  -7.550  0.7844E-63  0.2000E+02
  -7.540  0.1399E-62  0.2000E+02
  -7.530  0.2492E-62  0.2000E+02
  -7.520  0.4433E-62  0.2000E+02
  -7.510  0.7878E-62  0.2000E+02
  -7.500  0.1398E-61  0.2000E+02
  -7.490  0.2479E-61  0.2000E+02
  -7.480  0.4389E-61  0.2000E+02
  -7.470  0.7763E-61  0.2000E+02
  -7.460  0.1371E-60  0.2000E+02
  -7.450  0.2420E-60  0.2000E+02
  -7.440  0.4264E-60  0.2000E+02
  -7.430  0.7505E-60  0.2000E+02
  -7.420  0.1320E-59  0.2000E+02
  -7.410  0.2317E-59  0.2000E+02
  -7.400  0.4064E-59  0.2000E+02
  -7.390  0.7120E-59  0.2000E+02
  -7.380  0.1246E-58  0.2000E+02
  -7.370  0.2177E-58  0.2000E+02
  -7.360  0.3801E-58  0.2000E+02
  -7.350  0.6626E-58  0.2000E+02
  -7.340  0.1154E-57  0.2000E+02
  -7.330  0.2007E-57  0.2000E+02
  -7.320  0.3487E-57  0.2000E+02
  -7.310  0.6051E-57  0.2000E+02
  -7.300  0.1049E-56  0.2000E+02
  -7.290  0.1816E-56  0.2000E+02
  -7.280  0.3139E-56  0.2000E+02
  -7.270  0.5421E-56  0.2000E+02
  -7.260  0.9352E-56  0.2000E+02
  -7.250  0.1611E-55  0.2000E+02
  -7.240  0.2773E-55  0.2000E+02
  -7.230  0.4766E-55  0.2000E+02
  -7.220  0.8182E-55  0.2000E+02
  -7.210  0.1403E-54  0.2000E+02
  -7.200  0.2403E-54  0.2000E+02
  -7.190  0.4111E-54  0.2000E+02
  -7.180  0.7024E-54  0.2000E+02
  -7.170  0.1199E-53  0.2000E+02
  -7.160  0.2043E-53  0.2000E+02
  -7.150  0.3479E-53  0.2000E+02
  -7.140  0.5916E-53  0.2000E+02
  -7.130  0.1005E-52  0.2000E+02
  -7.120  0.1705E-52  0.2000E+02
  -7.110  0.2889E-52  0.2000E+02
  -7.100  0.4889E-52  0.2000E+02
  -7.090  0.8265E-52  0.2000E+02
  -7.080  0.1395E-51  0.2000E+02
  -7.070  0.2353E-51  0.2000E+02
  -7.060  0.3964E-51  0.2000E+02
  -7.050  0.6670E-51  0.2000E+02
  -7.040  0.1121E-50  0.2000E+02
  -7.030  0.1881E-50  0.2000E+02
  -7.020  0.3154E-50  0.2000E+02
  -7.010  0.5281E-50  0.2000E+02
  -7.000  0.8833E-50  0.2000E+02
  -6.990  0.1476E-49  0.2000E+02
  -6.980  0.2462E-49  0.2000E+02
  -6.970  0.4103E-49  0.2000E+02
  -6.960  0.6831E-49  0.2000E+02
  -6.950  0.1136E-48  0.2000E+02
  -6.940  0.1886E-48  0.2000E+02
  -6.930  0.3128E-48  0.2000E+02
  -6.920  0.5183E-48  0.2000E+02
  -6.910  0.8576E-48  0.2000E+02
  -6.900  0.1417E-47  0.2000E+02
  -6.890  0.2340E-47  0.2000E+02
  -6.880  0.3858E-47  0.2000E+02
  -6.870  0.6354E-47  0.2000E+02
  -6.860  0.1045E-46  0.2000E+02
  -6.850  0.1717E-46  0.2000E+02
  -6.840  0.2818E-46  0.2000E+02
  -6.830  0.4620E-46  0.2000E+02
  -6.820  0.7563E-46  0.2000E+02
  -6.810  0.1237E-45  0.2000E+02
  -6.800  0.2020E-45  0.2000E+02
  -6.790  0.3296E-45  0.2000E+02
  -6.780  0.5370E-45  0.2000E+02
  -6.770  0.8740E-45  0.2000E+02
  -6.760  0.1421E-44  0.2000E+02
  -6.750  0.2307E-44  0.2000E+02
  -6.740  0.3741E-44  0.2000E+02
  -6.730  0.6060E-44  0.2000E+02
  -6.720  0.9804E-44  0.2000E+02
  -6.710  0.1584E-43  0.2000E+02
  -6.700  0.2557E-43  0.2000E+02
  -6.690  0.4123E-43  0.2000E+02
  -6.680  0.6639E-43  0.2000E+02
  -6.670  0.1068E-42  0.2000E+02
  -6.660  0.1715E-42  0.2000E+02
  -6.650  0.2752E-42  0.2000E+02
  -6.640  0.4411E-42  0.2000E+02
  -6.630  0.7061E-42  0.2000E+02
  -6.620  0.1129E-41  0.2000E+02
  -6.610  0.1803E-41  0.2000E+02
  -6.600  0.2876E-41  0.2000E+02
  -6.590  0.4581E-41  0.2000E+02
  -6.580  0.7290E-41  0.2000E+02
  -6.570  0.1159E-40  0.2000E+02
  -6.560  0.1840E-40  0.2000E+02
  -6.550  0.2917E-40  0.2000E+02
  -6.540  0.4620E-40  0.2000E+02
  -6.530  0.7308E-40  0.2000E+02
  -6.520  0.1155E-39  0.2000E+02
  -6.510  0.1822E-39  0.2000E+02
  -6.500  0.2873E-39  0.2000E+02
  -6.490  0.4523E-39  0.2000E+02
  -6.480  0.7112E-39  0.2000E+02
  -6.470  0.1117E-38  0.2000E+02
  -6.460  0.1753E-38  0.2000E+02
  -6.450  0.2747E-38  0.2000E+02
  -6.440  0.4299E-38  0.2000E+02
  -6.430  0.6720E-38  0.2000E+02
  -6.420  0.1049E-37  0.2000E+02
  -6.410  0.1637E-37  0.2000E+02
  -6.400  0.2550E-37  0.2000E+02
  -6.390  0.3967E-37  0.2000E+02
  -6.380  0.6165E-37  0.2000E+02
  -6.370  0.9570E-37  0.2000E+02
  -6.360  0.1484E-36  0.2000E+02
  -6.350  0.2298E-36  0.2000E+02
  -6.340  0.3554E-36  0.2000E+02
  -6.330  0.5491E-36  0.2000E+02
  -6.320  0.8473E-36  0.2000E+02
  -6.310  0.1306E-35  0.2000E+02
  -6.300  0.2010E-35  0.2000E+02
  -6.290  0.3091E-35  0.2000E+02
  -6.280  0.4748E-35  0.2000E+02
  -6.270  0.7284E-35  0.2000E+02
  -6.260  0.1116E-34  0.2000E+02
  -6.250  0.1708E-34  0.2000E+02
  -6.240  0.2611E-34  0.2000E+02
  -6.230  0.3986E-34  0.2000E+02
  -6.220  0.6079E-34  0.2000E+02
  -6.210  0.9259E-34  0.2000E+02
  -6.200  0.1409E-33  0.2000E+02
  -6.190  0.2141E-33  0.2000E+02
  -6.180  0.3249E-33  0.2000E+02
  -6.170  0.4926E-33  0.2000E+02
  -6.160  0.7459E-33  0.2000E+02
  -6.150  0.1128E-32  0.2000E+02
  -6.140  0.1704E-32  0.2000E+02
  -6.130  0.2572E-32  0.2000E+02
  -6.120  0.3876E-32  0.2000E+02
  -6.110  0.5834E-32  0.2000E+02
  -6.100  0.8772E-32  0.2000E+02
  -6.090  0.1317E-31  0.2000E+02
  -6.080  0.1976E-31  0.2000E+02
  -6.070  0.2960E-31  0.2000E+02
  -6.060  0.4430E-31  0.2000E+02
  -6.050  0.6622E-31  0.2000E+02
  -6.040  0.9886E-31  0.2000E+02
  -6.030  0.1474E-30  0.2000E+02
  -6.020  0.2196E-30  0.2000E+02
  -6.010  0.3267E-30  0.2000E+02
  -6.000  0.4854E-30  0.2000E+02
  -5.990  0.7204E-30  0.2000E+02
  -5.980  0.1068E-29  0.2000E+02
  -5.970  0.1581E-29  0.2000E+02
  -5.960  0.2339E-29  0.2000E+02
  -5.950  0.3455E-29  0.2000E+02
  -5.940  0.5097E-29  0.2000E+02
  -5.930  0.7511E-29  0.2000E+02
  -5.920  0.1106E-28  0.2000E+02
  -5.910  0.1626E-28  0.2000E+02
  -5.900  0.2387E-28  0.2000E+02
  -5.890  0.3501E-28  0.2000E+02
  -5.880  0.5130E-28  0.2000E+02
  -5.870  0.7507E-28  0.2000E+02
  -5.860  0.1097E-27  0.2000E+02
  -5.850  0.1602E-27  0.2000E+02
  -5.840  0.2336E-27  0.2000E+02
  -5.830  0.3402E-27  0.2000E+02
  -5.820  0.4948E-27  0.2000E+02
  -5.810  0.7190E-27  0.2000E+02
  -5.800  0.1044E-26  0.2000E+02
  -5.790  0.1513E-26  0.2000E+02
  -5.780  0.2190E-26  0.2000E+02
  -5.770  0.3167E-26  0.2000E+02
  -5.760  0.4575E-26  0.2000E+02
  -5.750  0.6601E-26  0.2000E+02
  -5.740  0.9513E-26  0.2000E+02
  -5.730  0.1369E-25  0.2000E+02
  -5.720  0.1969E-25  0.2000E+02
  -5.710  0.2827E-25  0.2000E+02
  -5.700  0.4055E-25  0.2000E+02
  -5.690  0.5809E-25  0.2000E+02
  -5.680  0.8312E-25  0.2000E+02
  -5.670  0.1188E-24  0.2000E+02
  -5.660  0.1696E-24  0.2000E+02
  -5.650  0.2418E-24  0.2000E+02
  -5.640  0.3444E-24  0.2000E+02
  -5.630  0.4900E-24  0.2000E+02
  -5.620  0.6962E-24  0.2000E+02
  -5.610  0.9880E-24  0.2000E+02
  -5.600  0.1401E-23  0.2000E+02
  -5.590  0.1983E-23  0.2000E+02
  -5.580  0.2804E-23  0.2000E+02
  -5.570  0.3961E-23  0.2000E+02
  -5.560  0.5589E-23  0.2000E+02
  -5.550  0.7876E-23  0.2000E+02
  -5.540  0.1109E-22  0.2000E+02
  -5.530  0.1559E-22  0.2000E+02
  -5.520  0.2189E-22  0.2000E+02
  -5.510  0.3070E-22  0.2000E+02
  -5.500  0.4301E-22  0.2000E+02
  -5.490  0.6018E-22  0.2000E+02
  -5.480  0.8412E-22  0.2000E+02
  -5.470  0.1174E-21  0.2000E+02
  -5.460  0.1637E-21  0.2000E+02
  -5.450  0.2281E-21  0.2000E+02
  -5.440  0.3172E-21  0.2000E+02
  -5.430  0.4408E-21  0.2000E+02
  -5.420  0.6118E-21  0.2000E+02
  -5.410  0.8481E-21  0.2000E+02
  -5.400  0.1174E-20  0.2000E+02
  -5.390  0.1624E-20  0.2000E+02
  -5.380  0.2243E-20  0.2000E+02
  -5.370  0.3095E-20  0.2000E+02
  -5.360  0.4265E-20  0.2000E+02
  -5.350  0.5871E-20  0.2000E+02
  -5.340  0.8072E-20  0.2000E+02
  -5.330  0.1109E-19  0.2000E+02
  -5.320  0.1520E-19  0.2000E+02
  -5.310  0.2083E-19  0.2000E+02
  -5.300  0.2851E-19  0.2000E+02
  -5.290  0.3896E-19  0.2000E+02
  -5.280  0.5319E-19  0.2000E+02
  -5.270  0.7254E-19  0.2000E+02
  -5.260  0.9880E-19  0.2000E+02
  -5.250  0.1344E-18  0.2000E+02
  -5.240  0.1826E-18  0.2000E+02
  -5.230  0.2479E-18  0.2000E+02
  -5.220  0.3360E-18  0.2000E+02
  -5.210  0.4550E-18  0.2000E+02
  -5.200  0.6154E-18  0.2000E+02
  -5.190  0.8313E-18  0.2000E+02
  -5.180  0.1122E-17  0.2000E+02
  -5.170  0.1512E-17  0.2000E+02
  -5.160  0.2035E-17  0.2000E+02
  -5.150  0.2736E-17  0.2000E+02
  -5.140  0.3675E-17  0.2000E+02
  -5.130  0.4929E-17  0.2000E+02
  -5.120  0.6605E-17  0.2000E+02
  -5.110  0.8839E-17  0.2000E+02
  -5.100  0.1181E-16  0.2000E+02
  -5.090  0.1577E-16  0.2000E+02
  -5.080  0.2104E-16  0.2000E+02
  -5.070  0.2802E-16  0.2000E+02
  -5.060  0.3728E-16  0.2000E+02
  -5.050  0.4954E-16  0.2000E+02
  -5.040  0.6576E-16  0.2000E+02
  -5.030  0.8718E-16  0.2000E+02
  -5.020  0.1155E-15  0.2000E+02
  -5.010  0.1527E-15  0.2000E+02
  -5.000  0.2018E-15  0.2000E+02
  -4.990  0.2662E-15  0.2000E+02
  -4.980  0.3509E-15  0.2000E+02
  -4.970  0.4620E-15  0.2000E+02
  -4.960  0.6075E-15  0.2000E+02
  -4.950  0.7979E-15  0.2000E+02
  -4.940  0.1047E-14  0.2000E+02
  -4.930  0.1372E-14  0.2000E+02
  -4.920  0.1795E-14  0.2000E+02
  -4.910  0.2347E-14  0.2000E+02
  -4.900  0.3065E-14  0.2000E+02
  -4.890  0.3997E-14  0.2000E+02
  -4.880  0.5207E-14  0.2000E+02
  -4.870  0.6776E-14  0.2000E+02
  -4.860  0.8807E-14  0.2000E+02
  -4.850  0.1143E-13  0.2000E+02
  -4.840  0.1482E-13  0.2000E+02
  -4.830  0.1920E-13  0.2000E+02
  -4.820  0.2484E-13  0.2000E+02
  -4.810  0.3209E-13  0.2000E+02
  -4.800  0.4142E-13  0.2000E+02
  -4.790  0.5340E-13  0.2000E+02
  -4.780  0.6876E-13  0.2000E+02
  -4.770  0.8843E-13  0.2000E+02
  -4.760  0.1136E-12  0.2000E+02
  -4.750  0.1458E-12  0.2000E+02
  -4.740  0.1868E-12  0.2000E+02
  -4.730  0.2391E-12  0.2000E+02
  -4.720  0.3058E-12  0.2000E+02
  -4.710  0.3905E-12  0.2000E+02
  -4.700  0.4982E-12  0.2000E+02
  -4.690  0.6348E-12  0.2000E+02
  -4.680  0.8079E-12  0.2000E+02
  -4.670  0.1027E-11  0.2000E+02
  -4.660  0.1304E-11  0.2000E+02
  -4.650  0.1654E-11  0.2000E+02
  -4.640  0.2095E-11  0.2000E+02
  -4.630  0.2651E-11  0.2000E+02
  -4.620  0.3350E-11  0.2000E+02
  -4.610  0.4230E-11  0.2000E+02
  -4.600  0.5333E-11  0.2000E+02
  -4.590  0.6717E-11  0.2000E+02
  -4.580  0.8450E-11  0.2000E+02
  -4.570  0.1062E-10  0.2000E+02
  -4.560  0.1333E-10  0.2000E+02
  -4.550  0.1670E-10  0.2000E+02
  -4.540  0.2092E-10  0.2000E+02
  -4.530  0.2616E-10  0.2000E+02
  -4.520  0.3268E-10  0.2000E+02
  -4.510  0.4078E-10  0.2000E+02
  -4.500  0.5083E-10  0.2000E+02
  -4.490  0.6328E-10  0.2000E+02
  -4.480  0.7869E-10  0.2000E+02
  -4.470  0.9773E-10  0.2000E+02
  -4.460  0.1212E-09  0.2000E+02
  -4.450  0.1502E-09  0.2000E+02
  -4.440  0.1860E-09  0.2000E+02
  -4.430  0.2299E-09  0.2000E+02
  -4.420  0.2839E-09  0.2000E+02
  -4.410  0.3502E-09  0.2000E+02
  -4.400  0.4315E-09  0.2000E+02
  -4.390  0.5310E-09  0.2000E+02
  -4.380  0.6526E-09  0.2000E+02
  -4.370  0.8013E-09  0.2000E+02
  -4.360  0.9827E-09  0.2000E+02
  -4.350  0.1204E-08  0.2000E+02
  -4.340  0.1473E-08  0.2000E+02
  -4.330  0.1800E-08  0.2000E+02
  -4.320  0.2197E-08  0.2000E+02
  -4.310  0.2679E-08  0.2000E+02
  -4.300  0.3263E-08  0.2000E+02
  -4.290  0.3969E-08  0.2000E+02
  -4.280  0.4823E-08  0.2000E+02
  -4.270  0.5854E-08  0.2000E+02
  -4.260  0.7097E-08  0.2000E+02
  -4.250  0.8594E-08  0.2000E+02
  -4.240  0.1040E-07  0.2000E+02
  -4.230  0.1256E-07  0.2000E+02
  -4.220  0.1516E-07  0.2000E+02
  -4.210  0.1827E-07  0.2000E+02
  -4.200  0.2200E-07  0.2000E+02
  -4.190  0.2645E-07  0.2000E+02
  -4.180  0.3178E-07  0.2000E+02
  -4.170  0.3813E-07  0.2000E+02
  -4.160  0.4570E-07  0.2000E+02
  -4.150  0.5471E-07  0.2000E+02
  -4.140  0.6542E-07  0.2000E+02
  -4.130  0.7814E-07  0.2000E+02
  -4.120  0.9322E-07  0.2000E+02
  -4.110  0.1111E-06  0.2000E+02
  -4.100  0.1322E-06  0.2000E+02
  -4.090  0.1572E-06  0.2000E+02
  -4.080  0.1867E-06  0.2000E+02
  -4.070  0.2215E-06  0.2000E+02
  -4.060  0.2625E-06  0.2000E+02
  -4.050  0.3107E-06  0.2000E+02
  -4.040  0.3673E-06  0.2000E+02
  -4.030  0.4338E-06  0.2000E+02
  -4.020  0.5117E-06  0.2000E+02
  -4.010  0.6029E-06  0.2000E+02
  -4.000  0.7095E-06  0.2000E+02
  -3.990  0.8341E-06  0.2000E+02
  -3.980  0.9794E-06  0.2000E+02
  -3.970  0.1149E-05  0.2000E+02
  -3.960  0.1346E-05  0.2000E+02
  -3.950  0.1575E-05  0.2000E+02
  -3.940  0.1841E-05  0.2000E+02
  -3.930  0.2150E-05  0.2000E+02
  -3.920  0.2508E-05  0.2000E+02
  -3.910  0.2921E-05  0.2000E+02
  -3.900  0.3400E-05  0.2000E+02
  -3.890  0.3952E-05  0.2000E+02
  -3.880  0.4589E-05  0.2000E+02
  -3.870  0.5322E-05  0.2000E+02
  -3.860  0.6166E-05  0.2000E+02
  -3.850  0.7135E-05  0.2000E+02
  -3.840  0.8248E-05  0.2000E+02
  -3.830  0.9524E-05  0.2000E+02
  -3.820  0.1098E-04  0.2000E+02
  -3.810  0.1265E-04  0.2000E+02
  -3.800  0.1456E-04  0.2000E+02
  -3.790  0.1674E-04  0.2000E+02
  -3.780  0.1922E-04  0.2000E+02
  -3.770  0.2205E-04  0.2000E+02
  -3.760  0.2526E-04  0.2000E+02
  -3.750  0.2891E-04  0.2000E+02
  -3.740  0.3305E-04  0.2000E+02
  -3.730  0.3774E-04  0.2000E+02
  -3.720  0.4305E-04  0.2000E+02
  -3.710  0.4905E-04  0.2000E+02
  -3.700  0.5582E-04  0.2000E+02
  -3.690  0.6347E-04  0.2000E+02
  -3.680  0.7208E-04  0.2000E+02
  -3.670  0.8177E-04  0.2000E+02
  -3.660  0.9266E-04  0.2000E+02
  -3.650  0.1049E-03  0.2000E+02
  -3.640  0.1186E-03  0.2000E+02
  -3.630  0.1339E-03  0.2000E+02
  -3.620  0.1511E-03  0.2000E+02
  -3.610  0.1703E-03  0.2000E+02
  -3.600  0.1918E-03  0.2000E+02
  -3.590  0.2156E-03  0.2000E+02
  -3.580  0.2422E-03  0.2000E+02
  -3.570  0.2718E-03  0.2000E+02
  -3.560  0.3047E-03  0.2000E+02
  -3.550  0.3412E-03  0.2000E+02
  -3.540  0.3817E-03  0.2000E+02
  -3.530  0.4265E-03  0.2000E+02
  -3.520  0.4760E-03  0.2000E+02
  -3.510  0.5307E-03  0.2000E+02
  -3.500  0.5911E-03  0.2000E+02
  -3.490  0.6577E-03  0.2000E+02
  -3.480  0.7310E-03  0.2000E+02
  -3.470  0.8116E-03  0.2000E+02
  -3.460  0.9001E-03  0.2000E+02
  -3.450  0.9972E-03  0.2000E+02
  -3.440  0.1104E-02  0.2000E+02
  -3.430  0.1220E-02  0.2000E+02
  -3.420  0.1348E-02  0.2000E+02
  -3.410  0.1487E-02  0.2000E+02
  -3.400  0.1639E-02  0.2000E+02
  -3.390  0.1804E-02  0.2000E+02
  -3.380  0.1984E-02  0.2000E+02
  -3.370  0.2180E-02  0.2000E+02
  -3.360  0.2393E-02  0.2000E+02
  -3.350  0.2623E-02  0.2000E+02
  -3.340  0.2873E-02  0.2000E+02
  -3.330  0.3144E-02  0.2000E+02
  -3.320  0.3436E-02  0.2000E+02
  -3.310  0.3752E-02  0.2000E+02
  -3.300  0.4093E-02  0.2000E+02
  -3.290  0.4461E-02  0.2000E+02
  -3.280  0.4856E-02  0.2000E+02
  -3.270  0.5281E-02  0.2000E+02
  -3.260  0.5738E-02  0.2000E+02
  -3.250  0.6228E-02  0.2000E+02
  -3.240  0.6752E-02  0.2000E+02
  -3.230  0.7314E-02  0.2000E+02
  -3.220  0.7915E-02  0.2000E+02
  -3.210  0.8557E-02  0.2000E+02
  -3.200  0.9241E-02  0.2000E+02
  -3.190  0.9971E-02  0.2000E+02
  -3.180  0.1075E-01  0.2000E+02
  -3.170  0.1157E-01  0.2000E+02
  -3.160  0.1245E-01  0.2000E+02
  -3.150  0.1338E-01  0.2000E+02
  -3.140  0.1437E-01  0.2000E+02
  -3.130  0.1541E-01  0.2000E+02
  -3.120  0.1652E-01  0.2000E+02
  -3.110  0.1769E-01  0.2000E+02
  -3.100  0.1892E-01  0.2000E+02
  -3.090  0.2022E-01  0.2000E+02
  -3.080  0.2159E-01  0.2000E+02
  -3.070  0.2303E-01  0.2000E+02
  -3.060  0.2454E-01  0.2000E+02
  -3.050  0.2613E-01  0.2000E+02
  -3.040  0.2780E-01  0.2000E+02
  -3.030  0.2954E-01  0.2000E+02
  -3.020  0.3137E-01  0.2000E+02
  -3.010  0.3328E-01  0.2000E+02
  -3.000  0.3528E-01  0.2001E+02
  -2.990  0.3736E-01  0.2001E+02
  -2.980  0.3953E-01  0.2001E+02
  -2.970  0.4179E-01  0.2001E+02
  -2.960  0.4414E-01  0.2001E+02
  -2.950  0.4658E-01  0.2001E+02
  -2.940  0.4911E-01  0.2001E+02
  -2.930  0.5174E-01  0.2001E+02
  -2.920  0.5446E-01  0.2001E+02
  -2.910  0.5728E-01  0.2001E+02
  -2.900  0.6020E-01  0.2001E+02
  -2.890  0.6321E-01  0.2001E+02
  -2.880  0.6631E-01  0.2001E+02
  -2.870  0.6951E-01  0.2001E+02
  -2.860  0.7281E-01  0.2001E+02
  -2.850  0.7621E-01  0.2001E+02
  -2.840  0.7969E-01  0.2001E+02
  -2.830  0.8328E-01  0.2002E+02
  -2.820  0.8695E-01  0.2002E+02
  -2.810  0.9072E-01  0.2002E+02
  -2.800  0.9458E-01  0.2002E+02
  -2.790  0.9853E-01  0.2002E+02
  -2.780  0.1026E+00  0.2002E+02
  -2.770  0.1067E+00  0.2002E+02
  -2.760  0.1109E+00  0.2002E+02
  -2.750  0.1152E+00  0.2002E+02
  -2.740  0.1196E+00  0.2002E+02
  -2.730  0.1240E+00  0.2003E+02
  -2.720  0.1286E+00  0.2003E+02
  -2.710  0.1332E+00  0.2003E+02
  -2.700  0.1378E+00  0.2003E+02
  -2.690  0.1426E+00  0.2003E+02
  -2.680  0.1474E+00  0.2003E+02
  -2.670  0.1522E+00  0.2003E+02
  -2.660  0.1572E+00  0.2004E+02
  -2.650  0.1622E+00  0.2004E+02
  -2.640  0.1672E+00  0.2004E+02
  -2.630  0.1723E+00  0.2004E+02
  -2.620  0.1774E+00  0.2004E+02
  -2.610  0.1826E+00  0.2004E+02
  -2.600  0.1878E+00  0.2005E+02
  -2.590  0.1931E+00  0.2005E+02
  -2.580  0.1984E+00  0.2005E+02
  -2.570  0.2037E+00  0.2005E+02
  -2.560  0.2090E+00  0.2005E+02
  -2.550  0.2144E+00  0.2006E+02
  -2.540  0.2198E+00  0.2006E+02
  -2.530  0.2252E+00  0.2006E+02
  -2.520  0.2306E+00  0.2006E+02
  -2.510  0.2361E+00  0.2007E+02
  -2.500  0.2415E+00  0.2007E+02
  -2.490  0.2470E+00  0.2007E+02
  -2.480  0.2524E+00  0.2007E+02
  -2.470  0.2579E+00  0.2008E+02
  -2.460  0.2633E+00  0.2008E+02
  -2.450  0.2688E+00  0.2008E+02
  -2.440  0.2742E+00  0.2008E+02
  -2.430  0.2797E+00  0.2009E+02
  -2.420  0.2851E+00  0.2009E+02
  -2.410  0.2905E+00  0.2009E+02
  -2.400  0.2959E+00  0.2009E+02
  -2.390  0.3013E+00  0.2010E+02
  -2.380  0.3067E+00  0.2010E+02
  -2.370  0.3121E+00  0.2010E+02
  -2.360  0.3174E+00  0.2011E+02
  -2.350  0.3227E+00  0.2011E+02
  -2.340  0.3280E+00  0.2011E+02
  -2.330  0.3333E+00  0.2012E+02
  -2.320  0.3385E+00  0.2012E+02
  -2.310  0.3438E+00  0.2012E+02
  -2.300  0.3490E+00  0.2013E+02
  -2.290  0.3541E+00  0.2013E+02
  -2.280  0.3593E+00  0.2013E+02
  -2.270  0.3644E+00  0.2014E+02
  -2.260  0.3695E+00  0.2014E+02
  -2.250  0.3746E+00  0.2015E+02
  -2.240  0.3796E+00  0.2015E+02
  -2.230  0.3847E+00  0.2015E+02
  -2.220  0.3897E+00  0.2016E+02
  -2.210  0.3946E+00  0.2016E+02
  -2.200  0.3996E+00  0.2017E+02
  -2.190  0.4045E+00  0.2017E+02
  -2.180  0.4094E+00  0.2017E+02
  -2.170  0.4143E+00  0.2018E+02
  -2.160  0.4192E+00  0.2018E+02
  -2.150  0.4240E+00  0.2019E+02
  -2.140  0.4288E+00  0.2019E+02
  -2.130  0.4336E+00  0.2019E+02
  -2.120  0.4384E+00  0.2020E+02
  -2.110  0.4432E+00  0.2020E+02
  -2.100  0.4479E+00  0.2021E+02
  -2.090  0.4527E+00  0.2021E+02
  -2.080  0.4574E+00  0.2022E+02
  -2.070  0.4621E+00  0.2022E+02
  -2.060  0.4668E+00  0.2023E+02
  -2.050  0.4715E+00  0.2023E+02
  -2.040  0.4762E+00  0.2024E+02
  -2.030  0.4809E+00  0.2024E+02
  -2.020  0.4855E+00  0.2025E+02
  -2.010  0.4902E+00  0.2025E+02
  -2.000  0.4949E+00  0.2026E+02
  -1.990  0.4995E+00  0.2026E+02
  -1.980  0.5042E+00  0.2027E+02
  -1.970  0.5089E+00  0.2027E+02
  -1.960  0.5135E+00  0.2028E+02
  -1.950  0.5182E+00  0.2028E+02
  -1.940  0.5229E+00  0.2029E+02
  -1.930  0.5276E+00  0.2029E+02
  -1.920  0.5323E+00  0.2030E+02
  -1.910  0.5370E+00  0.2030E+02
  -1.900  0.5417E+00  0.2031E+02
  -1.890  0.5464E+00  0.2031E+02
  -1.880  0.5512E+00  0.2032E+02
  -1.870  0.5560E+00  0.2032E+02
  -1.860  0.5608E+00  0.2033E+02
  -1.850  0.5656E+00  0.2034E+02
  -1.840  0.5704E+00  0.2034E+02
  -1.830  0.5753E+00  0.2035E+02
  -1.820  0.5802E+00  0.2035E+02
  -1.810  0.5851E+00  0.2036E+02
  -1.800  0.5900E+00  0.2036E+02
  -1.790  0.5950E+00  0.2037E+02
  -1.780  0.6000E+00  0.2038E+02
  -1.770  0.6050E+00  0.2038E+02
  -1.760  0.6101E+00  0.2039E+02
  -1.750  0.6152E+00  0.2039E+02
  -1.740  0.6203E+00  0.2040E+02
  -1.730  0.6255E+00  0.2041E+02
  -1.720  0.6307E+00  0.2041E+02
  -1.710  0.6360E+00  0.2042E+02
  -1.700  0.6413E+00  0.2043E+02
  -1.690  0.6466E+00  0.2043E+02
  -1.680  0.6520E+00  0.2044E+02
  -1.670  0.6574E+00  0.2045E+02
  -1.660  0.6629E+00  0.2045E+02
  -1.650  0.6684E+00  0.2046E+02
  -1.640  0.6739E+00  0.2047E+02
  -1.630  0.6795E+00  0.2047E+02
  -1.620  0.6852E+00  0.2048E+02
  -1.610  0.6909E+00  0.2049E+02
  -1.600  0.6966E+00  0.2049E+02
  -1.590  0.7024E+00  0.2050E+02
  -1.580  0.7082E+00  0.2051E+02
  -1.570  0.7141E+00  0.2051E+02
  -1.560  0.7200E+00  0.2052E+02
  -1.550  0.7260E+00  0.2053E+02
  -1.540  0.7320E+00  0.2054E+02
  -1.530  0.7381E+00  0.2054E+02
  -1.520  0.7442E+00  0.2055E+02
  -1.510  0.7503E+00  0.2056E+02
  -1.500  0.7565E+00  0.2057E+02
  -1.490  0.7627E+00  0.2057E+02
  -1.480  0.7689E+00  0.2058E+02
  -1.470  0.7752E+00  0.2059E+02
  -1.460  0.7815E+00  0.2060E+02
  -1.450  0.7878E+00  0.2060E+02
  -1.440  0.7941E+00  0.2061E+02
  -1.430  0.8005E+00  0.2062E+02
  -1.420  0.8068E+00  0.2063E+02
  -1.410  0.8132E+00  0.2064E+02
  -1.400  0.8196E+00  0.2065E+02
  -1.390  0.8260E+00  0.2065E+02
  -1.380  0.8323E+00  0.2066E+02
  -1.370  0.8387E+00  0.2067E+02
  -1.360  0.8451E+00  0.2068E+02
  -1.350  0.8514E+00  0.2069E+02
  -1.340  0.8577E+00  0.2070E+02
  -1.330  0.8640E+00  0.2070E+02
  -1.320  0.8702E+00  0.2071E+02
  -1.310  0.8764E+00  0.2072E+02
  -1.300  0.8825E+00  0.2073E+02
  -1.290  0.8886E+00  0.2074E+02
  -1.280  0.8946E+00  0.2075E+02
  -1.270  0.9005E+00  0.2076E+02
  -1.260  0.9064E+00  0.2077E+02
  -1.250  0.9121E+00  0.2078E+02
  -1.240  0.9178E+00  0.2078E+02
  -1.230  0.9234E+00  0.2079E+02
  -1.220  0.9288E+00  0.2080E+02
  -1.210  0.9342E+00  0.2081E+02
  -1.200  0.9394E+00  0.2082E+02
  -1.190  0.9445E+00  0.2083E+02
  -1.180  0.9495E+00  0.2084E+02
  -1.170  0.9543E+00  0.2085E+02
  -1.160  0.9590E+00  0.2086E+02
  -1.150  0.9635E+00  0.2087E+02
  -1.140  0.9679E+00  0.2088E+02
  -1.130  0.9721E+00  0.2089E+02
  -1.120  0.9761E+00  0.2090E+02
  -1.110  0.9800E+00  0.2091E+02
  -1.100  0.9836E+00  0.2092E+02
  -1.090  0.9871E+00  0.2093E+02
  -1.080  0.9904E+00  0.2094E+02
  -1.070  0.9935E+00  0.2095E+02
  -1.060  0.9964E+00  0.2096E+02
  -1.050  0.9991E+00  0.2097E+02
  -1.040  0.1002E+01  0.2098E+02
  -1.030  0.1004E+01  0.2099E+02
  -1.020  0.1006E+01  0.2100E+02
  -1.010  0.1008E+01  0.2101E+02
  -1.000  0.1010E+01  0.2102E+02
  -0.990  0.1011E+01  0.2103E+02
  -0.980  0.1012E+01  0.2104E+02
  -0.970  0.1013E+01  0.2105E+02
  -0.960  0.1014E+01  0.2106E+02
  -0.950  0.1015E+01  0.2107E+02
  -0.940  0.1015E+01  0.2108E+02
  -0.930  0.1015E+01  0.2109E+02
  -0.920  0.1015E+01  0.2110E+02
  -0.910  0.1015E+01  0.2111E+02
  -0.900  0.1014E+01  0.2112E+02
  -0.890  0.1014E+01  0.2113E+02
  -0.880  0.1013E+01  0.2114E+02
  -0.870  0.1011E+01  0.2115E+02
  -0.860  0.1010E+01  0.2116E+02
  -0.850  0.1009E+01  0.2117E+02
  -0.840  0.1007E+01  0.2118E+02
  -0.830  0.1005E+01  0.2119E+02
  -0.820  0.1003E+01  0.2120E+02
  -0.810  0.1001E+01  0.2121E+02
  -0.800  0.9980E+00  0.2122E+02
  -0.790  0.9954E+00  0.2123E+02
  -0.780  0.9925E+00  0.2124E+02
  -0.770  0.9895E+00  0.2125E+02
  -0.760  0.9863E+00  0.2126E+02
  -0.750  0.9830E+00  0.2127E+02
  -0.740  0.9794E+00  0.2128E+02
  -0.730  0.9758E+00  0.2129E+02
  -0.720  0.9720E+00  0.2130E+02
  -0.710  0.9680E+00  0.2131E+02
  -0.700  0.9639E+00  0.2132E+02
  -0.690  0.9597E+00  0.2133E+02
  -0.680  0.9553E+00  0.2134E+02
  -0.670  0.9508E+00  0.2135E+02
  -0.660  0.9461E+00  0.2136E+02
  -0.650  0.9414E+00  0.2137E+02
  -0.640  0.9365E+00  0.2138E+02
  -0.630  0.9316E+00  0.2138E+02
  -0.620  0.9265E+00  0.2139E+02
  -0.610  0.9213E+00  0.2140E+02
  -0.600  0.9160E+00  0.2141E+02
  -0.590  0.9106E+00  0.2142E+02
  -0.580  0.9051E+00  0.2143E+02
  -0.570  0.8996E+00  0.2144E+02
  -0.560  0.8939E+00  0.2145E+02
  -0.550  0.8882E+00  0.2146E+02
  -0.540  0.8824E+00  0.2147E+02
  -0.530  0.8765E+00  0.2147E+02
  -0.520  0.8706E+00  0.2148E+02
  -0.510  0.8645E+00  0.2149E+02
  -0.500  0.8585E+00  0.2150E+02
  -0.490  0.8523E+00  0.2151E+02
  -0.480  0.8461E+00  0.2152E+02
  -0.470  0.8398E+00  0.2153E+02
  -0.460  0.8335E+00  0.2153E+02
  -0.450  0.8271E+00  0.2154E+02
  -0.440  0.8207E+00  0.2155E+02
  -0.430  0.8142E+00  0.2156E+02
  -0.420  0.8076E+00  0.2157E+02
  -0.410  0.8011E+00  0.2158E+02
  -0.400  0.7944E+00  0.2158E+02
  -0.390  0.7878E+00  0.2159E+02
  -0.380  0.7810E+00  0.2160E+02
  -0.370  0.7743E+00  0.2161E+02
  -0.360  0.7675E+00  0.2161E+02
  -0.350  0.7606E+00  0.2162E+02
  -0.340  0.7538E+00  0.2163E+02
  -0.330  0.7468E+00  0.2164E+02
  -0.320  0.7399E+00  0.2164E+02
  -0.310  0.7329E+00  0.2165E+02
  -0.300  0.7259E+00  0.2166E+02
  -0.290  0.7188E+00  0.2167E+02
  -0.280  0.7117E+00  0.2167E+02
  -0.270  0.7046E+00  0.2168E+02
  -0.260  0.6974E+00  0.2169E+02
  -0.250  0.6902E+00  0.2169E+02
  -0.240  0.6830E+00  0.2170E+02
  -0.230  0.6758E+00  0.2171E+02
  -0.220  0.6685E+00  0.2171E+02
  -0.210  0.6612E+00  0.2172E+02
  -0.200  0.6538E+00  0.2173E+02
  -0.190  0.6465E+00  0.2173E+02
  -0.180  0.6391E+00  0.2174E+02
  -0.170  0.6317E+00  0.2175E+02
  -0.160  0.6243E+00  0.2175E+02
  -0.150  0.6168E+00  0.2176E+02
  -0.140  0.6093E+00  0.2177E+02
  -0.130  0.6019E+00  0.2177E+02
  -0.120  0.5944E+00  0.2178E+02
  -0.110  0.5869E+00  0.2178E+02
  -0.100  0.5793E+00  0.2179E+02
  -0.090  0.5718E+00  0.2179E+02
  -0.080  0.5643E+00  0.2180E+02
  -0.070  0.5568E+00  0.2181E+02
  -0.060  0.5493E+00  0.2181E+02
  -0.050  0.5418E+00  0.2182E+02
  -0.040  0.5343E+00  0.2182E+02
  -0.030  0.5268E+00  0.2183E+02
  -0.020  0.5194E+00  0.2183E+02
  -0.010  0.5119E+00  0.2184E+02
  -0.000  0.5046E+00  0.2184E+02
   0.010  0.4972E+00  0.2185E+02
   0.020  0.4899E+00  0.2185E+02
   0.030  0.4827E+00  0.2186E+02
   0.040  0.4755E+00  0.2186E+02
   0.050  0.4683E+00  0.2187E+02
   0.060  0.4613E+00  0.2187E+02
   0.070  0.4543E+00  0.2188E+02
   0.080  0.4474E+00  0.2188E+02
   0.090  0.4406E+00  0.2188E+02
   0.100  0.4338E+00  0.2189E+02
   0.110  0.4272E+00  0.2189E+02
   0.120  0.4207E+00  0.2190E+02
   0.130  0.4143E+00  0.2190E+02
   0.140  0.4080E+00  0.2191E+02
   0.150  0.4019E+00  0.2191E+02
   0.160  0.3959E+00  0.2191E+02
   0.170  0.3900E+00  0.2192E+02
   0.180  0.3843E+00  0.2192E+02
   0.190  0.3787E+00  0.2193E+02
   0.200  0.3733E+00  0.2193E+02
   0.210  0.3681E+00  0.2193E+02
   0.220  0.3630E+00  0.2194E+02
   0.230  0.3581E+00  0.2194E+02
   0.240  0.3535E+00  0.2194E+02
   0.250  0.3490E+00  0.2195E+02
   0.260  0.3447E+00  0.2195E+02
   0.270  0.3406E+00  0.2195E+02
   0.280  0.3367E+00  0.2196E+02
   0.290  0.3330E+00  0.2196E+02
   0.300  0.3296E+00  0.2196E+02
   0.310  0.3264E+00  0.2197E+02
   0.320  0.3234E+00  0.2197E+02
   0.330  0.3206E+00  0.2197E+02
   0.340  0.3181E+00  0.2198E+02
   0.350  0.3158E+00  0.2198E+02
   0.360  0.3137E+00  0.2198E+02
   0.370  0.3119E+00  0.2199E+02
   0.380  0.3104E+00  0.2199E+02
   0.390  0.3091E+00  0.2199E+02
   0.400  0.3080E+00  0.2200E+02
   0.410  0.3072E+00  0.2200E+02
   0.420  0.3066E+00  0.2200E+02
   0.430  0.3063E+00  0.2200E+02
   0.440  0.3062E+00  0.2201E+02
   0.450  0.3064E+00  0.2201E+02
   0.460  0.3068E+00  0.2201E+02
   0.470  0.3075E+00  0.2202E+02
   0.480  0.3084E+00  0.2202E+02
   0.490  0.3096E+00  0.2202E+02
   0.500  0.3110E+00  0.2203E+02
   0.510  0.3127E+00  0.2203E+02
   0.520  0.3146E+00  0.2203E+02
   0.530  0.3168E+00  0.2204E+02
   0.540  0.3192E+00  0.2204E+02
   0.550  0.3218E+00  0.2204E+02
   0.560  0.3246E+00  0.2205E+02
   0.570  0.3277E+00  0.2205E+02
   0.580  0.3310E+00  0.2205E+02
   0.590  0.3345E+00  0.2206E+02
   0.600  0.3383E+00  0.2206E+02
   0.610  0.3422E+00  0.2206E+02
   0.620  0.3463E+00  0.2207E+02
   0.630  0.3507E+00  0.2207E+02
   0.640  0.3552E+00  0.2207E+02
   0.650  0.3599E+00  0.2208E+02
   0.660  0.3648E+00  0.2208E+02
   0.670  0.3699E+00  0.2208E+02
   0.680  0.3751E+00  0.2209E+02
   0.690  0.3805E+00  0.2209E+02
   0.700  0.3861E+00  0.2210E+02
   0.710  0.3918E+00  0.2210E+02
   0.720  0.3977E+00  0.2210E+02
   0.730  0.4037E+00  0.2211E+02
   0.740  0.4098E+00  0.2211E+02
   0.750  0.4160E+00  0.2212E+02
   0.760  0.4224E+00  0.2212E+02
   0.770  0.4289E+00  0.2212E+02
   0.780  0.4355E+00  0.2213E+02
   0.790  0.4423E+00  0.2213E+02
   0.800  0.4491E+00  0.2214E+02
   0.810  0.4560E+00  0.2214E+02
   0.820  0.4630E+00  0.2215E+02
   0.830  0.4701E+00  0.2215E+02
   0.840  0.4772E+00  0.2216E+02
   0.850  0.4845E+00  0.2216E+02
   0.860  0.4918E+00  0.2217E+02
   0.870  0.4992E+00  0.2217E+02
   0.880  0.5067E+00  0.2218E+02
   0.890  0.5142E+00  0.2218E+02
   0.900  0.5218E+00  0.2219E+02
   0.910  0.5294E+00  0.2219E+02
   0.920  0.5371E+00  0.2220E+02
   0.930  0.5449E+00  0.2220E+02
   0.940  0.5527E+00  0.2221E+02
   0.950  0.5606E+00  0.2221E+02
   0.960  0.5685E+00  0.2222E+02
   0.970  0.5764E+00  0.2222E+02
   0.980  0.5844E+00  0.2223E+02
   0.990  0.5924E+00  0.2224E+02
   1.000  0.6005E+00  0.2224E+02
   1.010  0.6086E+00  0.2225E+02
   1.020  0.6167E+00  0.2225E+02
   1.030  0.6249E+00  0.2226E+02
   1.040  0.6331E+00  0.2227E+02
   1.050  0.6413E+00  0.2227E+02
   1.060  0.6496E+00  0.2228E+02
   1.070  0.6579E+00  0.2229E+02
   1.080  0.6662E+00  0.2229E+02
   1.090  0.6745E+00  0.2230E+02
   1.100  0.6828E+00  0.2231E+02
   1.110  0.6912E+00  0.2231E+02
   1.120  0.6995E+00  0.2232E+02
   1.130  0.7079E+00  0.2233E+02
   1.140  0.7162E+00  0.2233E+02
   1.150  0.7245E+00  0.2234E+02
   1.160  0.7329E+00  0.2235E+02
   1.170  0.7412E+00  0.2236E+02
   1.180  0.7494E+00  0.2236E+02
   1.190  0.7577E+00  0.2237E+02
   1.200  0.7659E+00  0.2238E+02
   1.210  0.7740E+00  0.2239E+02
   1.220  0.7821E+00  0.2240E+02
   1.230  0.7902E+00  0.2240E+02
   1.240  0.7981E+00  0.2241E+02
   1.250  0.8060E+00  0.2242E+02
   1.260  0.8138E+00  0.2243E+02
   1.270  0.8215E+00  0.2244E+02
   1.280  0.8291E+00  0.2244E+02
   1.290  0.8366E+00  0.2245E+02
   1.300  0.8439E+00  0.2246E+02
   1.310  0.8511E+00  0.2247E+02
   1.320  0.8582E+00  0.2248E+02
   1.330  0.8651E+00  0.2249E+02
   1.340  0.8718E+00  0.2250E+02
   1.350  0.8783E+00  0.2250E+02
   1.360  0.8847E+00  0.2251E+02
   1.370  0.8909E+00  0.2252E+02
   1.380  0.8968E+00  0.2253E+02
   1.390  0.9025E+00  0.2254E+02
   1.400  0.9080E+00  0.2255E+02
   1.410  0.9133E+00  0.2256E+02
   1.420  0.9183E+00  0.2257E+02
   1.430  0.9230E+00  0.2258E+02
   1.440  0.9275E+00  0.2259E+02
   1.450  0.9317E+00  0.2259E+02
   1.460  0.9357E+00  0.2260E+02
   1.470  0.9393E+00  0.2261E+02
   1.480  0.9426E+00  0.2262E+02
   1.490  0.9457E+00  0.2263E+02
   1.500  0.9484E+00  0.2264E+02
   1.510  0.9508E+00  0.2265E+02
   1.520  0.9529E+00  0.2266E+02
   1.530  0.9547E+00  0.2267E+02
   1.540  0.9562E+00  0.2268E+02
   1.550  0.9573E+00  0.2269E+02
   1.560  0.9581E+00  0.2270E+02
   1.570  0.9585E+00  0.2271E+02
   1.580  0.9587E+00  0.2272E+02
   1.590  0.9585E+00  0.2273E+02
   1.600  0.9580E+00  0.2274E+02
   1.610  0.9571E+00  0.2275E+02
   1.620  0.9559E+00  0.2276E+02
   1.630  0.9544E+00  0.2277E+02
   1.640  0.9526E+00  0.2278E+02
   1.650  0.9505E+00  0.2279E+02
   1.660  0.9480E+00  0.2279E+02
   1.670  0.9453E+00  0.2280E+02
   1.680  0.9423E+00  0.2281E+02
   1.690  0.9389E+00  0.2282E+02
   1.700  0.9353E+00  0.2283E+02
   1.710  0.9315E+00  0.2284E+02
   1.720  0.9273E+00  0.2285E+02
   1.730  0.9229E+00  0.2286E+02
   1.740  0.9183E+00  0.2287E+02
   1.750  0.9134E+00  0.2288E+02
   1.760  0.9083E+00  0.2289E+02
   1.770  0.9030E+00  0.2290E+02
   1.780  0.8975E+00  0.2291E+02
   1.790  0.8918E+00  0.2291E+02
   1.800  0.8859E+00  0.2292E+02
   1.810  0.8798E+00  0.2293E+02
   1.820  0.8736E+00  0.2294E+02
   1.830  0.8672E+00  0.2295E+02
   1.840  0.8607E+00  0.2296E+02
   1.850  0.8541E+00  0.2297E+02
   1.860  0.8474E+00  0.2298E+02
   1.870  0.8405E+00  0.2298E+02
   1.880  0.8336E+00  0.2299E+02
   1.890  0.8266E+00  0.2300E+02
   1.900  0.8195E+00  0.2301E+02
   1.910  0.8124E+00  0.2302E+02
   1.920  0.8052E+00  0.2302E+02
   1.930  0.7979E+00  0.2303E+02
   1.940  0.7907E+00  0.2304E+02
   1.950  0.7834E+00  0.2305E+02
   1.960  0.7761E+00  0.2306E+02
   1.970  0.7688E+00  0.2306E+02
   1.980  0.7615E+00  0.2307E+02
   1.990  0.7542E+00  0.2308E+02
   2.000  0.7469E+00  0.2309E+02
   2.010  0.7396E+00  0.2309E+02
   2.020  0.7324E+00  0.2310E+02
   2.030  0.7252E+00  0.2311E+02
   2.040  0.7181E+00  0.2312E+02
   2.050  0.7109E+00  0.2312E+02
   2.060  0.7039E+00  0.2313E+02
   2.070  0.6969E+00  0.2314E+02
   2.080  0.6899E+00  0.2314E+02
   2.090  0.6830E+00  0.2315E+02
   2.100  0.6762E+00  0.2316E+02
   2.110  0.6694E+00  0.2316E+02
   2.120  0.6627E+00  0.2317E+02
   2.130  0.6561E+00  0.2318E+02
   2.140  0.6495E+00  0.2318E+02
   2.150  0.6430E+00  0.2319E+02
   2.160  0.6366E+00  0.2320E+02
   2.170  0.6303E+00  0.2320E+02
   2.180  0.6240E+00  0.2321E+02
   2.190  0.6178E+00  0.2322E+02
   2.200  0.6117E+00  0.2322E+02
   2.210  0.6056E+00  0.2323E+02
   2.220  0.5997E+00  0.2323E+02
   2.230  0.5938E+00  0.2324E+02
   2.240  0.5880E+00  0.2325E+02
   2.250  0.5823E+00  0.2325E+02
   2.260  0.5767E+00  0.2326E+02
   2.270  0.5711E+00  0.2326E+02
   2.280  0.5656E+00  0.2327E+02
   2.290  0.5602E+00  0.2327E+02
   2.300  0.5549E+00  0.2328E+02
   2.310  0.5497E+00  0.2328E+02
   2.320  0.5445E+00  0.2329E+02
   2.330  0.5394E+00  0.2330E+02
   2.340  0.5344E+00  0.2330E+02
   2.350  0.5295E+00  0.2331E+02
   2.360  0.5247E+00  0.2331E+02
   2.370  0.5199E+00  0.2332E+02
   2.380  0.5153E+00  0.2332E+02
   2.390  0.5107E+00  0.2333E+02
   2.400  0.5062E+00  0.2333E+02
   2.410  0.5017E+00  0.2334E+02
   2.420  0.4974E+00  0.2334E+02
   2.430  0.4931E+00  0.2335E+02
   2.440  0.4889E+00  0.2335E+02
   2.450  0.4848E+00  0.2336E+02
   2.460  0.4808E+00  0.2336E+02
   2.470  0.4769E+00  0.2337E+02
   2.480  0.4730E+00  0.2337E+02
   2.490  0.4692E+00  0.2338E+02
   2.500  0.4655E+00  0.2338E+02
   2.510  0.4618E+00  0.2338E+02
   2.520  0.4582E+00  0.2339E+02
   2.530  0.4547E+00  0.2339E+02
   2.540  0.4513E+00  0.2340E+02
   2.550  0.4479E+00  0.2340E+02
   2.560  0.4446E+00  0.2341E+02
   2.570  0.4414E+00  0.2341E+02
   2.580  0.4382E+00  0.2342E+02
   2.590  0.4351E+00  0.2342E+02
   2.600  0.4320E+00  0.2342E+02
   2.610  0.4290E+00  0.2343E+02
   2.620  0.4260E+00  0.2343E+02
   2.630  0.4231E+00  0.2344E+02
   2.640  0.4203E+00  0.2344E+02
   2.650  0.4174E+00  0.2345E+02
   2.660  0.4147E+00  0.2345E+02
   2.670  0.4119E+00  0.2345E+02
   2.680  0.4092E+00  0.2346E+02
   2.690  0.4065E+00  0.2346E+02
   2.700  0.4038E+00  0.2347E+02
   2.710  0.4012E+00  0.2347E+02
   2.720  0.3986E+00  0.2347E+02
   2.730  0.3960E+00  0.2348E+02
   2.740  0.3934E+00  0.2348E+02
   2.750  0.3909E+00  0.2349E+02
   2.760  0.3883E+00  0.2349E+02
   2.770  0.3858E+00  0.2349E+02
   2.780  0.3832E+00  0.2350E+02
   2.790  0.3807E+00  0.2350E+02
   2.800  0.3782E+00  0.2351E+02
   2.810  0.3757E+00  0.2351E+02
   2.820  0.3731E+00  0.2351E+02
   2.830  0.3706E+00  0.2352E+02
   2.840  0.3680E+00  0.2352E+02
   2.850  0.3655E+00  0.2352E+02
   2.860  0.3629E+00  0.2353E+02
   2.870  0.3604E+00  0.2353E+02
   2.880  0.3578E+00  0.2353E+02
   2.890  0.3553E+00  0.2354E+02
   2.900  0.3527E+00  0.2354E+02
   2.910  0.3501E+00  0.2355E+02
   2.920  0.3475E+00  0.2355E+02
   2.930  0.3449E+00  0.2355E+02
   2.940  0.3423E+00  0.2356E+02
   2.950  0.3397E+00  0.2356E+02
   2.960  0.3371E+00  0.2356E+02
   2.970  0.3344E+00  0.2357E+02
   2.980  0.3318E+00  0.2357E+02
   2.990  0.3292E+00  0.2357E+02
   3.000  0.3266E+00  0.2358E+02
   3.010  0.3240E+00  0.2358E+02
   3.020  0.3214E+00  0.2358E+02
   3.030  0.3188E+00  0.2359E+02
   3.040  0.3163E+00  0.2359E+02
   3.050  0.3137E+00  0.2359E+02
   3.060  0.3112E+00  0.2359E+02
   3.070  0.3087E+00  0.2360E+02
   3.080  0.3062E+00  0.2360E+02
   3.090  0.3037E+00  0.2360E+02
   3.100  0.3013E+00  0.2361E+02
   3.110  0.2989E+00  0.2361E+02
   3.120  0.2965E+00  0.2361E+02
   3.130  0.2942E+00  0.2362E+02
   3.140  0.2919E+00  0.2362E+02
   3.150  0.2896E+00  0.2362E+02
   3.160  0.2874E+00  0.2362E+02
   3.170  0.2853E+00  0.2363E+02
   3.180  0.2831E+00  0.2363E+02
   3.190  0.2811E+00  0.2363E+02
   3.200  0.2790E+00  0.2364E+02
   3.210  0.2771E+00  0.2364E+02
   3.220  0.2752E+00  0.2364E+02
   3.230  0.2733E+00  0.2364E+02
   3.240  0.2715E+00  0.2365E+02
   3.250  0.2697E+00  0.2365E+02
   3.260  0.2680E+00  0.2365E+02
   3.270  0.2664E+00  0.2365E+02
   3.280  0.2648E+00  0.2366E+02
   3.290  0.2632E+00  0.2366E+02
   3.300  0.2617E+00  0.2366E+02
   3.310  0.2603E+00  0.2367E+02
   3.320  0.2589E+00  0.2367E+02
   3.330  0.2575E+00  0.2367E+02
   3.340  0.2562E+00  0.2367E+02
   3.350  0.2549E+00  0.2368E+02
   3.360  0.2537E+00  0.2368E+02
   3.370  0.2525E+00  0.2368E+02
   3.380  0.2513E+00  0.2368E+02
   3.390  0.2502E+00  0.2369E+02
   3.400  0.2491E+00  0.2369E+02
   3.410  0.2480E+00  0.2369E+02
   3.420  0.2469E+00  0.2369E+02
   3.430  0.2459E+00  0.2370E+02
   3.440  0.2448E+00  0.2370E+02
   3.450  0.2438E+00  0.2370E+02
   3.460  0.2428E+00  0.2370E+02
   3.470  0.2417E+00  0.2371E+02
   3.480  0.2407E+00  0.2371E+02
   3.490  0.2397E+00  0.2371E+02
   3.500  0.2386E+00  0.2371E+02
   3.510  0.2376E+00  0.2371E+02
   3.520  0.2365E+00  0.2372E+02
   3.530  0.2354E+00  0.2372E+02
   3.540  0.2343E+00  0.2372E+02
   3.550  0.2332E+00  0.2372E+02
   3.560  0.2321E+00  0.2373E+02
   3.570  0.2309E+00  0.2373E+02
   3.580  0.2298E+00  0.2373E+02
   3.590  0.2286E+00  0.2373E+02
   3.600  0.2273E+00  0.2374E+02
   3.610  0.2261E+00  0.2374E+02
   3.620  0.2248E+00  0.2374E+02
   3.630  0.2235E+00  0.2374E+02
   3.640  0.2222E+00  0.2374E+02
   3.650  0.2209E+00  0.2375E+02
   3.660  0.2196E+00  0.2375E+02
   3.670  0.2183E+00  0.2375E+02
   3.680  0.2169E+00  0.2375E+02
   3.690  0.2156E+00  0.2376E+02
   3.700  0.2142E+00  0.2376E+02
   3.710  0.2129E+00  0.2376E+02
   3.720  0.2116E+00  0.2376E+02
   3.730  0.2103E+00  0.2376E+02
   3.740  0.2091E+00  0.2377E+02
   3.750  0.2078E+00  0.2377E+02
   3.760  0.2067E+00  0.2377E+02
   3.770  0.2055E+00  0.2377E+02
   3.780  0.2045E+00  0.2377E+02
   3.790  0.2034E+00  0.2378E+02
   3.800  0.2025E+00  0.2378E+02
   3.810  0.2017E+00  0.2378E+02
   3.820  0.2009E+00  0.2378E+02
   3.830  0.2003E+00  0.2378E+02
   3.840  0.1998E+00  0.2379E+02
   3.850  0.1994E+00  0.2379E+02
   3.860  0.1991E+00  0.2379E+02
   3.870  0.1990E+00  0.2379E+02
   3.880  0.1991E+00  0.2379E+02
   3.890  0.1993E+00  0.2380E+02
   3.900  0.1997E+00  0.2380E+02
   3.910  0.2003E+00  0.2380E+02
   3.920  0.2011E+00  0.2380E+02
   3.930  0.2021E+00  0.2380E+02
   3.940  0.2033E+00  0.2381E+02
   3.950  0.2048E+00  0.2381E+02
   3.960  0.2066E+00  0.2381E+02
   3.970  0.2086E+00  0.2381E+02
   3.980  0.2108E+00  0.2381E+02
   3.990  0.2134E+00  0.2382E+02
   4.000  0.2162E+00  0.2382E+02
   4.010  0.2194E+00  0.2382E+02
   4.020  0.2229E+00  0.2382E+02
   4.030  0.2267E+00  0.2383E+02
   4.040  0.2308E+00  0.2383E+02
   4.050  0.2353E+00  0.2383E+02
   4.060  0.2401E+00  0.2383E+02
   4.070  0.2453E+00  0.2384E+02
   4.080  0.2509E+00  0.2384E+02
   4.090  0.2569E+00  0.2384E+02
   4.100  0.2632E+00  0.2384E+02
   4.110  0.2700E+00  0.2385E+02
   4.120  0.2771E+00  0.2385E+02
   4.130  0.2847E+00  0.2385E+02
   4.140  0.2926E+00  0.2385E+02
   4.150  0.3010E+00  0.2386E+02
   4.160  0.3098E+00  0.2386E+02
   4.170  0.3190E+00  0.2386E+02
   4.180  0.3287E+00  0.2387E+02
   4.190  0.3388E+00  0.2387E+02
   4.200  0.3493E+00  0.2387E+02
   4.210  0.3602E+00  0.2388E+02
   4.220  0.3715E+00  0.2388E+02
   4.230  0.3833E+00  0.2388E+02
   4.240  0.3955E+00  0.2389E+02
   4.250  0.4080E+00  0.2389E+02
   4.260  0.4210E+00  0.2390E+02
   4.270  0.4344E+00  0.2390E+02
   4.280  0.4482E+00  0.2391E+02
   4.290  0.4624E+00  0.2391E+02
   4.300  0.4769E+00  0.2392E+02
   4.310  0.4918E+00  0.2392E+02
   4.320  0.5070E+00  0.2393E+02
   4.330  0.5226E+00  0.2393E+02
   4.340  0.5385E+00  0.2394E+02
   4.350  0.5547E+00  0.2394E+02
   4.360  0.5711E+00  0.2395E+02
   4.370  0.5879E+00  0.2395E+02
   4.380  0.6049E+00  0.2396E+02
   4.390  0.6221E+00  0.2397E+02
   4.400  0.6396E+00  0.2397E+02
   4.410  0.6572E+00  0.2398E+02
   4.420  0.6750E+00  0.2399E+02
   4.430  0.6930E+00  0.2399E+02
   4.440  0.7111E+00  0.2400E+02
   4.450  0.7293E+00  0.2401E+02
   4.460  0.7475E+00  0.2401E+02
   4.470  0.7659E+00  0.2402E+02
   4.480  0.7842E+00  0.2403E+02
   4.490  0.8026E+00  0.2404E+02
   4.500  0.8209E+00  0.2405E+02
   4.510  0.8393E+00  0.2405E+02
   4.520  0.8575E+00  0.2406E+02
   4.530  0.8757E+00  0.2407E+02
   4.540  0.8938E+00  0.2408E+02
   4.550  0.9117E+00  0.2409E+02
   4.560  0.9295E+00  0.2410E+02
   4.570  0.9471E+00  0.2411E+02
   4.580  0.9645E+00  0.2412E+02
   4.590  0.9816E+00  0.2413E+02
   4.600  0.9986E+00  0.2414E+02
   4.610  0.1015E+01  0.2415E+02
   4.620  0.1032E+01  0.2416E+02
   4.630  0.1048E+01  0.2417E+02
   4.640  0.1064E+01  0.2418E+02
   4.650  0.1079E+01  0.2419E+02
   4.660  0.1094E+01  0.2420E+02
   4.670  0.1109E+01  0.2421E+02
   4.680  0.1124E+01  0.2422E+02
   4.690  0.1138E+01  0.2423E+02
   4.700  0.1152E+01  0.2425E+02
   4.710  0.1165E+01  0.2426E+02
   4.720  0.1178E+01  0.2427E+02
   4.730  0.1190E+01  0.2428E+02
   4.740  0.1203E+01  0.2429E+02
   4.750  0.1215E+01  0.2431E+02
   4.760  0.1226E+01  0.2432E+02
   4.770  0.1237E+01  0.2433E+02
   4.780  0.1248E+01  0.2434E+02
   4.790  0.1258E+01  0.2436E+02
   4.800  0.1268E+01  0.2437E+02
   4.810  0.1278E+01  0.2438E+02
   4.820  0.1287E+01  0.2439E+02
   4.830  0.1296E+01  0.2441E+02
   4.840  0.1304E+01  0.2442E+02
   4.850  0.1312E+01  0.2443E+02
   4.860  0.1320E+01  0.2445E+02
   4.870  0.1328E+01  0.2446E+02
   4.880  0.1335E+01  0.2447E+02
   4.890  0.1342E+01  0.2449E+02
   4.900  0.1349E+01  0.2450E+02
   4.910  0.1356E+01  0.2451E+02
   4.920  0.1362E+01  0.2453E+02
   4.930  0.1368E+01  0.2454E+02
   4.940  0.1374E+01  0.2455E+02
   4.950  0.1380E+01  0.2457E+02
   4.960  0.1386E+01  0.2458E+02
   4.970  0.1391E+01  0.2460E+02
   4.980  0.1397E+01  0.2461E+02
   4.990  0.1402E+01  0.2462E+02
   5.000  0.1407E+01  0.2464E+02
   5.010  0.1413E+01  0.2465E+02
   5.020  0.1418E+01  0.2467E+02
   5.030  0.1423E+01  0.2468E+02
   5.040  0.1428E+01  0.2469E+02
   5.050  0.1433E+01  0.2471E+02
   5.060  0.1438E+01  0.2472E+02
   5.070  0.1443E+01  0.2474E+02
   5.080  0.1448E+01  0.2475E+02
   5.090  0.1453E+01  0.2477E+02
   5.100  0.1458E+01  0.2478E+02
   5.110  0.1464E+01  0.2480E+02
   5.120  0.1469E+01  0.2481E+02
   5.130  0.1474E+01  0.2483E+02
   5.140  0.1480E+01  0.2484E+02
   5.150  0.1485E+01  0.2486E+02
   5.160  0.1491E+01  0.2487E+02
   5.170  0.1496E+01  0.2489E+02
   5.180  0.1502E+01  0.2490E+02
   5.190  0.1508E+01  0.2492E+02
   5.200  0.1514E+01  0.2493E+02
   5.210  0.1520E+01  0.2495E+02
   5.220  0.1526E+01  0.2496E+02
   5.230  0.1532E+01  0.2498E+02
   5.240  0.1538E+01  0.2499E+02
   5.250  0.1544E+01  0.2501E+02
   5.260  0.1550E+01  0.2502E+02
   5.270  0.1557E+01  0.2504E+02
   5.280  0.1563E+01  0.2505E+02
   5.290  0.1569E+01  0.2507E+02
   5.300  0.1576E+01  0.2509E+02
   5.310  0.1582E+01  0.2510E+02
   5.320  0.1588E+01  0.2512E+02
   5.330  0.1594E+01  0.2513E+02
   5.340  0.1601E+01  0.2515E+02
   5.350  0.1607E+01  0.2516E+02
   5.360  0.1613E+01  0.2518E+02
   5.370  0.1619E+01  0.2520E+02
   5.380  0.1625E+01  0.2521E+02
   5.390  0.1630E+01  0.2523E+02
   5.400  0.1636E+01  0.2525E+02
   5.410  0.1641E+01  0.2526E+02
   5.420  0.1647E+01  0.2528E+02
   5.430  0.1652E+01  0.2530E+02
   5.440  0.1657E+01  0.2531E+02
   5.450  0.1662E+01  0.2533E+02
   5.460  0.1666E+01  0.2535E+02
   5.470  0.1671E+01  0.2536E+02
   5.480  0.1675E+01  0.2538E+02
   5.490  0.1679E+01  0.2540E+02
   5.500  0.1682E+01  0.2541E+02
   5.510  0.1686E+01  0.2543E+02
   5.520  0.1689E+01  0.2545E+02
   5.530  0.1692E+01  0.2546E+02
   5.540  0.1695E+01  0.2548E+02
   5.550  0.1697E+01  0.2550E+02
   5.560  0.1700E+01  0.2551E+02
   5.570  0.1702E+01  0.2553E+02
   5.580  0.1703E+01  0.2555E+02
   5.590  0.1705E+01  0.2556E+02
   5.600  0.1706E+01  0.2558E+02
   5.610  0.1707E+01  0.2560E+02
   5.620  0.1708E+01  0.2562E+02
   5.630  0.1709E+01  0.2563E+02
   5.640  0.1709E+01  0.2565E+02
   5.650  0.1709E+01  0.2567E+02
   5.660  0.1709E+01  0.2568E+02
   5.670  0.1709E+01  0.2570E+02
   5.680  0.1708E+01  0.2572E+02
   5.690  0.1707E+01  0.2574E+02
   5.700  0.1706E+01  0.2575E+02
   5.710  0.1705E+01  0.2577E+02
   5.720  0.1704E+01  0.2579E+02
   5.730  0.1703E+01  0.2580E+02
   5.740  0.1701E+01  0.2582E+02
   5.750  0.1700E+01  0.2584E+02
   5.760  0.1698E+01  0.2585E+02
   5.770  0.1696E+01  0.2587E+02
   5.780  0.1694E+01  0.2589E+02
   5.790  0.1692E+01  0.2591E+02
   5.800  0.1690E+01  0.2592E+02
   5.810  0.1687E+01  0.2594E+02
   5.820  0.1685E+01  0.2596E+02
   5.830  0.1683E+01  0.2597E+02
   5.840  0.1680E+01  0.2599E+02
   5.850  0.1678E+01  0.2601E+02
   5.860  0.1675E+01  0.2602E+02
   5.870  0.1672E+01  0.2604E+02
   5.880  0.1670E+01  0.2606E+02
   5.890  0.1667E+01  0.2607E+02
   5.900  0.1664E+01  0.2609E+02
   5.910  0.1662E+01  0.2611E+02
   5.920  0.1659E+01  0.2612E+02
   5.930  0.1656E+01  0.2614E+02
   5.940  0.1653E+01  0.2616E+02
   5.950  0.1651E+01  0.2617E+02
   5.960  0.1648E+01  0.2619E+02
   5.970  0.1645E+01  0.2621E+02
   5.980  0.1642E+01  0.2622E+02
   5.990  0.1639E+01  0.2624E+02
   6.000  0.1637E+01  0.2626E+02
   6.010  0.1634E+01  0.2627E+02
   6.020  0.1631E+01  0.2629E+02
   6.030  0.1628E+01  0.2630E+02
   6.040  0.1625E+01  0.2632E+02
   6.050  0.1622E+01  0.2634E+02
   6.060  0.1619E+01  0.2635E+02
   6.070  0.1616E+01  0.2637E+02
   6.080  0.1613E+01  0.2639E+02
   6.090  0.1610E+01  0.2640E+02
   6.100  0.1607E+01  0.2642E+02
   6.110  0.1603E+01  0.2643E+02
   6.120  0.1600E+01  0.2645E+02
   6.130  0.1597E+01  0.2647E+02
   6.140  0.1593E+01  0.2648E+02
   6.150  0.1590E+01  0.2650E+02
   6.160  0.1586E+01  0.2651E+02
   6.170  0.1582E+01  0.2653E+02
   6.180  0.1579E+01  0.2654E+02
   6.190  0.1575E+01  0.2656E+02
   6.200  0.1571E+01  0.2658E+02
   6.210  0.1567E+01  0.2659E+02
   6.220  0.1563E+01  0.2661E+02
   6.230  0.1558E+01  0.2662E+02
   6.240  0.1554E+01  0.2664E+02
   6.250  0.1550E+01  0.2665E+02
   6.260  0.1545E+01  0.2667E+02
   6.270  0.1540E+01  0.2668E+02
   6.280  0.1536E+01  0.2670E+02
   6.290  0.1531E+01  0.2672E+02
   6.300  0.1526E+01  0.2673E+02
   6.310  0.1521E+01  0.2675E+02
   6.320  0.1515E+01  0.2676E+02
   6.330  0.1510E+01  0.2678E+02
   6.340  0.1504E+01  0.2679E+02
   6.350  0.1499E+01  0.2681E+02
   6.360  0.1493E+01  0.2682E+02
   6.370  0.1487E+01  0.2684E+02
   6.380  0.1481E+01  0.2685E+02
   6.390  0.1475E+01  0.2687E+02
   6.400  0.1468E+01  0.2688E+02
   6.410  0.1462E+01  0.2689E+02
   6.420  0.1455E+01  0.2691E+02
   6.430  0.1449E+01  0.2692E+02
   6.440  0.1442E+01  0.2694E+02
   6.450  0.1435E+01  0.2695E+02
   6.460  0.1427E+01  0.2697E+02
   6.470  0.1420E+01  0.2698E+02
   6.480  0.1413E+01  0.2700E+02
   6.490  0.1405E+01  0.2701E+02
   6.500  0.1397E+01  0.2702E+02
   6.510  0.1389E+01  0.2704E+02
   6.520  0.1381E+01  0.2705E+02
   6.530  0.1373E+01  0.2706E+02
   6.540  0.1364E+01  0.2708E+02
   6.550  0.1356E+01  0.2709E+02
   6.560  0.1347E+01  0.2711E+02
   6.570  0.1338E+01  0.2712E+02
   6.580  0.1329E+01  0.2713E+02
   6.590  0.1320E+01  0.2715E+02
   6.600  0.1311E+01  0.2716E+02
   6.610  0.1301E+01  0.2717E+02
   6.620  0.1292E+01  0.2718E+02
   6.630  0.1282E+01  0.2720E+02
   6.640  0.1272E+01  0.2721E+02
   6.650  0.1262E+01  0.2722E+02
   6.660  0.1251E+01  0.2723E+02
   6.670  0.1241E+01  0.2725E+02
   6.680  0.1231E+01  0.2726E+02
   6.690  0.1220E+01  0.2727E+02
   6.700  0.1209E+01  0.2728E+02
   6.710  0.1198E+01  0.2730E+02
   6.720  0.1187E+01  0.2731E+02
   6.730  0.1176E+01  0.2732E+02
   6.740  0.1165E+01  0.2733E+02
   6.750  0.1153E+01  0.2734E+02
   6.760  0.1142E+01  0.2735E+02
   6.770  0.1130E+01  0.2737E+02
   6.780  0.1119E+01  0.2738E+02
   6.790  0.1107E+01  0.2739E+02
   6.800  0.1095E+01  0.2740E+02
   6.810  0.1083E+01  0.2741E+02
   6.820  0.1071E+01  0.2742E+02
   6.830  0.1059E+01  0.2743E+02
   6.840  0.1047E+01  0.2744E+02
   6.850  0.1035E+01  0.2745E+02
   6.860  0.1022E+01  0.2746E+02
   6.870  0.1010E+01  0.2747E+02
   6.880  0.9978E+00  0.2748E+02
   6.890  0.9855E+00  0.2749E+02
   6.900  0.9732E+00  0.2750E+02
   6.910  0.9609E+00  0.2751E+02
   6.920  0.9486E+00  0.2752E+02
   6.930  0.9363E+00  0.2753E+02
   6.940  0.9240E+00  0.2754E+02
   6.950  0.9117E+00  0.2755E+02
   6.960  0.8994E+00  0.2756E+02
   6.970  0.8872E+00  0.2757E+02
   6.980  0.8750E+00  0.2757E+02
   6.990  0.8628E+00  0.2758E+02
   7.000  0.8507E+00  0.2759E+02
   7.010  0.8386E+00  0.2760E+02
   7.020  0.8266E+00  0.2761E+02
   7.030  0.8147E+00  0.2762E+02
   7.040  0.8028E+00  0.2762E+02
   7.050  0.7910E+00  0.2763E+02
   7.060  0.7792E+00  0.2764E+02
   7.070  0.7676E+00  0.2765E+02
   7.080  0.7560E+00  0.2766E+02
   7.090  0.7445E+00  0.2766E+02
   7.100  0.7331E+00  0.2767E+02
   7.110  0.7217E+00  0.2768E+02
   7.120  0.7105E+00  0.2768E+02
   7.130  0.6993E+00  0.2769E+02
   7.140  0.6883E+00  0.2770E+02
   7.150  0.6773E+00  0.2771E+02
   7.160  0.6664E+00  0.2771E+02
   7.170  0.6556E+00  0.2772E+02
   7.180  0.6450E+00  0.2773E+02
   7.190  0.6344E+00  0.2773E+02
   7.200  0.6239E+00  0.2774E+02
   7.210  0.6136E+00  0.2774E+02
   7.220  0.6033E+00  0.2775E+02
   7.230  0.5931E+00  0.2776E+02
   7.240  0.5831E+00  0.2776E+02
   7.250  0.5731E+00  0.2777E+02
   7.260  0.5633E+00  0.2777E+02
   7.270  0.5535E+00  0.2778E+02
   7.280  0.5439E+00  0.2778E+02
   7.290  0.5344E+00  0.2779E+02
   7.300  0.5250E+00  0.2779E+02
   7.310  0.5157E+00  0.2780E+02
   7.320  0.5065E+00  0.2780E+02
   7.330  0.4974E+00  0.2781E+02
   7.340  0.4884E+00  0.2781E+02
   7.350  0.4795E+00  0.2782E+02
   7.360  0.4708E+00  0.2782E+02
   7.370  0.4621E+00  0.2783E+02
   7.380  0.4536E+00  0.2783E+02
   7.390  0.4452E+00  0.2784E+02
   7.400  0.4369E+00  0.2784E+02
   7.410  0.4287E+00  0.2785E+02
   7.420  0.4207E+00  0.2785E+02
   7.430  0.4127E+00  0.2785E+02
   7.440  0.4049E+00  0.2786E+02
   7.450  0.3972E+00  0.2786E+02
   7.460  0.3896E+00  0.2787E+02
   7.470  0.3821E+00  0.2787E+02
   7.480  0.3748E+00  0.2787E+02
   7.490  0.3676E+00  0.2788E+02
   7.500  0.3605E+00  0.2788E+02
   7.510  0.3535E+00  0.2789E+02
   7.520  0.3467E+00  0.2789E+02
   7.530  0.3399E+00  0.2789E+02
   7.540  0.3333E+00  0.2790E+02
   7.550  0.3269E+00  0.2790E+02
   7.560  0.3205E+00  0.2790E+02
   7.570  0.3143E+00  0.2790E+02
   7.580  0.3082E+00  0.2791E+02
   7.590  0.3022E+00  0.2791E+02
   7.600  0.2964E+00  0.2791E+02
   7.610  0.2907E+00  0.2792E+02
   7.620  0.2851E+00  0.2792E+02
   7.630  0.2796E+00  0.2792E+02
   7.640  0.2743E+00  0.2793E+02
   7.650  0.2690E+00  0.2793E+02
   7.660  0.2639E+00  0.2793E+02
   7.670  0.2589E+00  0.2793E+02
   7.680  0.2541E+00  0.2794E+02
   7.690  0.2494E+00  0.2794E+02
   7.700  0.2447E+00  0.2794E+02
   7.710  0.2402E+00  0.2794E+02
   7.720  0.2359E+00  0.2795E+02
   7.730  0.2316E+00  0.2795E+02
   7.740  0.2275E+00  0.2795E+02
   7.750  0.2234E+00  0.2795E+02
   7.760  0.2195E+00  0.2795E+02
   7.770  0.2157E+00  0.2796E+02
   7.780  0.2120E+00  0.2796E+02
   7.790  0.2085E+00  0.2796E+02
   7.800  0.2050E+00  0.2796E+02
   7.810  0.2017E+00  0.2796E+02
   7.820  0.1985E+00  0.2797E+02
   7.830  0.1953E+00  0.2797E+02
   7.840  0.1924E+00  0.2797E+02
   7.850  0.1895E+00  0.2797E+02
   7.860  0.1867E+00  0.2797E+02
   7.870  0.1841E+00  0.2798E+02
   7.880  0.1816E+00  0.2798E+02
   7.890  0.1792E+00  0.2798E+02
   7.900  0.1769E+00  0.2798E+02
   7.910  0.1748E+00  0.2798E+02
   7.920  0.1727E+00  0.2799E+02
   7.930  0.1708E+00  0.2799E+02
   7.940  0.1691E+00  0.2799E+02
   7.950  0.1675E+00  0.2799E+02
   7.960  0.1660E+00  0.2799E+02
   7.970  0.1647E+00  0.2799E+02
   7.980  0.1635E+00  0.2800E+02
   7.990  0.1625E+00  0.2800E+02
   8.000  0.1616E+00  0.2800E+02
   8.010  0.1609E+00  0.2800E+02
   8.020  0.1603E+00  0.2800E+02
   8.030  0.1600E+00  0.2800E+02
   8.040  0.1598E+00  0.2800E+02
   8.050  0.1598E+00  0.2801E+02
   8.060  0.1599E+00  0.2801E+02
   8.070  0.1603E+00  0.2801E+02
   8.080  0.1608E+00  0.2801E+02
   8.090  0.1616E+00  0.2801E+02
   8.100  0.1626E+00  0.2801E+02
   8.110  0.1638E+00  0.2802E+02
   8.120  0.1651E+00  0.2802E+02
   8.130  0.1668E+00  0.2802E+02
   8.140  0.1686E+00  0.2802E+02
   8.150  0.1707E+00  0.2802E+02
   8.160  0.1730E+00  0.2802E+02
   8.170  0.1755E+00  0.2803E+02
   8.180  0.1783E+00  0.2803E+02
   8.190  0.1814E+00  0.2803E+02
   8.200  0.1847E+00  0.2803E+02
   8.210  0.1883E+00  0.2803E+02
   8.220  0.1921E+00  0.2804E+02
   8.230  0.1962E+00  0.2804E+02
   8.240  0.2005E+00  0.2804E+02
   8.250  0.2051E+00  0.2804E+02
   8.260  0.2100E+00  0.2804E+02
   8.270  0.2151E+00  0.2805E+02
   8.280  0.2206E+00  0.2805E+02
   8.290  0.2263E+00  0.2805E+02
   8.300  0.2322E+00  0.2805E+02
   8.310  0.2385E+00  0.2806E+02
   8.320  0.2450E+00  0.2806E+02
   8.330  0.2518E+00  0.2806E+02
   8.340  0.2588E+00  0.2806E+02
   8.350  0.2661E+00  0.2807E+02
   8.360  0.2737E+00  0.2807E+02
   8.370  0.2816E+00  0.2807E+02
   8.380  0.2897E+00  0.2807E+02
   8.390  0.2981E+00  0.2808E+02
   8.400  0.3067E+00  0.2808E+02
   8.410  0.3156E+00  0.2808E+02
   8.420  0.3247E+00  0.2809E+02
   8.430  0.3341E+00  0.2809E+02
   8.440  0.3437E+00  0.2809E+02
   8.450  0.3536E+00  0.2810E+02
   8.460  0.3637E+00  0.2810E+02
   8.470  0.3741E+00  0.2810E+02
   8.480  0.3846E+00  0.2811E+02
   8.490  0.3954E+00  0.2811E+02
   8.500  0.4064E+00  0.2812E+02
   8.510  0.4177E+00  0.2812E+02
   8.520  0.4291E+00  0.2812E+02
   8.530  0.4408E+00  0.2813E+02
   8.540  0.4527E+00  0.2813E+02
   8.550  0.4648E+00  0.2814E+02
   8.560  0.4771E+00  0.2814E+02
   8.570  0.4896E+00  0.2815E+02
   8.580  0.5022E+00  0.2815E+02
   8.590  0.5151E+00  0.2816E+02
   8.600  0.5282E+00  0.2816E+02
   8.610  0.5415E+00  0.2817E+02
   8.620  0.5550E+00  0.2817E+02
   8.630  0.5687E+00  0.2818E+02
   8.640  0.5826E+00  0.2819E+02
   8.650  0.5966E+00  0.2819E+02
   8.660  0.6109E+00  0.2820E+02
   8.670  0.6253E+00  0.2820E+02
   8.680  0.6400E+00  0.2821E+02
   8.690  0.6548E+00  0.2822E+02
   8.700  0.6699E+00  0.2822E+02
   8.710  0.6851E+00  0.2823E+02
   8.720  0.7006E+00  0.2824E+02
   8.730  0.7162E+00  0.2824E+02
   8.740  0.7321E+00  0.2825E+02
   8.750  0.7481E+00  0.2826E+02
   8.760  0.7644E+00  0.2827E+02
   8.770  0.7808E+00  0.2827E+02
   8.780  0.7975E+00  0.2828E+02
   8.790  0.8143E+00  0.2829E+02
   8.800  0.8314E+00  0.2830E+02
   8.810  0.8487E+00  0.2831E+02
   8.820  0.8661E+00  0.2832E+02
   8.830  0.8837E+00  0.2833E+02
   8.840  0.9016E+00  0.2833E+02
   8.850  0.9196E+00  0.2834E+02
   8.860  0.9378E+00  0.2835E+02
   8.870  0.9562E+00  0.2836E+02
   8.880  0.9747E+00  0.2837E+02
   8.890  0.9935E+00  0.2838E+02
   8.900  0.1012E+01  0.2839E+02
   8.910  0.1031E+01  0.2840E+02
   8.920  0.1050E+01  0.2841E+02
   8.930  0.1070E+01  0.2842E+02
   8.940  0.1089E+01  0.2843E+02
   8.950  0.1109E+01  0.2845E+02
   8.960  0.1128E+01  0.2846E+02
   8.970  0.1148E+01  0.2847E+02
   8.980  0.1167E+01  0.2848E+02
   8.990  0.1187E+01  0.2849E+02
   9.000  0.1207E+01  0.2850E+02
   9.010  0.1226E+01  0.2852E+02
   9.020  0.1246E+01  0.2853E+02
   9.030  0.1266E+01  0.2854E+02
   9.040  0.1285E+01  0.2855E+02
   9.050  0.1305E+01  0.2857E+02
   9.060  0.1324E+01  0.2858E+02
   9.070  0.1343E+01  0.2859E+02
   9.080  0.1362E+01  0.2861E+02
   9.090  0.1381E+01  0.2862E+02
   9.100  0.1399E+01  0.2864E+02
   9.110  0.1417E+01  0.2865E+02
   9.120  0.1435E+01  0.2866E+02
   9.130  0.1453E+01  0.2868E+02
   9.140  0.1470E+01  0.2869E+02
   9.150  0.1487E+01  0.2871E+02
   9.160  0.1504E+01  0.2872E+02
   9.170  0.1520E+01  0.2874E+02
   9.180  0.1535E+01  0.2875E+02
   9.190  0.1550E+01  0.2877E+02
   9.200  0.1565E+01  0.2878E+02
   9.210  0.1579E+01  0.2880E+02
   9.220  0.1592E+01  0.2882E+02
   9.230  0.1605E+01  0.2883E+02
   9.240  0.1618E+01  0.2885E+02
   9.250  0.1629E+01  0.2886E+02
   9.260  0.1640E+01  0.2888E+02
   9.270  0.1651E+01  0.2890E+02
   9.280  0.1660E+01  0.2891E+02
   9.290  0.1669E+01  0.2893E+02
   9.300  0.1677E+01  0.2895E+02
   9.310  0.1685E+01  0.2896E+02
   9.320  0.1692E+01  0.2898E+02
   9.330  0.1698E+01  0.2900E+02
   9.340  0.1703E+01  0.2902E+02
   9.350  0.1707E+01  0.2903E+02
   9.360  0.1711E+01  0.2905E+02
   9.370  0.1714E+01  0.2907E+02
   9.380  0.1716E+01  0.2908E+02
   9.390  0.1718E+01  0.2910E+02
   9.400  0.1718E+01  0.2912E+02
   9.410  0.1718E+01  0.2914E+02
   9.420  0.1717E+01  0.2915E+02
   9.430  0.1715E+01  0.2917E+02
   9.440  0.1713E+01  0.2919E+02
   9.450  0.1710E+01  0.2920E+02
   9.460  0.1706E+01  0.2922E+02
   9.470  0.1701E+01  0.2924E+02
   9.480  0.1696E+01  0.2926E+02
   9.490  0.1690E+01  0.2927E+02
   9.500  0.1684E+01  0.2929E+02
   9.510  0.1676E+01  0.2931E+02
   9.520  0.1669E+01  0.2932E+02
   9.530  0.1660E+01  0.2934E+02
   9.540  0.1651E+01  0.2936E+02
   9.550  0.1642E+01  0.2937E+02
   9.560  0.1632E+01  0.2939E+02
   9.570  0.1622E+01  0.2940E+02
   9.580  0.1611E+01  0.2942E+02
   9.590  0.1600E+01  0.2944E+02
   9.600  0.1589E+01  0.2945E+02
   9.610  0.1577E+01  0.2947E+02
   9.620  0.1565E+01  0.2948E+02
   9.630  0.1552E+01  0.2950E+02
   9.640  0.1540E+01  0.2951E+02
   9.650  0.1527E+01  0.2953E+02
   9.660  0.1514E+01  0.2955E+02
   9.670  0.1501E+01  0.2956E+02
   9.680  0.1488E+01  0.2958E+02
   9.690  0.1475E+01  0.2959E+02
   9.700  0.1462E+01  0.2960E+02
   9.710  0.1449E+01  0.2962E+02
   9.720  0.1436E+01  0.2963E+02
   9.730  0.1424E+01  0.2965E+02
   9.740  0.1411E+01  0.2966E+02
   9.750  0.1399E+01  0.2968E+02
   9.760  0.1386E+01  0.2969E+02
   9.770  0.1374E+01  0.2970E+02
   9.780  0.1363E+01  0.2972E+02
   9.790  0.1351E+01  0.2973E+02
   9.800  0.1340E+01  0.2974E+02
   9.810  0.1330E+01  0.2976E+02
   9.820  0.1320E+01  0.2977E+02
   9.830  0.1310E+01  0.2978E+02
   9.840  0.1300E+01  0.2980E+02
   9.850  0.1292E+01  0.2981E+02
   9.860  0.1283E+01  0.2982E+02
   9.870  0.1275E+01  0.2983E+02
   9.880  0.1268E+01  0.2985E+02
   9.890  0.1261E+01  0.2986E+02
   9.900  0.1255E+01  0.2987E+02
   9.910  0.1249E+01  0.2989E+02
   9.920  0.1244E+01  0.2990E+02
   9.930  0.1239E+01  0.2991E+02
   9.940  0.1235E+01  0.2992E+02
   9.950  0.1231E+01  0.2993E+02
   9.960  0.1228E+01  0.2995E+02
   9.970  0.1225E+01  0.2996E+02
   9.980  0.1223E+01  0.2997E+02
   9.990  0.1222E+01  0.2998E+02
  10.000  0.1221E+01  0.3000E+02
  10.010  0.1220E+01  0.3001E+02
  10.020  0.1220E+01  0.3002E+02
  10.030  0.1221E+01  0.3003E+02
  10.040  0.1222E+01  0.3004E+02
  10.050  0.1223E+01  0.3006E+02
  10.060  0.1225E+01  0.3007E+02
  10.070  0.1227E+01  0.3008E+02
  10.080  0.1229E+01  0.3009E+02
  10.090  0.1232E+01  0.3011E+02
  10.100  0.1234E+01  0.3012E+02
  10.110  0.1238E+01  0.3013E+02
  10.120  0.1241E+01  0.3014E+02
  10.130  0.1245E+01  0.3016E+02
  10.140  0.1248E+01  0.3017E+02
  10.150  0.1252E+01  0.3018E+02
  10.160  0.1256E+01  0.3019E+02
  10.170  0.1260E+01  0.3021E+02
  10.180  0.1264E+01  0.3022E+02
  10.190  0.1268E+01  0.3023E+02
  10.200  0.1272E+01  0.3024E+02
  10.210  0.1276E+01  0.3026E+02
  10.220  0.1279E+01  0.3027E+02
  10.230  0.1283E+01  0.3028E+02
  10.240  0.1286E+01  0.3030E+02
  10.250  0.1290E+01  0.3031E+02
  10.260  0.1293E+01  0.3032E+02
  10.270  0.1296E+01  0.3033E+02
  10.280  0.1299E+01  0.3035E+02
  10.290  0.1301E+01  0.3036E+02
  10.300  0.1303E+01  0.3037E+02
  10.310  0.1305E+01  0.3039E+02
  10.320  0.1307E+01  0.3040E+02
  10.330  0.1308E+01  0.3041E+02
  10.340  0.1310E+01  0.3043E+02
  10.350  0.1311E+01  0.3044E+02
  10.360  0.1311E+01  0.3045E+02
  10.370  0.1312E+01  0.3046E+02
  10.380  0.1312E+01  0.3048E+02
  10.390  0.1312E+01  0.3049E+02
  10.400  0.1311E+01  0.3050E+02
  10.410  0.1311E+01  0.3052E+02
  10.420  0.1310E+01  0.3053E+02
  10.430  0.1309E+01  0.3054E+02
  10.440  0.1308E+01  0.3056E+02
  10.450  0.1307E+01  0.3057E+02
  10.460  0.1305E+01  0.3058E+02
  10.470  0.1304E+01  0.3060E+02
  10.480  0.1303E+01  0.3061E+02
  10.490  0.1301E+01  0.3062E+02
  10.500  0.1300E+01  0.3063E+02
  10.510  0.1298E+01  0.3065E+02
  10.520  0.1297E+01  0.3066E+02
  10.530  0.1295E+01  0.3067E+02
  10.540  0.1294E+01  0.3069E+02
  10.550  0.1293E+01  0.3070E+02
  10.560  0.1292E+01  0.3071E+02
  10.570  0.1291E+01  0.3073E+02
  10.580  0.1291E+01  0.3074E+02
  10.590  0.1291E+01  0.3075E+02
  10.600  0.1291E+01  0.3076E+02
  10.610  0.1291E+01  0.3078E+02
  10.620  0.1292E+01  0.3079E+02
  10.630  0.1293E+01  0.3080E+02
  10.640  0.1295E+01  0.3082E+02
  10.650  0.1296E+01  0.3083E+02
  10.660  0.1299E+01  0.3084E+02
  10.670  0.1301E+01  0.3085E+02
  10.680  0.1304E+01  0.3087E+02
  10.690  0.1308E+01  0.3088E+02
  10.700  0.1312E+01  0.3089E+02
  10.710  0.1316E+01  0.3091E+02
  10.720  0.1321E+01  0.3092E+02
  10.730  0.1326E+01  0.3093E+02
  10.740  0.1332E+01  0.3095E+02
  10.750  0.1338E+01  0.3096E+02
  10.760  0.1345E+01  0.3097E+02
  10.770  0.1352E+01  0.3099E+02
  10.780  0.1359E+01  0.3100E+02
  10.790  0.1367E+01  0.3101E+02
  10.800  0.1375E+01  0.3103E+02
  10.810  0.1383E+01  0.3104E+02
  10.820  0.1392E+01  0.3106E+02
  10.830  0.1401E+01  0.3107E+02
  10.840  0.1410E+01  0.3108E+02
  10.850  0.1419E+01  0.3110E+02
  10.860  0.1429E+01  0.3111E+02
  10.870  0.1439E+01  0.3113E+02
  10.880  0.1449E+01  0.3114E+02
  10.890  0.1459E+01  0.3116E+02
  10.900  0.1469E+01  0.3117E+02
  10.910  0.1479E+01  0.3119E+02
  10.920  0.1489E+01  0.3120E+02
  10.930  0.1499E+01  0.3122E+02
  10.940  0.1509E+01  0.3123E+02
  10.950  0.1518E+01  0.3125E+02
  10.960  0.1528E+01  0.3126E+02
  10.970  0.1538E+01  0.3128E+02
  10.980  0.1547E+01  0.3129E+02
  10.990  0.1556E+01  0.3131E+02
  11.000  0.1564E+01  0.3132E+02
  11.010  0.1573E+01  0.3134E+02
  11.020  0.1581E+01  0.3135E+02
  11.030  0.1588E+01  0.3137E+02
  11.040  0.1596E+01  0.3139E+02
  11.050  0.1602E+01  0.3140E+02
  11.060  0.1609E+01  0.3142E+02
  11.070  0.1615E+01  0.3143E+02
  11.080  0.1620E+01  0.3145E+02
  11.090  0.1625E+01  0.3147E+02
  11.100  0.1629E+01  0.3148E+02
  11.110  0.1633E+01  0.3150E+02
  11.120  0.1636E+01  0.3152E+02
  11.130  0.1639E+01  0.3153E+02
  11.140  0.1641E+01  0.3155E+02
  11.150  0.1643E+01  0.3157E+02
  11.160  0.1644E+01  0.3158E+02
  11.170  0.1645E+01  0.3160E+02
  11.180  0.1645E+01  0.3161E+02
  11.190  0.1644E+01  0.3163E+02
  11.200  0.1643E+01  0.3165E+02
  11.210  0.1641E+01  0.3166E+02
  11.220  0.1639E+01  0.3168E+02
  11.230  0.1637E+01  0.3170E+02
  11.240  0.1634E+01  0.3171E+02
  11.250  0.1630E+01  0.3173E+02
  11.260  0.1626E+01  0.3175E+02
  11.270  0.1622E+01  0.3176E+02
  11.280  0.1617E+01  0.3178E+02
  11.290  0.1612E+01  0.3179E+02
  11.300  0.1607E+01  0.3181E+02
  11.310  0.1601E+01  0.3183E+02
  11.320  0.1596E+01  0.3184E+02
  11.330  0.1590E+01  0.3186E+02
  11.340  0.1584E+01  0.3187E+02
  11.350  0.1577E+01  0.3189E+02
  11.360  0.1571E+01  0.3191E+02
  11.370  0.1564E+01  0.3192E+02
  11.380  0.1558E+01  0.3194E+02
  11.390  0.1552E+01  0.3195E+02
  11.400  0.1545E+01  0.3197E+02
  11.410  0.1539E+01  0.3198E+02
  11.420  0.1533E+01  0.3200E+02
  11.430  0.1527E+01  0.3201E+02
  11.440  0.1522E+01  0.3203E+02
  11.450  0.1516E+01  0.3204E+02
  11.460  0.1511E+01  0.3206E+02
  11.470  0.1506E+01  0.3207E+02
  11.480  0.1502E+01  0.3209E+02
  11.490  0.1498E+01  0.3210E+02
  11.500  0.1494E+01  0.3212E+02
  11.510  0.1491E+01  0.3213E+02
  11.520  0.1488E+01  0.3215E+02
  11.530  0.1486E+01  0.3216E+02
  11.540  0.1484E+01  0.3218E+02
  11.550  0.1483E+01  0.3219E+02
  11.560  0.1482E+01  0.3221E+02
  11.570  0.1482E+01  0.3222E+02
  11.580  0.1483E+01  0.3224E+02
  11.590  0.1483E+01  0.3225E+02
  11.600  0.1485E+01  0.3227E+02
  11.610  0.1487E+01  0.3228E+02
  11.620  0.1490E+01  0.3230E+02
  11.630  0.1493E+01  0.3231E+02
  11.640  0.1497E+01  0.3233E+02
  11.650  0.1501E+01  0.3234E+02
  11.660  0.1506E+01  0.3236E+02
  11.670  0.1511E+01  0.3237E+02
  11.680  0.1517E+01  0.3239E+02
  11.690  0.1523E+01  0.3240E+02
  11.700  0.1530E+01  0.3242E+02
  11.710  0.1537E+01  0.3243E+02
  11.720  0.1544E+01  0.3245E+02
  11.730  0.1552E+01  0.3246E+02
  11.740  0.1560E+01  0.3248E+02
  11.750  0.1568E+01  0.3250E+02
  11.760  0.1576E+01  0.3251E+02
  11.770  0.1585E+01  0.3253E+02
  11.780  0.1594E+01  0.3254E+02
  11.790  0.1603E+01  0.3256E+02
  11.800  0.1612E+01  0.3258E+02
  11.810  0.1621E+01  0.3259E+02
  11.820  0.1630E+01  0.3261E+02
  11.830  0.1639E+01  0.3262E+02
  11.840  0.1648E+01  0.3264E+02
  11.850  0.1656E+01  0.3266E+02
  11.860  0.1665E+01  0.3267E+02
  11.870  0.1673E+01  0.3269E+02
  11.880  0.1681E+01  0.3271E+02
  11.890  0.1688E+01  0.3272E+02
  11.900  0.1696E+01  0.3274E+02
  11.910  0.1703E+01  0.3276E+02
  11.920  0.1709E+01  0.3278E+02
  11.930  0.1715E+01  0.3279E+02
  11.940  0.1721E+01  0.3281E+02
  11.950  0.1726E+01  0.3283E+02
  11.960  0.1730E+01  0.3284E+02
  11.970  0.1734E+01  0.3286E+02
  11.980  0.1737E+01  0.3288E+02
  11.990  0.1740E+01  0.3290E+02
  12.000  0.1743E+01  0.3291E+02
  12.010  0.1744E+01  0.3293E+02
  12.020  0.1745E+01  0.3295E+02
  12.030  0.1746E+01  0.3297E+02
  12.040  0.1745E+01  0.3298E+02
  12.050  0.1745E+01  0.3300E+02
  12.060  0.1743E+01  0.3302E+02
  12.070  0.1741E+01  0.3304E+02
  12.080  0.1738E+01  0.3305E+02
  12.090  0.1735E+01  0.3307E+02
  12.100  0.1732E+01  0.3309E+02
  12.110  0.1727E+01  0.3311E+02
  12.120  0.1722E+01  0.3312E+02
  12.130  0.1717E+01  0.3314E+02
  12.140  0.1711E+01  0.3316E+02
  12.150  0.1705E+01  0.3317E+02
  12.160  0.1699E+01  0.3319E+02
  12.170  0.1692E+01  0.3321E+02
  12.180  0.1684E+01  0.3322E+02
  12.190  0.1676E+01  0.3324E+02
  12.200  0.1668E+01  0.3326E+02
  12.210  0.1660E+01  0.3327E+02
  12.220  0.1651E+01  0.3329E+02
  12.230  0.1643E+01  0.3331E+02
  12.240  0.1634E+01  0.3332E+02
  12.250  0.1625E+01  0.3334E+02
  12.260  0.1616E+01  0.3336E+02
  12.270  0.1606E+01  0.3337E+02
  12.280  0.1597E+01  0.3339E+02
  12.290  0.1588E+01  0.3340E+02
  12.300  0.1578E+01  0.3342E+02
  12.310  0.1569E+01  0.3344E+02
  12.320  0.1560E+01  0.3345E+02
  12.330  0.1551E+01  0.3347E+02
  12.340  0.1542E+01  0.3348E+02
  12.350  0.1533E+01  0.3350E+02
  12.360  0.1524E+01  0.3351E+02
  12.370  0.1516E+01  0.3353E+02
  12.380  0.1507E+01  0.3354E+02
  12.390  0.1499E+01  0.3356E+02
  12.400  0.1491E+01  0.3357E+02
  12.410  0.1484E+01  0.3359E+02
  12.420  0.1476E+01  0.3360E+02
  12.430  0.1469E+01  0.3362E+02
  12.440  0.1462E+01  0.3363E+02
  12.450  0.1456E+01  0.3365E+02
  12.460  0.1449E+01  0.3366E+02
  12.470  0.1443E+01  0.3368E+02
  12.480  0.1438E+01  0.3369E+02
  12.490  0.1432E+01  0.3370E+02
  12.500  0.1427E+01  0.3372E+02
  12.510  0.1422E+01  0.3373E+02
  12.520  0.1418E+01  0.3375E+02
  12.530  0.1414E+01  0.3376E+02
  12.540  0.1410E+01  0.3377E+02
  12.550  0.1406E+01  0.3379E+02
  12.560  0.1403E+01  0.3380E+02
  12.570  0.1400E+01  0.3382E+02
  12.580  0.1397E+01  0.3383E+02
  12.590  0.1394E+01  0.3384E+02
  12.600  0.1392E+01  0.3386E+02
  12.610  0.1389E+01  0.3387E+02
  12.620  0.1387E+01  0.3389E+02
  12.630  0.1386E+01  0.3390E+02
  12.640  0.1384E+01  0.3391E+02
  12.650  0.1383E+01  0.3393E+02
  12.660  0.1382E+01  0.3394E+02
  12.670  0.1381E+01  0.3396E+02
  12.680  0.1380E+01  0.3397E+02
  12.690  0.1379E+01  0.3398E+02
  12.700  0.1378E+01  0.3400E+02
  12.710  0.1378E+01  0.3401E+02
  12.720  0.1377E+01  0.3402E+02
  12.730  0.1377E+01  0.3404E+02
  12.740  0.1377E+01  0.3405E+02
  12.750  0.1377E+01  0.3407E+02
  12.760  0.1377E+01  0.3408E+02
  12.770  0.1376E+01  0.3409E+02
  12.780  0.1376E+01  0.3411E+02
  12.790  0.1377E+01  0.3412E+02
  12.800  0.1377E+01  0.3413E+02
  12.810  0.1377E+01  0.3415E+02
  12.820  0.1377E+01  0.3416E+02
  12.830  0.1377E+01  0.3418E+02
  12.840  0.1377E+01  0.3419E+02
  12.850  0.1377E+01  0.3420E+02
  12.860  0.1377E+01  0.3422E+02
  12.870  0.1377E+01  0.3423E+02
  12.880  0.1377E+01  0.3424E+02
  12.890  0.1377E+01  0.3426E+02
  12.900  0.1377E+01  0.3427E+02
  12.910  0.1377E+01  0.3429E+02
  12.920  0.1376E+01  0.3430E+02
  12.930  0.1376E+01  0.3431E+02
  12.940  0.1376E+01  0.3433E+02
  12.950  0.1375E+01  0.3434E+02
  12.960  0.1375E+01  0.3435E+02
  12.970  0.1374E+01  0.3437E+02
  12.980  0.1374E+01  0.3438E+02
  12.990  0.1373E+01  0.3440E+02
  13.000  0.1372E+01  0.3441E+02
  13.010  0.1371E+01  0.3442E+02
  13.020  0.1370E+01  0.3444E+02
  13.030  0.1369E+01  0.3445E+02
  13.040  0.1367E+01  0.3446E+02
  13.050  0.1366E+01  0.3448E+02
  13.060  0.1365E+01  0.3449E+02
  13.070  0.1363E+01  0.3451E+02
  13.080  0.1361E+01  0.3452E+02
  13.090  0.1360E+01  0.3453E+02
  13.100  0.1358E+01  0.3455E+02
  13.110  0.1356E+01  0.3456E+02
  13.120  0.1353E+01  0.3457E+02
  13.130  0.1351E+01  0.3459E+02
  13.140  0.1349E+01  0.3460E+02
  13.150  0.1346E+01  0.3461E+02
  13.160  0.1344E+01  0.3463E+02
  13.170  0.1341E+01  0.3464E+02
  13.180  0.1338E+01  0.3465E+02
  13.190  0.1335E+01  0.3467E+02
  13.200  0.1332E+01  0.3468E+02
  13.210  0.1329E+01  0.3469E+02
  13.220  0.1326E+01  0.3471E+02
  13.230  0.1323E+01  0.3472E+02
  13.240  0.1320E+01  0.3473E+02
  13.250  0.1316E+01  0.3475E+02
  13.260  0.1313E+01  0.3476E+02
  13.270  0.1309E+01  0.3477E+02
  13.280  0.1306E+01  0.3479E+02
  13.290  0.1302E+01  0.3480E+02
  13.300  0.1299E+01  0.3481E+02
  13.310  0.1295E+01  0.3483E+02
  13.320  0.1291E+01  0.3484E+02
  13.330  0.1287E+01  0.3485E+02
  13.340  0.1284E+01  0.3486E+02
  13.350  0.1280E+01  0.3488E+02
  13.360  0.1276E+01  0.3489E+02
  13.370  0.1272E+01  0.3490E+02
  13.380  0.1269E+01  0.3491E+02
  13.390  0.1265E+01  0.3493E+02
  13.400  0.1261E+01  0.3494E+02
  13.410  0.1258E+01  0.3495E+02
  13.420  0.1254E+01  0.3497E+02
  13.430  0.1251E+01  0.3498E+02
  13.440  0.1247E+01  0.3499E+02
  13.450  0.1244E+01  0.3500E+02
  13.460  0.1241E+01  0.3501E+02
  13.470  0.1238E+01  0.3503E+02
  13.480  0.1235E+01  0.3504E+02
  13.490  0.1232E+01  0.3505E+02
  13.500  0.1229E+01  0.3506E+02
  13.510  0.1226E+01  0.3508E+02
  13.520  0.1224E+01  0.3509E+02
  13.530  0.1221E+01  0.3510E+02
  13.540  0.1219E+01  0.3511E+02
  13.550  0.1217E+01  0.3513E+02
  13.560  0.1215E+01  0.3514E+02
  13.570  0.1213E+01  0.3515E+02
  13.580  0.1211E+01  0.3516E+02
  13.590  0.1210E+01  0.3517E+02
  13.600  0.1209E+01  0.3519E+02
  13.610  0.1207E+01  0.3520E+02
  13.620  0.1206E+01  0.3521E+02
  13.630  0.1206E+01  0.3522E+02
  13.640  0.1205E+01  0.3523E+02
  13.650  0.1204E+01  0.3525E+02
  13.660  0.1204E+01  0.3526E+02
  13.670  0.1204E+01  0.3527E+02
  13.680  0.1204E+01  0.3528E+02
  13.690  0.1204E+01  0.3529E+02
  13.700  0.1204E+01  0.3531E+02
  13.710  0.1204E+01  0.3532E+02
  13.720  0.1205E+01  0.3533E+02
  13.730  0.1206E+01  0.3534E+02
  13.740  0.1206E+01  0.3535E+02
  13.750  0.1207E+01  0.3537E+02
  13.760  0.1208E+01  0.3538E+02
  13.770  0.1209E+01  0.3539E+02
  13.780  0.1210E+01  0.3540E+02
  13.790  0.1211E+01  0.3542E+02
  13.800  0.1213E+01  0.3543E+02
  13.810  0.1214E+01  0.3544E+02
  13.820  0.1216E+01  0.3545E+02
  13.830  0.1217E+01  0.3546E+02
  13.840  0.1219E+01  0.3548E+02
  13.850  0.1220E+01  0.3549E+02
  13.860  0.1222E+01  0.3550E+02
  13.870  0.1224E+01  0.3551E+02
  13.880  0.1225E+01  0.3552E+02
  13.890  0.1227E+01  0.3554E+02
  13.900  0.1229E+01  0.3555E+02
  13.910  0.1231E+01  0.3556E+02
  13.920  0.1233E+01  0.3557E+02
  13.930  0.1234E+01  0.3559E+02
  13.940  0.1236E+01  0.3560E+02
  13.950  0.1238E+01  0.3561E+02
  13.960  0.1240E+01  0.3562E+02
  13.970  0.1242E+01  0.3564E+02
  13.980  0.1244E+01  0.3565E+02
  13.990  0.1246E+01  0.3566E+02
  14.000  0.1248E+01  0.3567E+02
  14.010  0.1249E+01  0.3569E+02
  14.020  0.1251E+01  0.3570E+02
  14.030  0.1253E+01  0.3571E+02
  14.040  0.1255E+01  0.3572E+02
  14.050  0.1257E+01  0.3574E+02
  14.060  0.1259E+01  0.3575E+02
  14.070  0.1261E+01  0.3576E+02
  14.080  0.1264E+01  0.3577E+02
  14.090  0.1266E+01  0.3579E+02
  14.100  0.1268E+01  0.3580E+02
  14.110  0.1270E+01  0.3581E+02
  14.120  0.1272E+01  0.3582E+02
  14.130  0.1275E+01  0.3584E+02
  14.140  0.1277E+01  0.3585E+02
  14.150  0.1280E+01  0.3586E+02
  14.160  0.1282E+01  0.3588E+02
  14.170  0.1285E+01  0.3589E+02
  14.180  0.1288E+01  0.3590E+02
  14.190  0.1290E+01  0.3591E+02
  14.200  0.1293E+01  0.3593E+02
  14.210  0.1296E+01  0.3594E+02
  14.220  0.1299E+01  0.3595E+02
  14.230  0.1302E+01  0.3597E+02
  14.240  0.1306E+01  0.3598E+02
  14.250  0.1309E+01  0.3599E+02
  14.260  0.1313E+01  0.3601E+02
  14.270  0.1316E+01  0.3602E+02
  14.280  0.1320E+01  0.3603E+02
  14.290  0.1324E+01  0.3605E+02
  14.300  0.1327E+01  0.3606E+02
  14.310  0.1332E+01  0.3607E+02
  14.320  0.1336E+01  0.3609E+02
  14.330  0.1340E+01  0.3610E+02
  14.340  0.1344E+01  0.3611E+02
  14.350  0.1349E+01  0.3613E+02
  14.360  0.1353E+01  0.3614E+02
  14.370  0.1358E+01  0.3615E+02
  14.380  0.1363E+01  0.3617E+02
  14.390  0.1368E+01  0.3618E+02
  14.400  0.1373E+01  0.3619E+02
  14.410  0.1378E+01  0.3621E+02
  14.420  0.1383E+01  0.3622E+02
  14.430  0.1388E+01  0.3624E+02
  14.440  0.1394E+01  0.3625E+02
  14.450  0.1399E+01  0.3626E+02
  14.460  0.1405E+01  0.3628E+02
  14.470  0.1411E+01  0.3629E+02
  14.480  0.1417E+01  0.3631E+02
  14.490  0.1423E+01  0.3632E+02
  14.500  0.1429E+01  0.3633E+02
  14.510  0.1435E+01  0.3635E+02
  14.520  0.1441E+01  0.3636E+02
  14.530  0.1448E+01  0.3638E+02
  14.540  0.1454E+01  0.3639E+02
  14.550  0.1461E+01  0.3641E+02
  14.560  0.1468E+01  0.3642E+02
  14.570  0.1475E+01  0.3644E+02
  14.580  0.1482E+01  0.3645E+02
  14.590  0.1489E+01  0.3647E+02
  14.600  0.1496E+01  0.3648E+02
  14.610  0.1503E+01  0.3650E+02
  14.620  0.1510E+01  0.3651E+02
  14.630  0.1518E+01  0.3653E+02
  14.640  0.1526E+01  0.3654E+02
  14.650  0.1533E+01  0.3656E+02
  14.660  0.1541E+01  0.3657E+02
  14.670  0.1549E+01  0.3659E+02
  14.680  0.1557E+01  0.3660E+02
  14.690  0.1565E+01  0.3662E+02
  14.700  0.1573E+01  0.3663E+02
  14.710  0.1581E+01  0.3665E+02
  14.720  0.1589E+01  0.3667E+02
  14.730  0.1598E+01  0.3668E+02
  14.740  0.1606E+01  0.3670E+02
  14.750  0.1615E+01  0.3671E+02
  14.760  0.1623E+01  0.3673E+02
  14.770  0.1631E+01  0.3675E+02
  14.780  0.1640E+01  0.3676E+02
  14.790  0.1648E+01  0.3678E+02
  14.800  0.1657E+01  0.3680E+02
  14.810  0.1665E+01  0.3681E+02
  14.820  0.1674E+01  0.3683E+02
  14.830  0.1682E+01  0.3685E+02
  14.840  0.1690E+01  0.3686E+02
  14.850  0.1699E+01  0.3688E+02
  14.860  0.1707E+01  0.3690E+02
  14.870  0.1715E+01  0.3691E+02
  14.880  0.1723E+01  0.3693E+02
  14.890  0.1730E+01  0.3695E+02
  14.900  0.1738E+01  0.3697E+02
  14.910  0.1745E+01  0.3698E+02
  14.920  0.1752E+01  0.3700E+02
  14.930  0.1759E+01  0.3702E+02
  14.940  0.1766E+01  0.3704E+02
  14.950  0.1773E+01  0.3705E+02
  14.960  0.1779E+01  0.3707E+02
  14.970  0.1785E+01  0.3709E+02
  14.980  0.1791E+01  0.3711E+02
  14.990  0.1796E+01  0.3713E+02
  15.000  0.1801E+01  0.3714E+02
  15.010  0.1806E+01  0.3716E+02
  15.020  0.1810E+01  0.3718E+02
  15.030  0.1814E+01  0.3720E+02
  15.040  0.1817E+01  0.3722E+02
  15.050  0.1820E+01  0.3723E+02
  15.060  0.1823E+01  0.3725E+02
  15.070  0.1826E+01  0.3727E+02
  15.080  0.1827E+01  0.3729E+02
  15.090  0.1829E+01  0.3731E+02
  15.100  0.1830E+01  0.3733E+02
  15.110  0.1831E+01  0.3734E+02
  15.120  0.1831E+01  0.3736E+02
  15.130  0.1830E+01  0.3738E+02
  15.140  0.1830E+01  0.3740E+02
  15.150  0.1828E+01  0.3742E+02
  15.160  0.1827E+01  0.3744E+02
  15.170  0.1825E+01  0.3745E+02
  15.180  0.1822E+01  0.3747E+02
  15.190  0.1819E+01  0.3749E+02
  15.200  0.1816E+01  0.3751E+02
  15.210  0.1812E+01  0.3753E+02
  15.220  0.1808E+01  0.3754E+02
  15.230  0.1804E+01  0.3756E+02
  15.240  0.1799E+01  0.3758E+02
  15.250  0.1794E+01  0.3760E+02
  15.260  0.1788E+01  0.3762E+02
  15.270  0.1782E+01  0.3763E+02
  15.280  0.1776E+01  0.3765E+02
  15.290  0.1770E+01  0.3767E+02
  15.300  0.1763E+01  0.3769E+02
  15.310  0.1756E+01  0.3770E+02
  15.320  0.1750E+01  0.3772E+02
  15.330  0.1742E+01  0.3774E+02
  15.340  0.1735E+01  0.3776E+02
  15.350  0.1728E+01  0.3777E+02
  15.360  0.1720E+01  0.3779E+02
  15.370  0.1713E+01  0.3781E+02
  15.380  0.1705E+01  0.3783E+02
  15.390  0.1698E+01  0.3784E+02
  15.400  0.1690E+01  0.3786E+02
  15.410  0.1683E+01  0.3788E+02
  15.420  0.1676E+01  0.3789E+02
  15.430  0.1669E+01  0.3791E+02
  15.440  0.1662E+01  0.3793E+02
  15.450  0.1655E+01  0.3794E+02
  15.460  0.1648E+01  0.3796E+02
  15.470  0.1642E+01  0.3798E+02
  15.480  0.1636E+01  0.3799E+02
  15.490  0.1630E+01  0.3801E+02
  15.500  0.1625E+01  0.3802E+02
  15.510  0.1620E+01  0.3804E+02
  15.520  0.1615E+01  0.3806E+02
  15.530  0.1611E+01  0.3807E+02
  15.540  0.1607E+01  0.3809E+02
  15.550  0.1603E+01  0.3811E+02
  15.560  0.1600E+01  0.3812E+02
  15.570  0.1598E+01  0.3814E+02
  15.580  0.1596E+01  0.3815E+02
  15.590  0.1594E+01  0.3817E+02
  15.600  0.1593E+01  0.3819E+02
  15.610  0.1592E+01  0.3820E+02
  15.620  0.1592E+01  0.3822E+02
  15.630  0.1592E+01  0.3823E+02
  15.640  0.1593E+01  0.3825E+02
  15.650  0.1594E+01  0.3826E+02
  15.660  0.1595E+01  0.3828E+02
  15.670  0.1597E+01  0.3830E+02
  15.680  0.1600E+01  0.3831E+02
  15.690  0.1603E+01  0.3833E+02
  15.700  0.1606E+01  0.3834E+02
  15.710  0.1610E+01  0.3836E+02
  15.720  0.1614E+01  0.3838E+02
  15.730  0.1619E+01  0.3839E+02
  15.740  0.1623E+01  0.3841E+02
  15.750  0.1629E+01  0.3843E+02
  15.760  0.1634E+01  0.3844E+02
  15.770  0.1640E+01  0.3846E+02
  15.780  0.1646E+01  0.3847E+02
  15.790  0.1652E+01  0.3849E+02
  15.800  0.1658E+01  0.3851E+02
  15.810  0.1665E+01  0.3852E+02
  15.820  0.1671E+01  0.3854E+02
  15.830  0.1678E+01  0.3856E+02
  15.840  0.1685E+01  0.3857E+02
  15.850  0.1691E+01  0.3859E+02
  15.860  0.1698E+01  0.3861E+02
  15.870  0.1705E+01  0.3863E+02
  15.880  0.1712E+01  0.3864E+02
  15.890  0.1718E+01  0.3866E+02
  15.900  0.1725E+01  0.3868E+02
  15.910  0.1731E+01  0.3869E+02
  15.920  0.1738E+01  0.3871E+02
  15.930  0.1744E+01  0.3873E+02
  15.940  0.1750E+01  0.3875E+02
  15.950  0.1756E+01  0.3876E+02
  15.960  0.1761E+01  0.3878E+02
  15.970  0.1766E+01  0.3880E+02
  15.980  0.1771E+01  0.3882E+02
  15.990  0.1776E+01  0.3884E+02
  16.000  0.1781E+01  0.3885E+02
  16.010  0.1785E+01  0.3887E+02
  16.020  0.1789E+01  0.3889E+02
  16.030  0.1792E+01  0.3891E+02
  16.040  0.1796E+01  0.3892E+02
  16.050  0.1799E+01  0.3894E+02
  16.060  0.1802E+01  0.3896E+02
  16.070  0.1804E+01  0.3898E+02
  16.080  0.1806E+01  0.3900E+02
  16.090  0.1808E+01  0.3902E+02
  16.100  0.1810E+01  0.3903E+02
  16.110  0.1811E+01  0.3905E+02
  16.120  0.1812E+01  0.3907E+02
  16.130  0.1813E+01  0.3909E+02
  16.140  0.1814E+01  0.3911E+02
  16.150  0.1814E+01  0.3912E+02
  16.160  0.1814E+01  0.3914E+02
  16.170  0.1814E+01  0.3916E+02
  16.180  0.1814E+01  0.3918E+02
  16.190  0.1814E+01  0.3920E+02
  16.200  0.1814E+01  0.3921E+02
  16.210  0.1813E+01  0.3923E+02
  16.220  0.1812E+01  0.3925E+02
  16.230  0.1812E+01  0.3927E+02
  16.240  0.1811E+01  0.3929E+02
  16.250  0.1810E+01  0.3931E+02
  16.260  0.1810E+01  0.3932E+02
  16.270  0.1809E+01  0.3934E+02
  16.280  0.1808E+01  0.3936E+02
  16.290  0.1808E+01  0.3938E+02
  16.300  0.1807E+01  0.3940E+02
  16.310  0.1806E+01  0.3941E+02
  16.320  0.1806E+01  0.3943E+02
  16.330  0.1805E+01  0.3945E+02
  16.340  0.1805E+01  0.3947E+02
  16.350  0.1805E+01  0.3949E+02
  16.360  0.1805E+01  0.3950E+02
  16.370  0.1805E+01  0.3952E+02
  16.380  0.1805E+01  0.3954E+02
  16.390  0.1805E+01  0.3956E+02
  16.400  0.1806E+01  0.3958E+02
  16.410  0.1807E+01  0.3959E+02
  16.420  0.1807E+01  0.3961E+02
  16.430  0.1808E+01  0.3963E+02
  16.440  0.1809E+01  0.3965E+02
  16.450  0.1810E+01  0.3967E+02
  16.460  0.1812E+01  0.3968E+02
  16.470  0.1813E+01  0.3970E+02
  16.480  0.1815E+01  0.3972E+02
  16.490  0.1817E+01  0.3974E+02
  16.500  0.1819E+01  0.3976E+02
  16.510  0.1821E+01  0.3978E+02
  16.520  0.1823E+01  0.3979E+02
  16.530  0.1825E+01  0.3981E+02
  16.540  0.1827E+01  0.3983E+02
  16.550  0.1830E+01  0.3985E+02
  16.560  0.1832E+01  0.3987E+02
  16.570  0.1835E+01  0.3989E+02
  16.580  0.1838E+01  0.3990E+02
  16.590  0.1840E+01  0.3992E+02
  16.600  0.1843E+01  0.3994E+02
  16.610  0.1846E+01  0.3996E+02
  16.620  0.1849E+01  0.3998E+02
  16.630  0.1852E+01  0.4000E+02
  16.640  0.1855E+01  0.4001E+02
  16.650  0.1857E+01  0.4003E+02
  16.660  0.1860E+01  0.4005E+02
  16.670  0.1863E+01  0.4007E+02
  16.680  0.1866E+01  0.4009E+02
  16.690  0.1869E+01  0.4011E+02
  16.700  0.1872E+01  0.4013E+02
  16.710  0.1875E+01  0.4014E+02
  16.720  0.1877E+01  0.4016E+02
  16.730  0.1880E+01  0.4018E+02
  16.740  0.1883E+01  0.4020E+02
  16.750  0.1885E+01  0.4022E+02
  16.760  0.1888E+01  0.4024E+02
  16.770  0.1890E+01  0.4026E+02
  16.780  0.1892E+01  0.4028E+02
  16.790  0.1895E+01  0.4030E+02
  16.800  0.1897E+01  0.4031E+02
  16.810  0.1899E+01  0.4033E+02
  16.820  0.1901E+01  0.4035E+02
  16.830  0.1903E+01  0.4037E+02
  16.840  0.1905E+01  0.4039E+02
  16.850  0.1907E+01  0.4041E+02
  16.860  0.1908E+01  0.4043E+02
  16.870  0.1910E+01  0.4045E+02
  16.880  0.1912E+01  0.4047E+02
  16.890  0.1913E+01  0.4049E+02
  16.900  0.1914E+01  0.4051E+02
  16.910  0.1915E+01  0.4052E+02
  16.920  0.1916E+01  0.4054E+02
  16.930  0.1917E+01  0.4056E+02
  16.940  0.1918E+01  0.4058E+02
  16.950  0.1919E+01  0.4060E+02
  16.960  0.1919E+01  0.4062E+02
  16.970  0.1920E+01  0.4064E+02
  16.980  0.1920E+01  0.4066E+02
  16.990  0.1920E+01  0.4068E+02
  17.000  0.1920E+01  0.4070E+02
  17.010  0.1920E+01  0.4072E+02
  17.020  0.1920E+01  0.4074E+02
  17.030  0.1920E+01  0.4076E+02
  17.040  0.1920E+01  0.4077E+02
  17.050  0.1919E+01  0.4079E+02
  17.060  0.1919E+01  0.4081E+02
  17.070  0.1918E+01  0.4083E+02
  17.080  0.1917E+01  0.4085E+02
  17.090  0.1916E+01  0.4087E+02
  17.100  0.1915E+01  0.4089E+02
  17.110  0.1914E+01  0.4091E+02
  17.120  0.1913E+01  0.4093E+02
  17.130  0.1911E+01  0.4095E+02
  17.140  0.1910E+01  0.4097E+02
  17.150  0.1909E+01  0.4098E+02
  17.160  0.1907E+01  0.4100E+02
  17.170  0.1906E+01  0.4102E+02
  17.180  0.1904E+01  0.4104E+02
  17.190  0.1903E+01  0.4106E+02
  17.200  0.1901E+01  0.4108E+02
  17.210  0.1900E+01  0.4110E+02
  17.220  0.1898E+01  0.4112E+02
  17.230  0.1897E+01  0.4114E+02
  17.240  0.1896E+01  0.4116E+02
  17.250  0.1894E+01  0.4117E+02
  17.260  0.1893E+01  0.4119E+02
  17.270  0.1892E+01  0.4121E+02
  17.280  0.1891E+01  0.4123E+02
  17.290  0.1890E+01  0.4125E+02
  17.300  0.1890E+01  0.4127E+02
  17.310  0.1889E+01  0.4129E+02
  17.320  0.1889E+01  0.4131E+02
  17.330  0.1889E+01  0.4133E+02
  17.340  0.1889E+01  0.4135E+02
  17.350  0.1890E+01  0.4136E+02
  17.360  0.1891E+01  0.4138E+02
  17.370  0.1892E+01  0.4140E+02
  17.380  0.1893E+01  0.4142E+02
  17.390  0.1895E+01  0.4144E+02
  17.400  0.1897E+01  0.4146E+02
  17.410  0.1899E+01  0.4148E+02
  17.420  0.1902E+01  0.4150E+02
  17.430  0.1905E+01  0.4152E+02
  17.440  0.1908E+01  0.4153E+02
  17.450  0.1912E+01  0.4155E+02
  17.460  0.1916E+01  0.4157E+02
  17.470  0.1920E+01  0.4159E+02
  17.480  0.1925E+01  0.4161E+02
  17.490  0.1930E+01  0.4163E+02
  17.500  0.1936E+01  0.4165E+02
  17.510  0.1941E+01  0.4167E+02
  17.520  0.1948E+01  0.4169E+02
  17.530  0.1954E+01  0.4171E+02
  17.540  0.1961E+01  0.4173E+02
  17.550  0.1968E+01  0.4175E+02
  17.560  0.1975E+01  0.4177E+02
