#  E (eV)   dos(E)     Int dos(E) EFermi =   7.983 eV
 -15.070  0.5451E-03  0.5451E-05
 -15.060  0.6342E-03  0.1179E-04
 -15.050  0.7369E-03  0.1916E-04
 -15.040  0.8553E-03  0.2772E-04
 -15.030  0.9916E-03  0.3763E-04
 -15.020  0.1148E-02  0.4912E-04
 -15.010  0.1328E-02  0.6240E-04
 -15.000  0.1534E-02  0.7774E-04
 -14.990  0.1771E-02  0.9545E-04
 -14.980  0.2041E-02  0.1159E-03
 -14.970  0.2350E-02  0.1394E-03
 -14.960  0.2702E-02  0.1664E-03
 -14.950  0.3104E-02  0.1974E-03
 -14.940  0.3561E-02  0.2330E-03
 -14.930  0.4081E-02  0.2738E-03
 -14.920  0.4671E-02  0.3205E-03
 -14.910  0.5341E-02  0.3739E-03
 -14.900  0.6099E-02  0.4349E-03
 -14.890  0.6958E-02  0.5045E-03
 -14.880  0.7928E-02  0.5838E-03
 -14.870  0.9023E-02  0.6740E-03
 -14.860  0.1026E-01  0.7766E-03
 -14.850  0.1165E-01  0.8931E-03
 -14.840  0.1321E-01  0.1025E-02
 -14.830  0.1497E-01  0.1175E-02
 -14.820  0.1694E-01  0.1344E-02
 -14.810  0.1914E-01  0.1536E-02
 -14.800  0.2161E-01  0.1752E-02
 -14.790  0.2438E-01  0.1996E-02
 -14.780  0.2746E-01  0.2270E-02
 -14.770  0.3090E-01  0.2579E-02
 -14.760  0.3473E-01  0.2926E-02
 -14.750  0.3898E-01  0.3316E-02
 -14.740  0.4372E-01  0.3753E-02
 -14.730  0.4897E-01  0.4243E-02
 -14.720  0.5479E-01  0.4791E-02
 -14.710  0.6123E-01  0.5403E-02
 -14.700  0.6836E-01  0.6087E-02
 -14.690  0.7622E-01  0.6849E-02
 -14.680  0.8490E-01  0.7698E-02
 -14.670  0.9446E-01  0.8643E-02
 -14.660  0.1050E+00  0.9692E-02
 -14.650  0.1165E+00  0.1086E-01
 -14.640  0.1292E+00  0.1215E-01
 -14.630  0.1431E+00  0.1358E-01
 -14.620  0.1584E+00  0.1516E-01
 -14.610  0.1750E+00  0.1691E-01
 -14.600  0.1932E+00  0.1885E-01
 -14.590  0.2130E+00  0.2098E-01
 -14.580  0.2347E+00  0.2332E-01
 -14.570  0.2582E+00  0.2591E-01
 -14.560  0.2838E+00  0.2874E-01
 -14.550  0.3115E+00  0.3186E-01
 -14.540  0.3417E+00  0.3528E-01
 -14.530  0.3743E+00  0.3902E-01
 -14.520  0.4096E+00  0.4311E-01
 -14.510  0.4477E+00  0.4759E-01
 -14.500  0.4888E+00  0.5248E-01
 -14.490  0.5331E+00  0.5781E-01
 -14.480  0.5809E+00  0.6362E-01
 -14.470  0.6322E+00  0.6994E-01
 -14.460  0.6873E+00  0.7681E-01
 -14.450  0.7464E+00  0.8428E-01
 -14.440  0.8097E+00  0.9237E-01
 -14.430  0.8774E+00  0.1011E+00
 -14.420  0.9498E+00  0.1106E+00
 -14.410  0.1027E+01  0.1209E+00
 -14.400  0.1109E+01  0.1320E+00
 -14.390  0.1197E+01  0.1440E+00
 -14.380  0.1290E+01  0.1569E+00
 -14.370  0.1389E+01  0.1708E+00
 -14.360  0.1495E+01  0.1857E+00
 -14.350  0.1606E+01  0.2018E+00
 -14.340  0.1724E+01  0.2190E+00
 -14.330  0.1848E+01  0.2375E+00
 -14.320  0.1980E+01  0.2573E+00
 -14.310  0.2119E+01  0.2785E+00
 -14.300  0.2265E+01  0.3011E+00
 -14.290  0.2418E+01  0.3253E+00
 -14.280  0.2580E+01  0.3511E+00
 -14.270  0.2749E+01  0.3786E+00
 -14.260  0.2926E+01  0.4079E+00
 -14.250  0.3112E+01  0.4390E+00
 -14.240  0.3306E+01  0.4721E+00
 -14.230  0.3509E+01  0.5071E+00
 -14.220  0.3721E+01  0.5444E+00
 -14.210  0.3941E+01  0.5838E+00
 -14.200  0.4170E+01  0.6255E+00
 -14.190  0.4408E+01  0.6695E+00
 -14.180  0.4655E+01  0.7161E+00
 -14.170  0.4911E+01  0.7652E+00
 -14.160  0.5176E+01  0.8170E+00
 -14.150  0.5450E+01  0.8715E+00
 -14.140  0.5733E+01  0.9288E+00
 -14.130  0.6025E+01  0.9891E+00
 -14.120  0.6325E+01  0.1052E+01
 -14.110  0.6635E+01  0.1119E+01
 -14.100  0.6952E+01  0.1188E+01
 -14.090  0.7278E+01  0.1261E+01
 -14.080  0.7612E+01  0.1337E+01
 -14.070  0.7953E+01  0.1417E+01
 -14.060  0.8302E+01  0.1500E+01
 -14.050  0.8658E+01  0.1586E+01
 -14.040  0.9021E+01  0.1676E+01
 -14.030  0.9391E+01  0.1770E+01
 -14.020  0.9766E+01  0.1868E+01
 -14.010  0.1015E+02  0.1969E+01
 -14.000  0.1053E+02  0.2075E+01
 -13.990  0.1093E+02  0.2184E+01
 -13.980  0.1132E+02  0.2297E+01
 -13.970  0.1172E+02  0.2414E+01
 -13.960  0.1212E+02  0.2536E+01
 -13.950  0.1253E+02  0.2661E+01
 -13.940  0.1293E+02  0.2790E+01
 -13.930  0.1334E+02  0.2924E+01
 -13.920  0.1375E+02  0.3061E+01
 -13.910  0.1416E+02  0.3203E+01
 -13.900  0.1457E+02  0.3349E+01
 -13.890  0.1498E+02  0.3498E+01
 -13.880  0.1538E+02  0.3652E+01
 -13.870  0.1578E+02  0.3810E+01
 -13.860  0.1618E+02  0.3972E+01
 -13.850  0.1658E+02  0.4138E+01
 -13.840  0.1697E+02  0.4307E+01
 -13.830  0.1735E+02  0.4481E+01
 -13.820  0.1773E+02  0.4658E+01
 -13.810  0.1810E+02  0.4839E+01
 -13.800  0.1846E+02  0.5024E+01
 -13.790  0.1882E+02  0.5212E+01
 -13.780  0.1916E+02  0.5403E+01
 -13.770  0.1950E+02  0.5598E+01
 -13.760  0.1982E+02  0.5797E+01
 -13.750  0.2014E+02  0.5998E+01
 -13.740  0.2044E+02  0.6202E+01
 -13.730  0.2073E+02  0.6410E+01
 -13.720  0.2100E+02  0.6620E+01
 -13.710  0.2126E+02  0.6832E+01
 -13.700  0.2151E+02  0.7047E+01
 -13.690  0.2174E+02  0.7265E+01
 -13.680  0.2196E+02  0.7484E+01
 -13.670  0.2216E+02  0.7706E+01
 -13.660  0.2235E+02  0.7929E+01
 -13.650  0.2251E+02  0.8154E+01
 -13.640  0.2267E+02  0.8381E+01
 -13.630  0.2280E+02  0.8609E+01
 -13.620  0.2291E+02  0.8838E+01
 -13.610  0.2301E+02  0.9068E+01
 -13.600  0.2309E+02  0.9299E+01
 -13.590  0.2315E+02  0.9531E+01
 -13.580  0.2319E+02  0.9763E+01
 -13.570  0.2322E+02  0.9995E+01
 -13.560  0.2322E+02  0.1023E+02
 -13.550  0.2321E+02  0.1046E+02
 -13.540  0.2317E+02  0.1069E+02
 -13.530  0.2312E+02  0.1092E+02
 -13.520  0.2305E+02  0.1115E+02
 -13.510  0.2296E+02  0.1138E+02
 -13.500  0.2286E+02  0.1161E+02
 -13.490  0.2273E+02  0.1184E+02
 -13.480  0.2259E+02  0.1206E+02
 -13.470  0.2243E+02  0.1229E+02
 -13.460  0.2225E+02  0.1251E+02
 -13.450  0.2205E+02  0.1273E+02
 -13.440  0.2184E+02  0.1295E+02
 -13.430  0.2161E+02  0.1317E+02
 -13.420  0.2137E+02  0.1338E+02
 -13.410  0.2111E+02  0.1359E+02
 -13.400  0.2084E+02  0.1380E+02
 -13.390  0.2055E+02  0.1400E+02
 -13.380  0.2025E+02  0.1421E+02
 -13.370  0.1994E+02  0.1441E+02
 -13.360  0.1962E+02  0.1460E+02
 -13.350  0.1928E+02  0.1480E+02
 -13.340  0.1894E+02  0.1498E+02
 -13.330  0.1858E+02  0.1517E+02
 -13.320  0.1822E+02  0.1535E+02
 -13.310  0.1784E+02  0.1553E+02
 -13.300  0.1746E+02  0.1571E+02
 -13.290  0.1708E+02  0.1588E+02
 -13.280  0.1668E+02  0.1604E+02
 -13.270  0.1628E+02  0.1621E+02
 -13.260  0.1588E+02  0.1637E+02
 -13.250  0.1547E+02  0.1652E+02
 -13.240  0.1506E+02  0.1667E+02
 -13.230  0.1465E+02  0.1682E+02
 -13.220  0.1423E+02  0.1696E+02
 -13.210  0.1382E+02  0.1710E+02
 -13.200  0.1340E+02  0.1723E+02
 -13.190  0.1299E+02  0.1736E+02
 -13.180  0.1258E+02  0.1749E+02
 -13.170  0.1216E+02  0.1761E+02
 -13.160  0.1176E+02  0.1773E+02
 -13.150  0.1135E+02  0.1784E+02
 -13.140  0.1095E+02  0.1795E+02
 -13.130  0.1055E+02  0.1805E+02
 -13.120  0.1016E+02  0.1816E+02
 -13.110  0.9770E+01  0.1825E+02
 -13.100  0.9389E+01  0.1835E+02
 -13.090  0.9013E+01  0.1844E+02
 -13.080  0.8645E+01  0.1852E+02
 -13.070  0.8283E+01  0.1861E+02
 -13.060  0.7929E+01  0.1869E+02
 -13.050  0.7583E+01  0.1876E+02
 -13.040  0.7245E+01  0.1883E+02
 -13.030  0.6915E+01  0.1890E+02
 -13.020  0.6594E+01  0.1897E+02
 -13.010  0.6281E+01  0.1903E+02
 -13.000  0.5977E+01  0.1909E+02
 -12.990  0.5683E+01  0.1915E+02
 -12.980  0.5397E+01  0.1920E+02
 -12.970  0.5121E+01  0.1925E+02
 -12.960  0.4854E+01  0.1930E+02
 -12.950  0.4596E+01  0.1935E+02
 -12.940  0.4348E+01  0.1939E+02
 -12.930  0.4109E+01  0.1943E+02
 -12.920  0.3879E+01  0.1947E+02
 -12.910  0.3658E+01  0.1951E+02
 -12.900  0.3446E+01  0.1954E+02
 -12.890  0.3244E+01  0.1958E+02
 -12.880  0.3050E+01  0.1961E+02
 -12.870  0.2864E+01  0.1964E+02
 -12.860  0.2687E+01  0.1966E+02
 -12.850  0.2519E+01  0.1969E+02
 -12.840  0.2358E+01  0.1971E+02
 -12.830  0.2206E+01  0.1973E+02
 -12.820  0.2061E+01  0.1975E+02
 -12.810  0.1924E+01  0.1977E+02
 -12.800  0.1794E+01  0.1979E+02
 -12.790  0.1671E+01  0.1981E+02
 -12.780  0.1554E+01  0.1982E+02
 -12.770  0.1445E+01  0.1984E+02
 -12.760  0.1341E+01  0.1985E+02
 -12.750  0.1244E+01  0.1986E+02
 -12.740  0.1153E+01  0.1987E+02
 -12.730  0.1067E+01  0.1989E+02
 -12.720  0.9863E+00  0.1990E+02
 -12.710  0.9108E+00  0.1990E+02
 -12.700  0.8403E+00  0.1991E+02
 -12.690  0.7743E+00  0.1992E+02
 -12.680  0.7128E+00  0.1993E+02
 -12.670  0.6554E+00  0.1993E+02
 -12.660  0.6020E+00  0.1994E+02
 -12.650  0.5524E+00  0.1995E+02
 -12.640  0.5063E+00  0.1995E+02
 -12.630  0.4635E+00  0.1996E+02
 -12.620  0.4239E+00  0.1996E+02
 -12.610  0.3873E+00  0.1996E+02
 -12.600  0.3534E+00  0.1997E+02
 -12.590  0.3222E+00  0.1997E+02
 -12.580  0.2933E+00  0.1997E+02
 -12.570  0.2668E+00  0.1998E+02
 -12.560  0.2424E+00  0.1998E+02
 -12.550  0.2200E+00  0.1998E+02
 -12.540  0.1994E+00  0.1998E+02
 -12.530  0.1806E+00  0.1998E+02
 -12.520  0.1634E+00  0.1999E+02
 -12.510  0.1476E+00  0.1999E+02
 -12.500  0.1332E+00  0.1999E+02
 -12.490  0.1201E+00  0.1999E+02
 -12.480  0.1081E+00  0.1999E+02
 -12.470  0.9727E-01  0.1999E+02
 -12.460  0.8740E-01  0.1999E+02
 -12.450  0.7844E-01  0.1999E+02
 -12.440  0.7032E-01  0.1999E+02
 -12.430  0.6297E-01  0.2000E+02
 -12.420  0.5633E-01  0.2000E+02
 -12.410  0.5033E-01  0.2000E+02
 -12.400  0.4492E-01  0.2000E+02
 -12.390  0.4004E-01  0.2000E+02
 -12.380  0.3565E-01  0.2000E+02
 -12.370  0.3171E-01  0.2000E+02
 -12.360  0.2817E-01  0.2000E+02
 -12.350  0.2500E-01  0.2000E+02
 -12.340  0.2216E-01  0.2000E+02
 -12.330  0.1962E-01  0.2000E+02
 -12.320  0.1736E-01  0.2000E+02
 -12.310  0.1533E-01  0.2000E+02
 -12.300  0.1353E-01  0.2000E+02
 -12.290  0.1193E-01  0.2000E+02
 -12.280  0.1050E-01  0.2000E+02
 -12.270  0.9233E-02  0.2000E+02
 -12.260  0.8110E-02  0.2000E+02
 -12.250  0.7116E-02  0.2000E+02
 -12.240  0.6236E-02  0.2000E+02
 -12.230  0.5459E-02  0.2000E+02
 -12.220  0.4773E-02  0.2000E+02
 -12.210  0.4169E-02  0.2000E+02
 -12.200  0.3637E-02  0.2000E+02
 -12.190  0.3169E-02  0.2000E+02
 -12.180  0.2758E-02  0.2000E+02
 -12.170  0.2398E-02  0.2000E+02
 -12.160  0.2082E-02  0.2000E+02
 -12.150  0.1806E-02  0.2000E+02
 -12.140  0.1565E-02  0.2000E+02
 -12.130  0.1354E-02  0.2000E+02
 -12.120  0.1171E-02  0.2000E+02
 -12.110  0.1011E-02  0.2000E+02
 -12.100  0.8715E-03  0.2000E+02
 -12.090  0.7507E-03  0.2000E+02
 -12.080  0.6459E-03  0.2000E+02
 -12.070  0.5551E-03  0.2000E+02
 -12.060  0.4765E-03  0.2000E+02
 -12.050  0.4086E-03  0.2000E+02
 -12.040  0.3499E-03  0.2000E+02
 -12.030  0.2993E-03  0.2000E+02
 -12.020  0.2557E-03  0.2000E+02
 -12.010  0.2183E-03  0.2000E+02
 -12.000  0.1861E-03  0.2000E+02
 -11.990  0.1584E-03  0.2000E+02
 -11.980  0.1347E-03  0.2000E+02
 -11.970  0.1144E-03  0.2000E+02
 -11.960  0.9711E-04  0.2000E+02
 -11.950  0.8230E-04  0.2000E+02
 -11.940  0.6967E-04  0.2000E+02
 -11.930  0.5891E-04  0.2000E+02
 -11.920  0.4975E-04  0.2000E+02
 -11.910  0.4197E-04  0.2000E+02
 -11.900  0.3536E-04  0.2000E+02
 -11.890  0.2976E-04  0.2000E+02
 -11.880  0.2501E-04  0.2000E+02
 -11.870  0.2100E-04  0.2000E+02
 -11.860  0.1761E-04  0.2000E+02
 -11.850  0.1475E-04  0.2000E+02
 -11.840  0.1234E-04  0.2000E+02
 -11.830  0.1032E-04  0.2000E+02
 -11.820  0.8611E-05  0.2000E+02
 -11.810  0.7180E-05  0.2000E+02
 -11.800  0.5979E-05  0.2000E+02
 -11.790  0.4973E-05  0.2000E+02
 -11.780  0.4132E-05  0.2000E+02
 -11.770  0.3429E-05  0.2000E+02
 -11.760  0.2842E-05  0.2000E+02
 -11.750  0.2353E-05  0.2000E+02
 -11.740  0.1946E-05  0.2000E+02
 -11.730  0.1607E-05  0.2000E+02
 -11.720  0.1326E-05  0.2000E+02
 -11.710  0.1093E-05  0.2000E+02
 -11.700  0.8992E-06  0.2000E+02
 -11.690  0.7392E-06  0.2000E+02
 -11.680  0.6070E-06  0.2000E+02
 -11.670  0.4978E-06  0.2000E+02
 -11.660  0.4078E-06  0.2000E+02
 -11.650  0.3337E-06  0.2000E+02
 -11.640  0.2727E-06  0.2000E+02
 -11.630  0.2226E-06  0.2000E+02
 -11.620  0.1815E-06  0.2000E+02
 -11.610  0.1478E-06  0.2000E+02
 -11.600  0.1202E-06  0.2000E+02
 -11.590  0.9768E-07  0.2000E+02
 -11.580  0.7926E-07  0.2000E+02
 -11.570  0.6425E-07  0.2000E+02
 -11.560  0.5201E-07  0.2000E+02
 -11.550  0.4206E-07  0.2000E+02
 -11.540  0.3397E-07  0.2000E+02
 -11.530  0.2740E-07  0.2000E+02
 -11.520  0.2208E-07  0.2000E+02
 -11.510  0.1777E-07  0.2000E+02
 -11.500  0.1429E-07  0.2000E+02
 -11.490  0.1147E-07  0.2000E+02
 -11.480  0.9199E-08  0.2000E+02
 -11.470  0.7368E-08  0.2000E+02
 -11.460  0.5895E-08  0.2000E+02
 -11.450  0.4711E-08  0.2000E+02
 -11.440  0.3760E-08  0.2000E+02
 -11.430  0.2998E-08  0.2000E+02
 -11.420  0.2387E-08  0.2000E+02
 -11.410  0.1899E-08  0.2000E+02
 -11.400  0.1508E-08  0.2000E+02
 -11.390  0.1197E-08  0.2000E+02
 -11.380  0.9485E-09  0.2000E+02
 -11.370  0.7508E-09  0.2000E+02
 -11.360  0.5936E-09  0.2000E+02
 -11.350  0.4688E-09  0.2000E+02
 -11.340  0.3698E-09  0.2000E+02
 -11.330  0.2913E-09  0.2000E+02
 -11.320  0.2293E-09  0.2000E+02
 -11.310  0.1802E-09  0.2000E+02
 -11.300  0.1415E-09  0.2000E+02
 -11.290  0.1109E-09  0.2000E+02
 -11.280  0.8687E-10  0.2000E+02
 -11.270  0.6796E-10  0.2000E+02
 -11.260  0.5310E-10  0.2000E+02
 -11.250  0.4144E-10  0.2000E+02
 -11.240  0.3230E-10  0.2000E+02
 -11.230  0.2515E-10  0.2000E+02
 -11.220  0.1956E-10  0.2000E+02
 -11.210  0.1519E-10  0.2000E+02
 -11.200  0.1178E-10  0.2000E+02
 -11.190  0.9131E-11  0.2000E+02
 -11.180  0.7067E-11  0.2000E+02
 -11.170  0.5463E-11  0.2000E+02
 -11.160  0.4218E-11  0.2000E+02
 -11.150  0.3253E-11  0.2000E+02
 -11.140  0.2506E-11  0.2000E+02
 -11.130  0.1928E-11  0.2000E+02
 -11.120  0.1481E-11  0.2000E+02
 -11.110  0.1137E-11  0.2000E+02
 -11.100  0.8716E-12  0.2000E+02
 -11.090  0.6674E-12  0.2000E+02
 -11.080  0.5104E-12  0.2000E+02
 -11.070  0.3899E-12  0.2000E+02
 -11.060  0.2975E-12  0.2000E+02
 -11.050  0.2267E-12  0.2000E+02
 -11.040  0.1726E-12  0.2000E+02
 -11.030  0.1312E-12  0.2000E+02
 -11.020  0.9963E-13  0.2000E+02
 -11.010  0.7557E-13  0.2000E+02
 -11.000  0.5725E-13  0.2000E+02
 -10.990  0.4332E-13  0.2000E+02
 -10.980  0.3274E-13  0.2000E+02
 -10.970  0.2471E-13  0.2000E+02
 -10.960  0.1863E-13  0.2000E+02
 -10.950  0.1403E-13  0.2000E+02
 -10.940  0.1055E-13  0.2000E+02
 -10.930  0.7928E-14  0.2000E+02
 -10.920  0.5949E-14  0.2000E+02
 -10.910  0.4459E-14  0.2000E+02
 -10.900  0.3338E-14  0.2000E+02
 -10.890  0.2496E-14  0.2000E+02
 -10.880  0.1864E-14  0.2000E+02
 -10.870  0.1390E-14  0.2000E+02
 -10.860  0.1036E-14  0.2000E+02
 -10.850  0.7707E-15  0.2000E+02
 -10.840  0.5729E-15  0.2000E+02
 -10.830  0.4253E-15  0.2000E+02
 -10.820  0.3153E-15  0.2000E+02
 -10.810  0.2335E-15  0.2000E+02
 -10.800  0.1728E-15  0.2000E+02
 -10.790  0.1276E-15  0.2000E+02
 -10.780  0.9419E-16  0.2000E+02
 -10.770  0.6943E-16  0.2000E+02
 -10.760  0.5111E-16  0.2000E+02
 -10.750  0.3758E-16  0.2000E+02
 -10.740  0.2760E-16  0.2000E+02
 -10.730  0.2025E-16  0.2000E+02
 -10.720  0.1484E-16  0.2000E+02
 -10.710  0.1086E-16  0.2000E+02
 -10.700  0.7937E-17  0.2000E+02
 -10.690  0.5794E-17  0.2000E+02
 -10.680  0.4225E-17  0.2000E+02
 -10.670  0.3077E-17  0.2000E+02
 -10.660  0.2239E-17  0.2000E+02
 -10.650  0.1627E-17  0.2000E+02
 -10.640  0.1181E-17  0.2000E+02
 -10.630  0.8557E-18  0.2000E+02
 -10.620  0.6196E-18  0.2000E+02
 -10.610  0.4480E-18  0.2000E+02
 -10.600  0.3236E-18  0.2000E+02
 -10.590  0.2335E-18  0.2000E+02
 -10.580  0.1682E-18  0.2000E+02
 -10.570  0.1211E-18  0.2000E+02
 -10.560  0.8703E-19  0.2000E+02
 -10.550  0.6249E-19  0.2000E+02
 -10.540  0.4481E-19  0.2000E+02
 -10.530  0.3210E-19  0.2000E+02
 -10.520  0.2296E-19  0.2000E+02
 -10.510  0.1641E-19  0.2000E+02
 -10.500  0.1171E-19  0.2000E+02
 -10.490  0.8348E-20  0.2000E+02
 -10.480  0.5944E-20  0.2000E+02
 -10.470  0.4227E-20  0.2000E+02
 -10.460  0.3002E-20  0.2000E+02
 -10.450  0.2130E-20  0.2000E+02
 -10.440  0.1509E-20  0.2000E+02
 -10.430  0.1068E-20  0.2000E+02
 -10.420  0.7552E-21  0.2000E+02
 -10.410  0.5333E-21  0.2000E+02
 -10.400  0.3761E-21  0.2000E+02
 -10.390  0.2649E-21  0.2000E+02
 -10.380  0.1864E-21  0.2000E+02
 -10.370  0.1310E-21  0.2000E+02
 -10.360  0.9192E-22  0.2000E+02
 -10.350  0.6444E-22  0.2000E+02
 -10.340  0.4512E-22  0.2000E+02
 -10.330  0.3156E-22  0.2000E+02
 -10.320  0.2204E-22  0.2000E+02
 -10.310  0.1538E-22  0.2000E+02
 -10.300  0.1072E-22  0.2000E+02
 -10.290  0.7460E-23  0.2000E+02
 -10.280  0.5186E-23  0.2000E+02
 -10.270  0.3601E-23  0.2000E+02
 -10.260  0.2497E-23  0.2000E+02
 -10.250  0.1730E-23  0.2000E+02
 -10.240  0.1197E-23  0.2000E+02
 -10.230  0.8271E-24  0.2000E+02
 -10.220  0.5709E-24  0.2000E+02
 -10.210  0.3936E-24  0.2000E+02
 -10.200  0.2710E-24  0.2000E+02
 -10.190  0.1864E-24  0.2000E+02
 -10.180  0.1280E-24  0.2000E+02
 -10.170  0.8785E-25  0.2000E+02
 -10.160  0.6020E-25  0.2000E+02
 -10.150  0.4121E-25  0.2000E+02
 -10.140  0.2817E-25  0.2000E+02
 -10.130  0.1924E-25  0.2000E+02
 -10.120  0.1312E-25  0.2000E+02
 -10.110  0.8938E-26  0.2000E+02
 -10.100  0.6081E-26  0.2000E+02
 -10.090  0.4133E-26  0.2000E+02
 -10.080  0.2805E-26  0.2000E+02
 -10.070  0.1902E-26  0.2000E+02
 -10.060  0.1288E-26  0.2000E+02
 -10.050  0.8710E-27  0.2000E+02
 -10.040  0.5884E-27  0.2000E+02
 -10.030  0.3970E-27  0.2000E+02
 -10.020  0.2676E-27  0.2000E+02
 -10.010  0.1801E-27  0.2000E+02
 -10.000  0.1211E-27  0.2000E+02
  -9.990  0.8131E-28  0.2000E+02
  -9.980  0.5453E-28  0.2000E+02
  -9.970  0.3653E-28  0.2000E+02
  -9.960  0.2444E-28  0.2000E+02
  -9.950  0.1634E-28  0.2000E+02
  -9.940  0.1090E-28  0.2000E+02
  -9.930  0.7270E-29  0.2000E+02
  -9.920  0.4841E-29  0.2000E+02
  -9.910  0.3220E-29  0.2000E+02
  -9.900  0.2139E-29  0.2000E+02
  -9.890  0.1419E-29  0.2000E+02
  -9.880  0.9406E-30  0.2000E+02
  -9.870  0.6226E-30  0.2000E+02
  -9.860  0.4116E-30  0.2000E+02
  -9.850  0.2718E-30  0.2000E+02
  -9.840  0.1793E-30  0.2000E+02
  -9.830  0.1181E-30  0.2000E+02
  -9.820  0.7771E-31  0.2000E+02
  -9.810  0.5107E-31  0.2000E+02
  -9.800  0.3353E-31  0.2000E+02
  -9.790  0.2198E-31  0.2000E+02
  -9.780  0.1439E-31  0.2000E+02
  -9.770  0.9414E-32  0.2000E+02
  -9.760  0.6150E-32  0.2000E+02
  -9.750  0.4013E-32  0.2000E+02
  -9.740  0.2615E-32  0.2000E+02
  -9.730  0.1702E-32  0.2000E+02
  -9.720  0.1107E-32  0.2000E+02
  -9.710  0.7188E-33  0.2000E+02
  -9.700  0.4662E-33  0.2000E+02
  -9.690  0.3020E-33  0.2000E+02
  -9.680  0.1954E-33  0.2000E+02
  -9.670  0.1263E-33  0.2000E+02
  -9.660  0.8153E-34  0.2000E+02
  -9.650  0.5257E-34  0.2000E+02
  -9.640  0.3385E-34  0.2000E+02
  -9.630  0.2177E-34  0.2000E+02
  -9.620  0.1399E-34  0.2000E+02
  -9.610  0.8975E-35  0.2000E+02
  -9.600  0.5752E-35  0.2000E+02
  -9.590  0.3682E-35  0.2000E+02
  -9.580  0.2354E-35  0.2000E+02
  -9.570  0.1503E-35  0.2000E+02
  -9.560  0.9589E-36  0.2000E+02
  -9.550  0.6109E-36  0.2000E+02
  -9.540  0.3887E-36  0.2000E+02
  -9.530  0.2470E-36  0.2000E+02
  -9.520  0.1568E-36  0.2000E+02
  -9.510  0.9943E-37  0.2000E+02
  -9.500  0.6297E-37  0.2000E+02
  -9.490  0.3983E-37  0.2000E+02
  -9.480  0.2516E-37  0.2000E+02
  -9.470  0.1588E-37  0.2000E+02
  -9.460  0.1001E-37  0.2000E+02
  -9.450  0.6299E-38  0.2000E+02
  -9.440  0.3960E-38  0.2000E+02
  -9.430  0.2487E-38  0.2000E+02
  -9.420  0.1560E-38  0.2000E+02
  -9.410  0.9772E-39  0.2000E+02
  -9.400  0.6115E-39  0.2000E+02
  -9.390  0.3822E-39  0.2000E+02
  -9.380  0.2386E-39  0.2000E+02
  -9.370  0.1487E-39  0.2000E+02
  -9.360  0.9263E-40  0.2000E+02
  -9.350  0.5761E-40  0.2000E+02
  -9.340  0.3579E-40  0.2000E+02
  -9.330  0.2221E-40  0.2000E+02
  -9.320  0.1377E-40  0.2000E+02
  -9.310  0.8521E-41  0.2000E+02
  -9.300  0.5268E-41  0.2000E+02
  -9.290  0.3253E-41  0.2000E+02
  -9.280  0.2007E-41  0.2000E+02
  -9.270  0.1236E-41  0.2000E+02
  -9.260  0.7607E-42  0.2000E+02
  -9.250  0.4675E-42  0.2000E+02
  -9.240  0.2870E-42  0.2000E+02
  -9.230  0.1760E-42  0.2000E+02
  -9.220  0.1078E-42  0.2000E+02
  -9.210  0.6592E-43  0.2000E+02
  -9.200  0.4027E-43  0.2000E+02
  -9.190  0.2457E-43  0.2000E+02
  -9.180  0.1498E-43  0.2000E+02
  -9.170  0.9116E-44  0.2000E+02
  -9.160  0.5543E-44  0.2000E+02
  -9.150  0.3366E-44  0.2000E+02
  -9.140  0.2042E-44  0.2000E+02
  -9.130  0.1237E-44  0.2000E+02
  -9.120  0.7485E-45  0.2000E+02
  -9.110  0.4524E-45  0.2000E+02
  -9.100  0.2731E-45  0.2000E+02
  -9.090  0.1646E-45  0.2000E+02
  -9.080  0.9915E-46  0.2000E+02
  -9.070  0.5964E-46  0.2000E+02
  -9.060  0.3583E-46  0.2000E+02
  -9.050  0.2150E-46  0.2000E+02
  -9.040  0.1289E-46  0.2000E+02
  -9.030  0.7713E-47  0.2000E+02
  -9.020  0.4612E-47  0.2000E+02
  -9.010  0.2754E-47  0.2000E+02
  -9.000  0.1643E-47  0.2000E+02
  -8.990  0.9787E-48  0.2000E+02
  -8.980  0.5823E-48  0.2000E+02
  -8.970  0.3461E-48  0.2000E+02
  -8.960  0.2055E-48  0.2000E+02
  -8.950  0.1218E-48  0.2000E+02
  -8.940  0.7214E-49  0.2000E+02
  -8.930  0.4267E-49  0.2000E+02
  -8.920  0.2521E-49  0.2000E+02
  -8.910  0.1487E-49  0.2000E+02
  -8.900  0.8767E-50  0.2000E+02
  -8.890  0.5161E-50  0.2000E+02
  -8.880  0.3034E-50  0.2000E+02
  -8.870  0.1782E-50  0.2000E+02
  -8.860  0.1045E-50  0.2000E+02
  -8.850  0.6123E-51  0.2000E+02
  -8.840  0.3583E-51  0.2000E+02
  -8.830  0.2094E-51  0.2000E+02
  -8.820  0.1222E-51  0.2000E+02
  -8.810  0.7127E-52  0.2000E+02
  -8.800  0.4151E-52  0.2000E+02
  -8.790  0.2414E-52  0.2000E+02
  -8.780  0.1403E-52  0.2000E+02
  -8.770  0.8139E-53  0.2000E+02
  -8.760  0.4717E-53  0.2000E+02
  -8.750  0.2730E-53  0.2000E+02
  -8.740  0.1579E-53  0.2000E+02
  -8.730  0.9117E-54  0.2000E+02
  -8.720  0.5259E-54  0.2000E+02
  -8.710  0.3030E-54  0.2000E+02
  -8.700  0.1743E-54  0.2000E+02
  -8.690  0.1002E-54  0.2000E+02
  -8.680  0.5751E-55  0.2000E+02
  -8.670  0.3298E-55  0.2000E+02
  -8.660  0.1888E-55  0.2000E+02
  -8.650  0.1080E-55  0.2000E+02
  -8.640  0.6171E-56  0.2000E+02
  -8.630  0.3521E-56  0.2000E+02
  -8.620  0.2007E-56  0.2000E+02
  -8.610  0.1142E-56  0.2000E+02
  -8.600  0.6495E-57  0.2000E+02
  -8.590  0.3689E-57  0.2000E+02
  -8.580  0.2092E-57  0.2000E+02
  -8.570  0.1185E-57  0.2000E+02
  -8.560  0.6707E-58  0.2000E+02
  -8.550  0.3790E-58  0.2000E+02
  -8.540  0.2140E-58  0.2000E+02
  -8.530  0.1206E-58  0.2000E+02
  -8.520  0.6794E-59  0.2000E+02
  -8.510  0.3821E-59  0.2000E+02
  -8.500  0.2147E-59  0.2000E+02
  -8.490  0.1205E-59  0.2000E+02
  -8.480  0.6751E-60  0.2000E+02
  -8.470  0.3779E-60  0.2000E+02
  -8.460  0.2113E-60  0.2000E+02
  -8.450  0.1180E-60  0.2000E+02
  -8.440  0.6582E-61  0.2000E+02
  -8.430  0.3667E-61  0.2000E+02
  -8.420  0.2040E-61  0.2000E+02
  -8.410  0.1134E-61  0.2000E+02
  -8.400  0.6295E-62  0.2000E+02
  -8.390  0.3490E-62  0.2000E+02
  -8.380  0.1933E-62  0.2000E+02
  -8.370  0.1069E-62  0.2000E+02
  -8.360  0.5906E-63  0.2000E+02
  -8.350  0.3259E-63  0.2000E+02
  -8.340  0.1796E-63  0.2000E+02
  -8.330  0.9887E-64  0.2000E+02
  -8.320  0.5436E-64  0.2000E+02
  -8.310  0.2985E-64  0.2000E+02
  -8.300  0.1637E-64  0.2000E+02
  -8.290  0.8970E-65  0.2000E+02
  -8.280  0.4908E-65  0.2000E+02
  -8.270  0.2682E-65  0.2000E+02
  -8.260  0.1464E-65  0.2000E+02
  -8.250  0.7984E-66  0.2000E+02
  -8.240  0.4348E-66  0.2000E+02
  -8.230  0.2365E-66  0.2000E+02
  -8.220  0.1285E-66  0.2000E+02
  -8.210  0.6971E-67  0.2000E+02
  -8.200  0.3778E-67  0.2000E+02
  -8.190  0.2045E-67  0.2000E+02
  -8.180  0.1106E-67  0.2000E+02
  -8.170  0.5971E-68  0.2000E+02
  -8.160  0.3221E-68  0.2000E+02
  -8.150  0.1735E-68  0.2000E+02
  -8.140  0.9336E-69  0.2000E+02
  -8.130  0.5017E-69  0.2000E+02
  -8.120  0.2693E-69  0.2000E+02
  -8.110  0.1444E-69  0.2000E+02
  -8.100  0.7733E-70  0.2000E+02
  -8.090  0.4136E-70  0.2000E+02
  -8.080  0.2210E-70  0.2000E+02
  -8.070  0.1179E-70  0.2000E+02
  -8.060  0.6284E-71  0.2000E+02
  -8.050  0.3345E-71  0.2000E+02
  -8.040  0.1778E-71  0.2000E+02
  -8.030  0.9446E-72  0.2000E+02
  -8.020  0.5013E-72  0.2000E+02
  -8.010  0.2661E-72  0.2000E+02
  -8.000  0.1418E-72  0.2000E+02
  -7.990  0.7682E-73  0.2000E+02
  -7.980  0.4409E-73  0.2000E+02
  -7.970  0.2988E-73  0.2000E+02
  -7.960  0.2816E-73  0.2000E+02
  -7.950  0.3808E-73  0.2000E+02
  -7.940  0.6350E-73  0.2000E+02
  -7.930  0.1145E-72  0.2000E+02
  -7.920  0.2115E-72  0.2000E+02
  -7.910  0.3929E-72  0.2000E+02
  -7.900  0.7305E-72  0.2000E+02
  -7.890  0.1357E-71  0.2000E+02
  -7.880  0.2519E-71  0.2000E+02
  -7.870  0.4671E-71  0.2000E+02
  -7.860  0.8649E-71  0.2000E+02
  -7.850  0.1600E-70  0.2000E+02
  -7.840  0.2955E-70  0.2000E+02
  -7.830  0.5452E-70  0.2000E+02
  -7.820  0.1005E-69  0.2000E+02
  -7.810  0.1850E-69  0.2000E+02
  -7.800  0.3401E-69  0.2000E+02
  -7.790  0.6245E-69  0.2000E+02
  -7.780  0.1145E-68  0.2000E+02
  -7.770  0.2098E-68  0.2000E+02
  -7.760  0.3839E-68  0.2000E+02
  -7.750  0.7016E-68  0.2000E+02
  -7.740  0.1281E-67  0.2000E+02
  -7.730  0.2335E-67  0.2000E+02
  -7.720  0.4252E-67  0.2000E+02
  -7.710  0.7735E-67  0.2000E+02
  -7.700  0.1405E-66  0.2000E+02
  -7.690  0.2550E-66  0.2000E+02
  -7.680  0.4621E-66  0.2000E+02
  -7.670  0.8365E-66  0.2000E+02
  -7.660  0.1512E-65  0.2000E+02
  -7.650  0.2731E-65  0.2000E+02
  -7.640  0.4926E-65  0.2000E+02
  -7.630  0.8875E-65  0.2000E+02
  -7.620  0.1597E-64  0.2000E+02
  -7.610  0.2870E-64  0.2000E+02
  -7.600  0.5153E-64  0.2000E+02
  -7.590  0.9239E-64  0.2000E+02
  -7.580  0.1655E-63  0.2000E+02
  -7.570  0.2960E-63  0.2000E+02
  -7.560  0.5288E-63  0.2000E+02
  -7.550  0.9435E-63  0.2000E+02
  -7.540  0.1682E-62  0.2000E+02
  -7.530  0.2994E-62  0.2000E+02
  -7.520  0.5323E-62  0.2000E+02
  -7.510  0.9454E-62  0.2000E+02
  -7.500  0.1677E-61  0.2000E+02
  -7.490  0.2971E-61  0.2000E+02
  -7.480  0.5258E-61  0.2000E+02
  -7.470  0.9293E-61  0.2000E+02
  -7.460  0.1641E-60  0.2000E+02
  -7.450  0.2893E-60  0.2000E+02
  -7.440  0.5095E-60  0.2000E+02
  -7.430  0.8963E-60  0.2000E+02
  -7.420  0.1575E-59  0.2000E+02
  -7.410  0.2764E-59  0.2000E+02
  -7.400  0.4844E-59  0.2000E+02
  -7.390  0.8481E-59  0.2000E+02
  -7.380  0.1483E-58  0.2000E+02
  -7.370  0.2590E-58  0.2000E+02
  -7.360  0.4519E-58  0.2000E+02
  -7.350  0.7873E-58  0.2000E+02
  -7.340  0.1370E-57  0.2000E+02
  -7.330  0.2382E-57  0.2000E+02
  -7.320  0.4135E-57  0.2000E+02
  -7.310  0.7171E-57  0.2000E+02
  -7.300  0.1242E-56  0.2000E+02
  -7.290  0.2149E-56  0.2000E+02
  -7.280  0.3713E-56  0.2000E+02
  -7.270  0.6408E-56  0.2000E+02
  -7.260  0.1105E-55  0.2000E+02
  -7.250  0.1902E-55  0.2000E+02
  -7.240  0.3271E-55  0.2000E+02
  -7.230  0.5618E-55  0.2000E+02
  -7.220  0.9639E-55  0.2000E+02
  -7.210  0.1652E-54  0.2000E+02
  -7.200  0.2827E-54  0.2000E+02
  -7.190  0.4833E-54  0.2000E+02
  -7.180  0.8252E-54  0.2000E+02
  -7.170  0.1407E-53  0.2000E+02
  -7.160  0.2397E-53  0.2000E+02
  -7.150  0.4079E-53  0.2000E+02
  -7.140  0.6931E-53  0.2000E+02
  -7.130  0.1177E-52  0.2000E+02
  -7.120  0.1995E-52  0.2000E+02
  -7.110  0.3377E-52  0.2000E+02
  -7.100  0.5712E-52  0.2000E+02
  -7.090  0.9650E-52  0.2000E+02
  -7.080  0.1628E-51  0.2000E+02
  -7.070  0.2744E-51  0.2000E+02
  -7.060  0.4619E-51  0.2000E+02
  -7.050  0.7766E-51  0.2000E+02
  -7.040  0.1304E-50  0.2000E+02
  -7.030  0.2187E-50  0.2000E+02
  -7.020  0.3664E-50  0.2000E+02
  -7.010  0.6132E-50  0.2000E+02
  -7.000  0.1025E-49  0.2000E+02
  -6.990  0.1711E-49  0.2000E+02
  -6.980  0.2852E-49  0.2000E+02
  -6.970  0.4750E-49  0.2000E+02
  -6.960  0.7902E-49  0.2000E+02
  -6.950  0.1313E-48  0.2000E+02
  -6.940  0.2178E-48  0.2000E+02
  -6.930  0.3611E-48  0.2000E+02
  -6.920  0.5978E-48  0.2000E+02
  -6.910  0.9884E-48  0.2000E+02
  -6.900  0.1632E-47  0.2000E+02
  -6.890  0.2693E-47  0.2000E+02
  -6.880  0.4437E-47  0.2000E+02
  -6.870  0.7302E-47  0.2000E+02
  -6.860  0.1200E-46  0.2000E+02
  -6.850  0.1971E-46  0.2000E+02
  -6.840  0.3231E-46  0.2000E+02
  -6.830  0.5293E-46  0.2000E+02
  -6.820  0.8659E-46  0.2000E+02
  -6.810  0.1415E-45  0.2000E+02
  -6.800  0.2309E-45  0.2000E+02
  -6.790  0.3764E-45  0.2000E+02
  -6.780  0.6129E-45  0.2000E+02
  -6.770  0.9968E-45  0.2000E+02
  -6.760  0.1619E-44  0.2000E+02
  -6.750  0.2627E-44  0.2000E+02
  -6.740  0.4257E-44  0.2000E+02
  -6.730  0.6890E-44  0.2000E+02
  -6.720  0.1114E-43  0.2000E+02
  -6.710  0.1799E-43  0.2000E+02
  -6.700  0.2901E-43  0.2000E+02
  -6.690  0.4673E-43  0.2000E+02
  -6.680  0.7519E-43  0.2000E+02
  -6.670  0.1208E-42  0.2000E+02
  -6.660  0.1940E-42  0.2000E+02
  -6.650  0.3110E-42  0.2000E+02
  -6.640  0.4981E-42  0.2000E+02
  -6.630  0.7967E-42  0.2000E+02
  -6.620  0.1273E-41  0.2000E+02
  -6.610  0.2031E-41  0.2000E+02
  -6.600  0.3237E-41  0.2000E+02
  -6.590  0.5153E-41  0.2000E+02
  -6.580  0.8194E-41  0.2000E+02
  -6.570  0.1301E-40  0.2000E+02
  -6.560  0.2064E-40  0.2000E+02
  -6.550  0.3271E-40  0.2000E+02
  -6.540  0.5176E-40  0.2000E+02
  -6.530  0.8182E-40  0.2000E+02
  -6.520  0.1292E-39  0.2000E+02
  -6.510  0.2037E-39  0.2000E+02
  -6.500  0.3208E-39  0.2000E+02
  -6.490  0.5048E-39  0.2000E+02
  -6.480  0.7932E-39  0.2000E+02
  -6.470  0.1245E-38  0.2000E+02
  -6.460  0.1952E-38  0.2000E+02
  -6.450  0.3056E-38  0.2000E+02
  -6.440  0.4779E-38  0.2000E+02
  -6.430  0.7465E-38  0.2000E+02
  -6.420  0.1165E-37  0.2000E+02
  -6.410  0.1815E-37  0.2000E+02
  -6.400  0.2825E-37  0.2000E+02
  -6.390  0.4393E-37  0.2000E+02
  -6.380  0.6821E-37  0.2000E+02
  -6.370  0.1058E-36  0.2000E+02
  -6.360  0.1639E-36  0.2000E+02
  -6.350  0.2536E-36  0.2000E+02
  -6.340  0.3920E-36  0.2000E+02
  -6.330  0.6051E-36  0.2000E+02
  -6.320  0.9331E-36  0.2000E+02
  -6.310  0.1437E-35  0.2000E+02
  -6.300  0.2211E-35  0.2000E+02
  -6.290  0.3396E-35  0.2000E+02
  -6.280  0.5212E-35  0.2000E+02
  -6.270  0.7990E-35  0.2000E+02
  -6.260  0.1223E-34  0.2000E+02
  -6.250  0.1871E-34  0.2000E+02
  -6.240  0.2857E-34  0.2000E+02
  -6.230  0.4359E-34  0.2000E+02
  -6.220  0.6642E-34  0.2000E+02
  -6.210  0.1011E-33  0.2000E+02
  -6.200  0.1537E-33  0.2000E+02
  -6.190  0.2334E-33  0.2000E+02
  -6.180  0.3539E-33  0.2000E+02
  -6.170  0.5362E-33  0.2000E+02
  -6.160  0.8113E-33  0.2000E+02
  -6.150  0.1226E-32  0.2000E+02
  -6.140  0.1851E-32  0.2000E+02
  -6.130  0.2790E-32  0.2000E+02
  -6.120  0.4202E-32  0.2000E+02
  -6.110  0.6321E-32  0.2000E+02
  -6.100  0.9496E-32  0.2000E+02
  -6.090  0.1425E-31  0.2000E+02
  -6.080  0.2136E-31  0.2000E+02
  -6.070  0.3198E-31  0.2000E+02
  -6.060  0.4782E-31  0.2000E+02
  -6.050  0.7142E-31  0.2000E+02
  -6.040  0.1065E-30  0.2000E+02
  -6.030  0.1588E-30  0.2000E+02
  -6.020  0.2363E-30  0.2000E+02
  -6.010  0.3513E-30  0.2000E+02
  -6.000  0.5216E-30  0.2000E+02
  -5.990  0.7735E-30  0.2000E+02
  -5.980  0.1146E-29  0.2000E+02
  -5.970  0.1695E-29  0.2000E+02
  -5.960  0.2505E-29  0.2000E+02
  -5.950  0.3698E-29  0.2000E+02
  -5.940  0.5453E-29  0.2000E+02
  -5.930  0.8030E-29  0.2000E+02
  -5.920  0.1181E-28  0.2000E+02
  -5.910  0.1735E-28  0.2000E+02
  -5.900  0.2546E-28  0.2000E+02
  -5.890  0.3732E-28  0.2000E+02
  -5.880  0.5464E-28  0.2000E+02
  -5.870  0.7990E-28  0.2000E+02
  -5.860  0.1167E-27  0.2000E+02
  -5.850  0.1702E-27  0.2000E+02
  -5.840  0.2481E-27  0.2000E+02
  -5.830  0.3610E-27  0.2000E+02
  -5.820  0.5249E-27  0.2000E+02
  -5.810  0.7621E-27  0.2000E+02
  -5.800  0.1105E-26  0.2000E+02
  -5.790  0.1601E-26  0.2000E+02
  -5.780  0.2317E-26  0.2000E+02
  -5.770  0.3348E-26  0.2000E+02
  -5.760  0.4833E-26  0.2000E+02
  -5.750  0.6968E-26  0.2000E+02
  -5.740  0.1003E-25  0.2000E+02
  -5.730  0.1443E-25  0.2000E+02
  -5.720  0.2074E-25  0.2000E+02
  -5.710  0.2976E-25  0.2000E+02
  -5.700  0.4266E-25  0.2000E+02
  -5.690  0.6107E-25  0.2000E+02
  -5.680  0.8734E-25  0.2000E+02
  -5.670  0.1247E-24  0.2000E+02
  -5.660  0.1780E-24  0.2000E+02
  -5.650  0.2536E-24  0.2000E+02
  -5.640  0.3610E-24  0.2000E+02
  -5.630  0.5132E-24  0.2000E+02
  -5.620  0.7287E-24  0.2000E+02
  -5.610  0.1034E-23  0.2000E+02
  -5.600  0.1464E-23  0.2000E+02
  -5.590  0.2072E-23  0.2000E+02
  -5.580  0.2928E-23  0.2000E+02
  -5.570  0.4134E-23  0.2000E+02
  -5.560  0.5829E-23  0.2000E+02
  -5.550  0.8209E-23  0.2000E+02
  -5.540  0.1155E-22  0.2000E+02
  -5.530  0.1623E-22  0.2000E+02
  -5.520  0.2277E-22  0.2000E+02
  -5.510  0.3192E-22  0.2000E+02
  -5.500  0.4469E-22  0.2000E+02
  -5.490  0.6251E-22  0.2000E+02
  -5.480  0.8731E-22  0.2000E+02
  -5.470  0.1218E-21  0.2000E+02
  -5.460  0.1698E-21  0.2000E+02
  -5.450  0.2363E-21  0.2000E+02
  -5.440  0.3286E-21  0.2000E+02
  -5.430  0.4563E-21  0.2000E+02
  -5.420  0.6330E-21  0.2000E+02
  -5.410  0.8770E-21  0.2000E+02
  -5.400  0.1214E-20  0.2000E+02
  -5.390  0.1677E-20  0.2000E+02
  -5.380  0.2316E-20  0.2000E+02
  -5.370  0.3194E-20  0.2000E+02
  -5.360  0.4399E-20  0.2000E+02
  -5.350  0.6052E-20  0.2000E+02
  -5.340  0.8317E-20  0.2000E+02
  -5.330  0.1142E-19  0.2000E+02
  -5.320  0.1565E-19  0.2000E+02
  -5.310  0.2143E-19  0.2000E+02
  -5.300  0.2931E-19  0.2000E+02
  -5.290  0.4005E-19  0.2000E+02
  -5.280  0.5465E-19  0.2000E+02
  -5.270  0.7449E-19  0.2000E+02
  -5.260  0.1014E-18  0.2000E+02
  -5.250  0.1379E-18  0.2000E+02
  -5.240  0.1873E-18  0.2000E+02
  -5.230  0.2541E-18  0.2000E+02
  -5.220  0.3443E-18  0.2000E+02
  -5.210  0.4660E-18  0.2000E+02
  -5.200  0.6300E-18  0.2000E+02
  -5.190  0.8507E-18  0.2000E+02
  -5.180  0.1147E-17  0.2000E+02
  -5.170  0.1546E-17  0.2000E+02
  -5.160  0.2080E-17  0.2000E+02
  -5.150  0.2795E-17  0.2000E+02
  -5.140  0.3753E-17  0.2000E+02
  -5.130  0.5032E-17  0.2000E+02
  -5.120  0.6740E-17  0.2000E+02
  -5.110  0.9016E-17  0.2000E+02
  -5.100  0.1205E-16  0.2000E+02
  -5.090  0.1608E-16  0.2000E+02
  -5.080  0.2144E-16  0.2000E+02
  -5.070  0.2854E-16  0.2000E+02
  -5.060  0.3796E-16  0.2000E+02
  -5.050  0.5043E-16  0.2000E+02
  -5.040  0.6691E-16  0.2000E+02
  -5.030  0.8868E-16  0.2000E+02
  -5.020  0.1174E-15  0.2000E+02
  -5.010  0.1552E-15  0.2000E+02
  -5.000  0.2050E-15  0.2000E+02
  -4.990  0.2705E-15  0.2000E+02
  -4.980  0.3564E-15  0.2000E+02
  -4.970  0.4690E-15  0.2000E+02
  -4.960  0.6166E-15  0.2000E+02
  -4.950  0.8096E-15  0.2000E+02
  -4.940  0.1062E-14  0.2000E+02
  -4.930  0.1391E-14  0.2000E+02
  -4.920  0.1820E-14  0.2000E+02
  -4.910  0.2379E-14  0.2000E+02
  -4.900  0.3105E-14  0.2000E+02
  -4.890  0.4049E-14  0.2000E+02
  -4.880  0.5274E-14  0.2000E+02
  -4.870  0.6860E-14  0.2000E+02
  -4.860  0.8914E-14  0.2000E+02
  -4.850  0.1157E-13  0.2000E+02
  -4.840  0.1500E-13  0.2000E+02
  -4.830  0.1942E-13  0.2000E+02
  -4.820  0.2512E-13  0.2000E+02
  -4.810  0.3245E-13  0.2000E+02
  -4.800  0.4187E-13  0.2000E+02
  -4.790  0.5396E-13  0.2000E+02
  -4.780  0.6947E-13  0.2000E+02
  -4.770  0.8932E-13  0.2000E+02
  -4.760  0.1147E-12  0.2000E+02
  -4.750  0.1472E-12  0.2000E+02
  -4.740  0.1886E-12  0.2000E+02
  -4.730  0.2414E-12  0.2000E+02
  -4.720  0.3086E-12  0.2000E+02
  -4.710  0.3940E-12  0.2000E+02
  -4.700  0.5026E-12  0.2000E+02
  -4.690  0.6402E-12  0.2000E+02
  -4.680  0.8147E-12  0.2000E+02
  -4.670  0.1036E-11  0.2000E+02
  -4.660  0.1315E-11  0.2000E+02
  -4.650  0.1667E-11  0.2000E+02
  -4.640  0.2111E-11  0.2000E+02
  -4.630  0.2671E-11  0.2000E+02
  -4.620  0.3376E-11  0.2000E+02
  -4.610  0.4261E-11  0.2000E+02
  -4.600  0.5372E-11  0.2000E+02
  -4.590  0.6765E-11  0.2000E+02
  -4.580  0.8509E-11  0.2000E+02
  -4.570  0.1069E-10  0.2000E+02
  -4.560  0.1342E-10  0.2000E+02
  -4.550  0.1682E-10  0.2000E+02
  -4.540  0.2105E-10  0.2000E+02
  -4.530  0.2633E-10  0.2000E+02
  -4.520  0.3289E-10  0.2000E+02
  -4.510  0.4103E-10  0.2000E+02
  -4.500  0.5114E-10  0.2000E+02
  -4.490  0.6366E-10  0.2000E+02
  -4.480  0.7915E-10  0.2000E+02
  -4.470  0.9830E-10  0.2000E+02
  -4.460  0.1219E-09  0.2000E+02
  -4.450  0.1511E-09  0.2000E+02
  -4.440  0.1870E-09  0.2000E+02
  -4.430  0.2312E-09  0.2000E+02
  -4.420  0.2854E-09  0.2000E+02
  -4.410  0.3520E-09  0.2000E+02
  -4.400  0.4337E-09  0.2000E+02
  -4.390  0.5337E-09  0.2000E+02
  -4.380  0.6560E-09  0.2000E+02
  -4.370  0.8053E-09  0.2000E+02
  -4.360  0.9875E-09  0.2000E+02
  -4.350  0.1210E-08  0.2000E+02
  -4.340  0.1480E-08  0.2000E+02
  -4.330  0.1809E-08  0.2000E+02
  -4.320  0.2208E-08  0.2000E+02
  -4.310  0.2692E-08  0.2000E+02
  -4.300  0.3278E-08  0.2000E+02
  -4.290  0.3987E-08  0.2000E+02
  -4.280  0.4845E-08  0.2000E+02
  -4.270  0.5880E-08  0.2000E+02
  -4.260  0.7128E-08  0.2000E+02
  -4.250  0.8632E-08  0.2000E+02
  -4.240  0.1044E-07  0.2000E+02
  -4.230  0.1261E-07  0.2000E+02
  -4.220  0.1522E-07  0.2000E+02
  -4.210  0.1835E-07  0.2000E+02
  -4.200  0.2209E-07  0.2000E+02
  -4.190  0.2656E-07  0.2000E+02
  -4.180  0.3191E-07  0.2000E+02
  -4.170  0.3828E-07  0.2000E+02
  -4.160  0.4588E-07  0.2000E+02
  -4.150  0.5493E-07  0.2000E+02
  -4.140  0.6568E-07  0.2000E+02
  -4.130  0.7844E-07  0.2000E+02
  -4.120  0.9359E-07  0.2000E+02
  -4.110  0.1115E-06  0.2000E+02
  -4.100  0.1327E-06  0.2000E+02
  -4.090  0.1578E-06  0.2000E+02
  -4.080  0.1874E-06  0.2000E+02
  -4.070  0.2224E-06  0.2000E+02
  -4.060  0.2635E-06  0.2000E+02
  -4.050  0.3118E-06  0.2000E+02
  -4.040  0.3687E-06  0.2000E+02
  -4.030  0.4353E-06  0.2000E+02
  -4.020  0.5135E-06  0.2000E+02
  -4.010  0.6050E-06  0.2000E+02
  -4.000  0.7121E-06  0.2000E+02
  -3.990  0.8371E-06  0.2000E+02
  -3.980  0.9829E-06  0.2000E+02
  -3.970  0.1153E-05  0.2000E+02
  -3.960  0.1351E-05  0.2000E+02
  -3.950  0.1581E-05  0.2000E+02
  -3.940  0.1848E-05  0.2000E+02
  -3.930  0.2157E-05  0.2000E+02
  -3.920  0.2516E-05  0.2000E+02
  -3.910  0.2931E-05  0.2000E+02
  -3.900  0.3411E-05  0.2000E+02
  -3.890  0.3965E-05  0.2000E+02
  -3.880  0.4604E-05  0.2000E+02
  -3.870  0.5340E-05  0.2000E+02
  -3.860  0.6186E-05  0.2000E+02
  -3.850  0.7159E-05  0.2000E+02
  -3.840  0.8275E-05  0.2000E+02
  -3.830  0.9554E-05  0.2000E+02
  -3.820  0.1102E-04  0.2000E+02
  -3.810  0.1269E-04  0.2000E+02
  -3.800  0.1461E-04  0.2000E+02
  -3.790  0.1679E-04  0.2000E+02
  -3.780  0.1928E-04  0.2000E+02
  -3.770  0.2212E-04  0.2000E+02
  -3.760  0.2534E-04  0.2000E+02
  -3.750  0.2900E-04  0.2000E+02
  -3.740  0.3315E-04  0.2000E+02
  -3.730  0.3785E-04  0.2000E+02
  -3.720  0.4317E-04  0.2000E+02
  -3.710  0.4919E-04  0.2000E+02
  -3.700  0.5599E-04  0.2000E+02
  -3.690  0.6365E-04  0.2000E+02
  -3.680  0.7228E-04  0.2000E+02
  -3.670  0.8200E-04  0.2000E+02
  -3.660  0.9292E-04  0.2000E+02
  -3.650  0.1052E-03  0.2000E+02
  -3.640  0.1189E-03  0.2000E+02
  -3.630  0.1343E-03  0.2000E+02
  -3.620  0.1515E-03  0.2000E+02
  -3.610  0.1708E-03  0.2000E+02
  -3.600  0.1923E-03  0.2000E+02
  -3.590  0.2162E-03  0.2000E+02
  -3.580  0.2429E-03  0.2000E+02
  -3.570  0.2725E-03  0.2000E+02
  -3.560  0.3055E-03  0.2000E+02
  -3.550  0.3421E-03  0.2000E+02
  -3.540  0.3826E-03  0.2000E+02
  -3.530  0.4275E-03  0.2000E+02
  -3.520  0.4772E-03  0.2000E+02
  -3.510  0.5320E-03  0.2000E+02
  -3.500  0.5925E-03  0.2000E+02
  -3.490  0.6592E-03  0.2000E+02
  -3.480  0.7327E-03  0.2000E+02
  -3.470  0.8134E-03  0.2000E+02
  -3.460  0.9021E-03  0.2000E+02
  -3.450  0.9995E-03  0.2000E+02
  -3.440  0.1106E-02  0.2000E+02
  -3.430  0.1223E-02  0.2000E+02
  -3.420  0.1351E-02  0.2000E+02
  -3.410  0.1490E-02  0.2000E+02
  -3.400  0.1642E-02  0.2000E+02
  -3.390  0.1808E-02  0.2000E+02
  -3.380  0.1988E-02  0.2000E+02
  -3.370  0.2184E-02  0.2000E+02
  -3.360  0.2397E-02  0.2000E+02
  -3.350  0.2629E-02  0.2000E+02
  -3.340  0.2879E-02  0.2000E+02
  -3.330  0.3150E-02  0.2000E+02
  -3.320  0.3443E-02  0.2000E+02
  -3.310  0.3760E-02  0.2000E+02
  -3.300  0.4101E-02  0.2000E+02
  -3.290  0.4469E-02  0.2000E+02
  -3.280  0.4865E-02  0.2000E+02
  -3.270  0.5291E-02  0.2000E+02
  -3.260  0.5748E-02  0.2000E+02
  -3.250  0.6239E-02  0.2000E+02
  -3.240  0.6765E-02  0.2000E+02
  -3.230  0.7327E-02  0.2000E+02
  -3.220  0.7929E-02  0.2000E+02
  -3.210  0.8572E-02  0.2000E+02
  -3.200  0.9257E-02  0.2000E+02
  -3.190  0.9988E-02  0.2000E+02
  -3.180  0.1077E-01  0.2000E+02
  -3.170  0.1159E-01  0.2000E+02
  -3.160  0.1247E-01  0.2000E+02
  -3.150  0.1340E-01  0.2000E+02
  -3.140  0.1439E-01  0.2000E+02
  -3.130  0.1544E-01  0.2000E+02
  -3.120  0.1655E-01  0.2000E+02
  -3.110  0.1772E-01  0.2000E+02
  -3.100  0.1895E-01  0.2000E+02
  -3.090  0.2025E-01  0.2000E+02
  -3.080  0.2162E-01  0.2000E+02
  -3.070  0.2306E-01  0.2000E+02
  -3.060  0.2458E-01  0.2000E+02
  -3.050  0.2617E-01  0.2000E+02
  -3.040  0.2784E-01  0.2000E+02
  -3.030  0.2958E-01  0.2000E+02
  -3.020  0.3141E-01  0.2000E+02
  -3.010  0.3333E-01  0.2000E+02
  -3.000  0.3532E-01  0.2001E+02
  -2.990  0.3741E-01  0.2001E+02
  -2.980  0.3958E-01  0.2001E+02
  -2.970  0.4184E-01  0.2001E+02
  -2.960  0.4419E-01  0.2001E+02
  -2.950  0.4663E-01  0.2001E+02
  -2.940  0.4917E-01  0.2001E+02
  -2.930  0.5180E-01  0.2001E+02
  -2.920  0.5453E-01  0.2001E+02
  -2.910  0.5735E-01  0.2001E+02
  -2.900  0.6026E-01  0.2001E+02
  -2.890  0.6327E-01  0.2001E+02
  -2.880  0.6638E-01  0.2001E+02
  -2.870  0.6959E-01  0.2001E+02
  -2.860  0.7289E-01  0.2001E+02
  -2.850  0.7628E-01  0.2001E+02
  -2.840  0.7977E-01  0.2001E+02
  -2.830  0.8336E-01  0.2002E+02
  -2.820  0.8704E-01  0.2002E+02
  -2.810  0.9081E-01  0.2002E+02
  -2.800  0.9467E-01  0.2002E+02
  -2.790  0.9862E-01  0.2002E+02
  -2.780  0.1027E+00  0.2002E+02
  -2.770  0.1068E+00  0.2002E+02
  -2.760  0.1110E+00  0.2002E+02
  -2.750  0.1153E+00  0.2002E+02
  -2.740  0.1197E+00  0.2002E+02
  -2.730  0.1241E+00  0.2003E+02
  -2.720  0.1287E+00  0.2003E+02
  -2.710  0.1333E+00  0.2003E+02
  -2.700  0.1379E+00  0.2003E+02
  -2.690  0.1427E+00  0.2003E+02
  -2.680  0.1475E+00  0.2003E+02
  -2.670  0.1524E+00  0.2003E+02
  -2.660  0.1573E+00  0.2004E+02
  -2.650  0.1623E+00  0.2004E+02
  -2.640  0.1673E+00  0.2004E+02
  -2.630  0.1724E+00  0.2004E+02
  -2.620  0.1775E+00  0.2004E+02
  -2.610  0.1827E+00  0.2004E+02
  -2.600  0.1879E+00  0.2005E+02
  -2.590  0.1932E+00  0.2005E+02
  -2.580  0.1985E+00  0.2005E+02
  -2.570  0.2038E+00  0.2005E+02
  -2.560  0.2091E+00  0.2005E+02
  -2.550  0.2145E+00  0.2006E+02
  -2.540  0.2199E+00  0.2006E+02
  -2.530  0.2253E+00  0.2006E+02
  -2.520  0.2308E+00  0.2006E+02
  -2.510  0.2362E+00  0.2007E+02
  -2.500  0.2416E+00  0.2007E+02
  -2.490  0.2471E+00  0.2007E+02
  -2.480  0.2526E+00  0.2007E+02
  -2.470  0.2580E+00  0.2008E+02
  -2.460  0.2635E+00  0.2008E+02
  -2.450  0.2689E+00  0.2008E+02
  -2.440  0.2744E+00  0.2008E+02
  -2.430  0.2798E+00  0.2009E+02
  -2.420  0.2852E+00  0.2009E+02
  -2.410  0.2907E+00  0.2009E+02
  -2.400  0.2961E+00  0.2010E+02
  -2.390  0.3014E+00  0.2010E+02
  -2.380  0.3068E+00  0.2010E+02
  -2.370  0.3122E+00  0.2010E+02
  -2.360  0.3175E+00  0.2011E+02
  -2.350  0.3228E+00  0.2011E+02
  -2.340  0.3281E+00  0.2011E+02
  -2.330  0.3334E+00  0.2012E+02
  -2.320  0.3386E+00  0.2012E+02
  -2.310  0.3438E+00  0.2012E+02
  -2.300  0.3490E+00  0.2013E+02
  -2.290  0.3542E+00  0.2013E+02
  -2.280  0.3594E+00  0.2013E+02
  -2.270  0.3645E+00  0.2014E+02
  -2.260  0.3696E+00  0.2014E+02
  -2.250  0.3747E+00  0.2015E+02
  -2.240  0.3797E+00  0.2015E+02
  -2.230  0.3847E+00  0.2015E+02
  -2.220  0.3897E+00  0.2016E+02
  -2.210  0.3947E+00  0.2016E+02
  -2.200  0.3997E+00  0.2017E+02
  -2.190  0.4046E+00  0.2017E+02
  -2.180  0.4095E+00  0.2017E+02
  -2.170  0.4144E+00  0.2018E+02
  -2.160  0.4193E+00  0.2018E+02
  -2.150  0.4241E+00  0.2019E+02
  -2.140  0.4289E+00  0.2019E+02
  -2.130  0.4337E+00  0.2019E+02
  -2.120  0.4385E+00  0.2020E+02
  -2.110  0.4433E+00  0.2020E+02
  -2.100  0.4481E+00  0.2021E+02
  -2.090  0.4528E+00  0.2021E+02
  -2.080  0.4575E+00  0.2022E+02
  -2.070  0.4623E+00  0.2022E+02
  -2.060  0.4670E+00  0.2023E+02
  -2.050  0.4717E+00  0.2023E+02
  -2.040  0.4764E+00  0.2024E+02
  -2.030  0.4810E+00  0.2024E+02
  -2.020  0.4857E+00  0.2025E+02
  -2.010  0.4904E+00  0.2025E+02
  -2.000  0.4951E+00  0.2026E+02
  -1.990  0.4997E+00  0.2026E+02
  -1.980  0.5044E+00  0.2027E+02
  -1.970  0.5091E+00  0.2027E+02
  -1.960  0.5137E+00  0.2028E+02
  -1.950  0.5184E+00  0.2028E+02
  -1.940  0.5231E+00  0.2029E+02
  -1.930  0.5278E+00  0.2029E+02
  -1.920  0.5325E+00  0.2030E+02
  -1.910  0.5372E+00  0.2030E+02
  -1.900  0.5419E+00  0.2031E+02
  -1.890  0.5466E+00  0.2031E+02
  -1.880  0.5513E+00  0.2032E+02
  -1.870  0.5561E+00  0.2032E+02
  -1.860  0.5609E+00  0.2033E+02
  -1.850  0.5657E+00  0.2034E+02
  -1.840  0.5705E+00  0.2034E+02
  -1.830  0.5753E+00  0.2035E+02
  -1.820  0.5802E+00  0.2035E+02
  -1.810  0.5851E+00  0.2036E+02
  -1.800  0.5900E+00  0.2036E+02
  -1.790  0.5950E+00  0.2037E+02
  -1.780  0.5999E+00  0.2038E+02
  -1.770  0.6050E+00  0.2038E+02
  -1.760  0.6100E+00  0.2039E+02
  -1.750  0.6151E+00  0.2039E+02
  -1.740  0.6202E+00  0.2040E+02
  -1.730  0.6254E+00  0.2041E+02
  -1.720  0.6306E+00  0.2041E+02
  -1.710  0.6359E+00  0.2042E+02
  -1.700  0.6412E+00  0.2043E+02
  -1.690  0.6465E+00  0.2043E+02
  -1.680  0.6519E+00  0.2044E+02
  -1.670  0.6573E+00  0.2045E+02
  -1.660  0.6628E+00  0.2045E+02
  -1.650  0.6683E+00  0.2046E+02
  -1.640  0.6739E+00  0.2047E+02
  -1.630  0.6795E+00  0.2047E+02
  -1.620  0.6852E+00  0.2048E+02
  -1.610  0.6909E+00  0.2049E+02
  -1.600  0.6967E+00  0.2049E+02
  -1.590  0.7025E+00  0.2050E+02
  -1.580  0.7084E+00  0.2051E+02
  -1.570  0.7143E+00  0.2051E+02
  -1.560  0.7203E+00  0.2052E+02
  -1.550  0.7263E+00  0.2053E+02
  -1.540  0.7323E+00  0.2054E+02
  -1.530  0.7384E+00  0.2054E+02
  -1.520  0.7445E+00  0.2055E+02
  -1.510  0.7507E+00  0.2056E+02
  -1.500  0.7569E+00  0.2057E+02
  -1.490  0.7631E+00  0.2057E+02
  -1.480  0.7694E+00  0.2058E+02
  -1.470  0.7756E+00  0.2059E+02
  -1.460  0.7820E+00  0.2060E+02
  -1.450  0.7883E+00  0.2060E+02
  -1.440  0.7946E+00  0.2061E+02
  -1.430  0.8010E+00  0.2062E+02
  -1.420  0.8073E+00  0.2063E+02
  -1.410  0.8137E+00  0.2064E+02
  -1.400  0.8200E+00  0.2065E+02
  -1.390  0.8264E+00  0.2065E+02
  -1.380  0.8327E+00  0.2066E+02
  -1.370  0.8391E+00  0.2067E+02
  -1.360  0.8454E+00  0.2068E+02
  -1.350  0.8517E+00  0.2069E+02
  -1.340  0.8579E+00  0.2070E+02
  -1.330  0.8642E+00  0.2070E+02
  -1.320  0.8703E+00  0.2071E+02
  -1.310  0.8765E+00  0.2072E+02
  -1.300  0.8825E+00  0.2073E+02
  -1.290  0.8886E+00  0.2074E+02
  -1.280  0.8945E+00  0.2075E+02
  -1.270  0.9004E+00  0.2076E+02
  -1.260  0.9062E+00  0.2077E+02
  -1.250  0.9119E+00  0.2078E+02
  -1.240  0.9176E+00  0.2078E+02
  -1.230  0.9231E+00  0.2079E+02
  -1.220  0.9286E+00  0.2080E+02
  -1.210  0.9339E+00  0.2081E+02
  -1.200  0.9391E+00  0.2082E+02
  -1.190  0.9442E+00  0.2083E+02
  -1.180  0.9491E+00  0.2084E+02
  -1.170  0.9540E+00  0.2085E+02
  -1.160  0.9586E+00  0.2086E+02
  -1.150  0.9632E+00  0.2087E+02
  -1.140  0.9676E+00  0.2088E+02
  -1.130  0.9718E+00  0.2089E+02
  -1.120  0.9758E+00  0.2090E+02
  -1.110  0.9797E+00  0.2091E+02
  -1.100  0.9834E+00  0.2092E+02
  -1.090  0.9870E+00  0.2093E+02
  -1.080  0.9903E+00  0.2094E+02
  -1.070  0.9934E+00  0.2095E+02
  -1.060  0.9964E+00  0.2096E+02
  -1.050  0.9992E+00  0.2097E+02
  -1.040  0.1002E+01  0.2098E+02
  -1.030  0.1004E+01  0.2099E+02
  -1.020  0.1006E+01  0.2100E+02
  -1.010  0.1008E+01  0.2101E+02
  -1.000  0.1010E+01  0.2102E+02
  -0.990  0.1011E+01  0.2103E+02
  -0.980  0.1013E+01  0.2104E+02
  -0.970  0.1014E+01  0.2105E+02
  -0.960  0.1014E+01  0.2106E+02
  -0.950  0.1015E+01  0.2107E+02
  -0.940  0.1015E+01  0.2108E+02
  -0.930  0.1016E+01  0.2109E+02
  -0.920  0.1015E+01  0.2110E+02
  -0.910  0.1015E+01  0.2111E+02
  -0.900  0.1015E+01  0.2112E+02
  -0.890  0.1014E+01  0.2113E+02
  -0.880  0.1013E+01  0.2114E+02
  -0.870  0.1012E+01  0.2115E+02
  -0.860  0.1011E+01  0.2116E+02
  -0.850  0.1009E+01  0.2117E+02
  -0.840  0.1007E+01  0.2118E+02
  -0.830  0.1005E+01  0.2119E+02
  -0.820  0.1003E+01  0.2120E+02
  -0.810  0.1001E+01  0.2121E+02
  -0.800  0.9982E+00  0.2122E+02
  -0.790  0.9954E+00  0.2123E+02
  -0.780  0.9926E+00  0.2124E+02
  -0.770  0.9895E+00  0.2125E+02
  -0.760  0.9862E+00  0.2126E+02
  -0.750  0.9828E+00  0.2127E+02
  -0.740  0.9793E+00  0.2128E+02
  -0.730  0.9756E+00  0.2129E+02
  -0.720  0.9717E+00  0.2130E+02
  -0.710  0.9677E+00  0.2131E+02
  -0.700  0.9636E+00  0.2132E+02
  -0.690  0.9593E+00  0.2133E+02
  -0.680  0.9549E+00  0.2134E+02
  -0.670  0.9504E+00  0.2135E+02
  -0.660  0.9457E+00  0.2136E+02
  -0.650  0.9409E+00  0.2137E+02
  -0.640  0.9361E+00  0.2138E+02
  -0.630  0.9311E+00  0.2138E+02
  -0.620  0.9260E+00  0.2139E+02
  -0.610  0.9208E+00  0.2140E+02
  -0.600  0.9155E+00  0.2141E+02
  -0.590  0.9102E+00  0.2142E+02
  -0.580  0.9047E+00  0.2143E+02
  -0.570  0.8992E+00  0.2144E+02
  -0.560  0.8935E+00  0.2145E+02
  -0.550  0.8878E+00  0.2146E+02
  -0.540  0.8820E+00  0.2147E+02
  -0.530  0.8762E+00  0.2148E+02
  -0.520  0.8703E+00  0.2148E+02
  -0.510  0.8643E+00  0.2149E+02
  -0.500  0.8582E+00  0.2150E+02
  -0.490  0.8521E+00  0.2151E+02
  -0.480  0.8459E+00  0.2152E+02
  -0.470  0.8397E+00  0.2153E+02
  -0.460  0.8334E+00  0.2153E+02
  -0.450  0.8270E+00  0.2154E+02
  -0.440  0.8206E+00  0.2155E+02
  -0.430  0.8142E+00  0.2156E+02
  -0.420  0.8076E+00  0.2157E+02
  -0.410  0.8011E+00  0.2158E+02
  -0.400  0.7945E+00  0.2158E+02
  -0.390  0.7878E+00  0.2159E+02
  -0.380  0.7811E+00  0.2160E+02
  -0.370  0.7744E+00  0.2161E+02
  -0.360  0.7676E+00  0.2161E+02
  -0.350  0.7607E+00  0.2162E+02
  -0.340  0.7539E+00  0.2163E+02
  -0.330  0.7469E+00  0.2164E+02
  -0.320  0.7400E+00  0.2164E+02
  -0.310  0.7330E+00  0.2165E+02
  -0.300  0.7259E+00  0.2166E+02
  -0.290  0.7189E+00  0.2167E+02
  -0.280  0.7118E+00  0.2167E+02
  -0.270  0.7046E+00  0.2168E+02
  -0.260  0.6974E+00  0.2169E+02
  -0.250  0.6902E+00  0.2169E+02
  -0.240  0.6830E+00  0.2170E+02
  -0.230  0.6757E+00  0.2171E+02
  -0.220  0.6684E+00  0.2171E+02
  -0.210  0.6611E+00  0.2172E+02
  -0.200  0.6537E+00  0.2173E+02
  -0.190  0.6463E+00  0.2173E+02
  -0.180  0.6389E+00  0.2174E+02
  -0.170  0.6315E+00  0.2175E+02
  -0.160  0.6240E+00  0.2175E+02
  -0.150  0.6165E+00  0.2176E+02
  -0.140  0.6090E+00  0.2177E+02
  -0.130  0.6015E+00  0.2177E+02
  -0.120  0.5940E+00  0.2178E+02
  -0.110  0.5865E+00  0.2178E+02
  -0.100  0.5790E+00  0.2179E+02
  -0.090  0.5715E+00  0.2179E+02
  -0.080  0.5639E+00  0.2180E+02
  -0.070  0.5564E+00  0.2181E+02
  -0.060  0.5489E+00  0.2181E+02
  -0.050  0.5414E+00  0.2182E+02
  -0.040  0.5339E+00  0.2182E+02
  -0.030  0.5265E+00  0.2183E+02
  -0.020  0.5190E+00  0.2183E+02
  -0.010  0.5116E+00  0.2184E+02
   0.000  0.5042E+00  0.2184E+02
   0.010  0.4969E+00  0.2185E+02
   0.020  0.4896E+00  0.2185E+02
   0.030  0.4824E+00  0.2186E+02
   0.040  0.4752E+00  0.2186E+02
   0.050  0.4681E+00  0.2187E+02
   0.060  0.4611E+00  0.2187E+02
   0.070  0.4541E+00  0.2188E+02
   0.080  0.4473E+00  0.2188E+02
   0.090  0.4405E+00  0.2188E+02
   0.100  0.4338E+00  0.2189E+02
   0.110  0.4272E+00  0.2189E+02
   0.120  0.4207E+00  0.2190E+02
   0.130  0.4143E+00  0.2190E+02
   0.140  0.4081E+00  0.2191E+02
   0.150  0.4019E+00  0.2191E+02
   0.160  0.3959E+00  0.2191E+02
   0.170  0.3901E+00  0.2192E+02
   0.180  0.3844E+00  0.2192E+02
   0.190  0.3788E+00  0.2193E+02
   0.200  0.3735E+00  0.2193E+02
   0.210  0.3682E+00  0.2193E+02
   0.220  0.3632E+00  0.2194E+02
   0.230  0.3583E+00  0.2194E+02
   0.240  0.3536E+00  0.2194E+02
   0.250  0.3491E+00  0.2195E+02
   0.260  0.3448E+00  0.2195E+02
   0.270  0.3407E+00  0.2195E+02
   0.280  0.3368E+00  0.2196E+02
   0.290  0.3331E+00  0.2196E+02
   0.300  0.3297E+00  0.2196E+02
   0.310  0.3264E+00  0.2197E+02
   0.320  0.3234E+00  0.2197E+02
   0.330  0.3206E+00  0.2197E+02
   0.340  0.3181E+00  0.2198E+02
   0.350  0.3157E+00  0.2198E+02
   0.360  0.3137E+00  0.2198E+02
   0.370  0.3118E+00  0.2199E+02
   0.380  0.3102E+00  0.2199E+02
   0.390  0.3089E+00  0.2199E+02
   0.400  0.3078E+00  0.2200E+02
   0.410  0.3069E+00  0.2200E+02
   0.420  0.3063E+00  0.2200E+02
   0.430  0.3060E+00  0.2200E+02
   0.440  0.3059E+00  0.2201E+02
   0.450  0.3061E+00  0.2201E+02
   0.460  0.3065E+00  0.2201E+02
   0.470  0.3072E+00  0.2202E+02
   0.480  0.3081E+00  0.2202E+02
   0.490  0.3093E+00  0.2202E+02
   0.500  0.3107E+00  0.2203E+02
   0.510  0.3124E+00  0.2203E+02
   0.520  0.3143E+00  0.2203E+02
   0.530  0.3165E+00  0.2204E+02
   0.540  0.3189E+00  0.2204E+02
   0.550  0.3215E+00  0.2204E+02
   0.560  0.3244E+00  0.2205E+02
   0.570  0.3275E+00  0.2205E+02
   0.580  0.3308E+00  0.2205E+02
   0.590  0.3344E+00  0.2206E+02
   0.600  0.3381E+00  0.2206E+02
   0.610  0.3421E+00  0.2206E+02
   0.620  0.3463E+00  0.2207E+02
   0.630  0.3506E+00  0.2207E+02
   0.640  0.3552E+00  0.2207E+02
   0.650  0.3600E+00  0.2208E+02
   0.660  0.3649E+00  0.2208E+02
   0.670  0.3700E+00  0.2208E+02
   0.680  0.3753E+00  0.2209E+02
   0.690  0.3808E+00  0.2209E+02
   0.700  0.3864E+00  0.2210E+02
   0.710  0.3921E+00  0.2210E+02
   0.720  0.3980E+00  0.2210E+02
   0.730  0.4040E+00  0.2211E+02
   0.740  0.4102E+00  0.2211E+02
   0.750  0.4165E+00  0.2212E+02
   0.760  0.4229E+00  0.2212E+02
   0.770  0.4294E+00  0.2212E+02
   0.780  0.4361E+00  0.2213E+02
   0.790  0.4428E+00  0.2213E+02
   0.800  0.4496E+00  0.2214E+02
   0.810  0.4566E+00  0.2214E+02
   0.820  0.4636E+00  0.2215E+02
   0.830  0.4707E+00  0.2215E+02
   0.840  0.4778E+00  0.2216E+02
   0.850  0.4851E+00  0.2216E+02
   0.860  0.4924E+00  0.2217E+02
   0.870  0.4998E+00  0.2217E+02
   0.880  0.5072E+00  0.2218E+02
   0.890  0.5147E+00  0.2218E+02
   0.900  0.5223E+00  0.2219E+02
   0.910  0.5299E+00  0.2219E+02
   0.920  0.5376E+00  0.2220E+02
   0.930  0.5453E+00  0.2220E+02
   0.940  0.5531E+00  0.2221E+02
   0.950  0.5609E+00  0.2221E+02
   0.960  0.5688E+00  0.2222E+02
   0.970  0.5767E+00  0.2222E+02
   0.980  0.5846E+00  0.2223E+02
   0.990  0.5926E+00  0.2224E+02
   1.000  0.6007E+00  0.2224E+02
   1.010  0.6087E+00  0.2225E+02
   1.020  0.6168E+00  0.2225E+02
   1.030  0.6250E+00  0.2226E+02
   1.040  0.6331E+00  0.2227E+02
   1.050  0.6413E+00  0.2227E+02
   1.060  0.6496E+00  0.2228E+02
   1.070  0.6578E+00  0.2229E+02
   1.080  0.6661E+00  0.2229E+02
   1.090  0.6744E+00  0.2230E+02
   1.100  0.6827E+00  0.2231E+02
   1.110  0.6910E+00  0.2231E+02
   1.120  0.6994E+00  0.2232E+02
   1.130  0.7077E+00  0.2233E+02
   1.140  0.7161E+00  0.2234E+02
   1.150  0.7244E+00  0.2234E+02
   1.160  0.7327E+00  0.2235E+02
   1.170  0.7410E+00  0.2236E+02
   1.180  0.7493E+00  0.2236E+02
   1.190  0.7576E+00  0.2237E+02
   1.200  0.7658E+00  0.2238E+02
   1.210  0.7740E+00  0.2239E+02
   1.220  0.7821E+00  0.2240E+02
   1.230  0.7901E+00  0.2240E+02
   1.240  0.7981E+00  0.2241E+02
   1.250  0.8060E+00  0.2242E+02
   1.260  0.8138E+00  0.2243E+02
   1.270  0.8215E+00  0.2244E+02
   1.280  0.8291E+00  0.2244E+02
   1.290  0.8366E+00  0.2245E+02
   1.300  0.8440E+00  0.2246E+02
   1.310  0.8512E+00  0.2247E+02
   1.320  0.8582E+00  0.2248E+02
   1.330  0.8651E+00  0.2249E+02
   1.340  0.8719E+00  0.2250E+02
   1.350  0.8784E+00  0.2250E+02
   1.360  0.8847E+00  0.2251E+02
   1.370  0.8909E+00  0.2252E+02
   1.380  0.8968E+00  0.2253E+02
   1.390  0.9025E+00  0.2254E+02
   1.400  0.9080E+00  0.2255E+02
   1.410  0.9132E+00  0.2256E+02
   1.420  0.9182E+00  0.2257E+02
   1.430  0.9229E+00  0.2258E+02
   1.440  0.9274E+00  0.2259E+02
   1.450  0.9315E+00  0.2260E+02
   1.460  0.9354E+00  0.2260E+02
   1.470  0.9390E+00  0.2261E+02
   1.480  0.9424E+00  0.2262E+02
   1.490  0.9454E+00  0.2263E+02
   1.500  0.9481E+00  0.2264E+02
   1.510  0.9505E+00  0.2265E+02
   1.520  0.9526E+00  0.2266E+02
   1.530  0.9543E+00  0.2267E+02
   1.540  0.9558E+00  0.2268E+02
   1.550  0.9569E+00  0.2269E+02
   1.560  0.9577E+00  0.2270E+02
   1.570  0.9582E+00  0.2271E+02
   1.580  0.9584E+00  0.2272E+02
   1.590  0.9583E+00  0.2273E+02
   1.600  0.9578E+00  0.2274E+02
   1.610  0.9570E+00  0.2275E+02
   1.620  0.9559E+00  0.2276E+02
   1.630  0.9545E+00  0.2277E+02
   1.640  0.9528E+00  0.2278E+02
   1.650  0.9507E+00  0.2279E+02
   1.660  0.9484E+00  0.2279E+02
   1.670  0.9458E+00  0.2280E+02
   1.680  0.9429E+00  0.2281E+02
   1.690  0.9397E+00  0.2282E+02
   1.700  0.9362E+00  0.2283E+02
   1.710  0.9324E+00  0.2284E+02
   1.720  0.9284E+00  0.2285E+02
   1.730  0.9242E+00  0.2286E+02
   1.740  0.9196E+00  0.2287E+02
   1.750  0.9149E+00  0.2288E+02
   1.760  0.9099E+00  0.2289E+02
   1.770  0.9047E+00  0.2290E+02
   1.780  0.8992E+00  0.2291E+02
   1.790  0.8936E+00  0.2291E+02
   1.800  0.8877E+00  0.2292E+02
   1.810  0.8817E+00  0.2293E+02
   1.820  0.8755E+00  0.2294E+02
   1.830  0.8691E+00  0.2295E+02
   1.840  0.8626E+00  0.2296E+02
   1.850  0.8559E+00  0.2297E+02
   1.860  0.8491E+00  0.2298E+02
   1.870  0.8422E+00  0.2298E+02
   1.880  0.8351E+00  0.2299E+02
   1.890  0.8280E+00  0.2300E+02
   1.900  0.8207E+00  0.2301E+02
   1.910  0.8134E+00  0.2302E+02
   1.920  0.8060E+00  0.2303E+02
   1.930  0.7985E+00  0.2303E+02
   1.940  0.7910E+00  0.2304E+02
   1.950  0.7834E+00  0.2305E+02
   1.960  0.7759E+00  0.2306E+02
   1.970  0.7682E+00  0.2306E+02
   1.980  0.7606E+00  0.2307E+02
   1.990  0.7530E+00  0.2308E+02
   2.000  0.7454E+00  0.2309E+02
   2.010  0.7378E+00  0.2309E+02
   2.020  0.7303E+00  0.2310E+02
   2.030  0.7228E+00  0.2311E+02
   2.040  0.7153E+00  0.2312E+02
   2.050  0.7079E+00  0.2312E+02
   2.060  0.7005E+00  0.2313E+02
   2.070  0.6932E+00  0.2314E+02
   2.080  0.6860E+00  0.2314E+02
   2.090  0.6789E+00  0.2315E+02
   2.100  0.6719E+00  0.2316E+02
   2.110  0.6649E+00  0.2316E+02
   2.120  0.6581E+00  0.2317E+02
   2.130  0.6513E+00  0.2318E+02
   2.140  0.6447E+00  0.2318E+02
   2.150  0.6382E+00  0.2319E+02
   2.160  0.6318E+00  0.2320E+02
   2.170  0.6255E+00  0.2320E+02
   2.180  0.6193E+00  0.2321E+02
   2.190  0.6132E+00  0.2321E+02
   2.200  0.6073E+00  0.2322E+02
   2.210  0.6015E+00  0.2323E+02
   2.220  0.5958E+00  0.2323E+02
   2.230  0.5902E+00  0.2324E+02
   2.240  0.5848E+00  0.2324E+02
   2.250  0.5794E+00  0.2325E+02
   2.260  0.5742E+00  0.2326E+02
   2.270  0.5691E+00  0.2326E+02
   2.280  0.5641E+00  0.2327E+02
   2.290  0.5592E+00  0.2327E+02
   2.300  0.5544E+00  0.2328E+02
   2.310  0.5497E+00  0.2328E+02
   2.320  0.5451E+00  0.2329E+02
   2.330  0.5406E+00  0.2329E+02
   2.340  0.5362E+00  0.2330E+02
   2.350  0.5319E+00  0.2331E+02
   2.360  0.5276E+00  0.2331E+02
   2.370  0.5235E+00  0.2332E+02
   2.380  0.5194E+00  0.2332E+02
   2.390  0.5153E+00  0.2333E+02
   2.400  0.5113E+00  0.2333E+02
   2.410  0.5074E+00  0.2334E+02
   2.420  0.5035E+00  0.2334E+02
   2.430  0.4997E+00  0.2335E+02
   2.440  0.4959E+00  0.2335E+02
   2.450  0.4921E+00  0.2336E+02
   2.460  0.4884E+00  0.2336E+02
   2.470  0.4847E+00  0.2337E+02
   2.480  0.4810E+00  0.2337E+02
   2.490  0.4773E+00  0.2338E+02
   2.500  0.4737E+00  0.2338E+02
   2.510  0.4700E+00  0.2339E+02
   2.520  0.4664E+00  0.2339E+02
   2.530  0.4628E+00  0.2339E+02
   2.540  0.4592E+00  0.2340E+02
   2.550  0.4555E+00  0.2340E+02
   2.560  0.4519E+00  0.2341E+02
   2.570  0.4483E+00  0.2341E+02
   2.580  0.4447E+00  0.2342E+02
   2.590  0.4411E+00  0.2342E+02
   2.600  0.4375E+00  0.2343E+02
   2.610  0.4339E+00  0.2343E+02
   2.620  0.4303E+00  0.2343E+02
   2.630  0.4267E+00  0.2344E+02
   2.640  0.4231E+00  0.2344E+02
   2.650  0.4195E+00  0.2345E+02
   2.660  0.4159E+00  0.2345E+02
   2.670  0.4124E+00  0.2346E+02
   2.680  0.4088E+00  0.2346E+02
   2.690  0.4053E+00  0.2346E+02
   2.700  0.4017E+00  0.2347E+02
   2.710  0.3982E+00  0.2347E+02
   2.720  0.3947E+00  0.2348E+02
   2.730  0.3913E+00  0.2348E+02
   2.740  0.3879E+00  0.2348E+02
   2.750  0.3845E+00  0.2349E+02
   2.760  0.3811E+00  0.2349E+02
   2.770  0.3778E+00  0.2349E+02
   2.780  0.3746E+00  0.2350E+02
   2.790  0.3714E+00  0.2350E+02
   2.800  0.3682E+00  0.2351E+02
   2.810  0.3651E+00  0.2351E+02
   2.820  0.3621E+00  0.2351E+02
   2.830  0.3591E+00  0.2352E+02
   2.840  0.3562E+00  0.2352E+02
   2.850  0.3533E+00  0.2352E+02
   2.860  0.3506E+00  0.2353E+02
   2.870  0.3479E+00  0.2353E+02
   2.880  0.3452E+00  0.2353E+02
   2.890  0.3427E+00  0.2354E+02
   2.900  0.3402E+00  0.2354E+02
   2.910  0.3378E+00  0.2354E+02
   2.920  0.3355E+00  0.2355E+02
   2.930  0.3333E+00  0.2355E+02
   2.940  0.3311E+00  0.2355E+02
   2.950  0.3290E+00  0.2356E+02
   2.960  0.3270E+00  0.2356E+02
   2.970  0.3251E+00  0.2356E+02
   2.980  0.3232E+00  0.2357E+02
   2.990  0.3214E+00  0.2357E+02
   3.000  0.3197E+00  0.2357E+02
   3.010  0.3180E+00  0.2358E+02
   3.020  0.3164E+00  0.2358E+02
   3.030  0.3149E+00  0.2358E+02
   3.040  0.3134E+00  0.2359E+02
   3.050  0.3120E+00  0.2359E+02
   3.060  0.3106E+00  0.2359E+02
   3.070  0.3092E+00  0.2360E+02
   3.080  0.3079E+00  0.2360E+02
   3.090  0.3066E+00  0.2360E+02
   3.100  0.3054E+00  0.2361E+02
   3.110  0.3041E+00  0.2361E+02
   3.120  0.3029E+00  0.2361E+02
   3.130  0.3017E+00  0.2361E+02
   3.140  0.3005E+00  0.2362E+02
   3.150  0.2993E+00  0.2362E+02
   3.160  0.2981E+00  0.2362E+02
   3.170  0.2969E+00  0.2363E+02
   3.180  0.2956E+00  0.2363E+02
   3.190  0.2943E+00  0.2363E+02
   3.200  0.2931E+00  0.2364E+02
   3.210  0.2917E+00  0.2364E+02
   3.220  0.2904E+00  0.2364E+02
   3.230  0.2890E+00  0.2364E+02
   3.240  0.2875E+00  0.2365E+02
   3.250  0.2861E+00  0.2365E+02
   3.260  0.2845E+00  0.2365E+02
   3.270  0.2830E+00  0.2366E+02
   3.280  0.2813E+00  0.2366E+02
   3.290  0.2797E+00  0.2366E+02
   3.300  0.2779E+00  0.2366E+02
   3.310  0.2762E+00  0.2367E+02
   3.320  0.2743E+00  0.2367E+02
   3.330  0.2724E+00  0.2367E+02
   3.340  0.2705E+00  0.2367E+02
   3.350  0.2685E+00  0.2368E+02
   3.360  0.2664E+00  0.2368E+02
   3.370  0.2643E+00  0.2368E+02
   3.380  0.2622E+00  0.2369E+02
   3.390  0.2600E+00  0.2369E+02
   3.400  0.2578E+00  0.2369E+02
   3.410  0.2555E+00  0.2369E+02
   3.420  0.2532E+00  0.2370E+02
   3.430  0.2509E+00  0.2370E+02
   3.440  0.2486E+00  0.2370E+02
   3.450  0.2462E+00  0.2370E+02
   3.460  0.2438E+00  0.2371E+02
   3.470  0.2414E+00  0.2371E+02
   3.480  0.2391E+00  0.2371E+02
   3.490  0.2367E+00  0.2371E+02
   3.500  0.2343E+00  0.2371E+02
   3.510  0.2319E+00  0.2372E+02
   3.520  0.2296E+00  0.2372E+02
   3.530  0.2273E+00  0.2372E+02
   3.540  0.2250E+00  0.2372E+02
   3.550  0.2227E+00  0.2373E+02
   3.560  0.2205E+00  0.2373E+02
   3.570  0.2183E+00  0.2373E+02
   3.580  0.2162E+00  0.2373E+02
   3.590  0.2141E+00  0.2373E+02
   3.600  0.2121E+00  0.2374E+02
   3.610  0.2102E+00  0.2374E+02
   3.620  0.2083E+00  0.2374E+02
   3.630  0.2065E+00  0.2374E+02
   3.640  0.2048E+00  0.2375E+02
   3.650  0.2031E+00  0.2375E+02
   3.660  0.2016E+00  0.2375E+02
   3.670  0.2001E+00  0.2375E+02
   3.680  0.1988E+00  0.2375E+02
   3.690  0.1975E+00  0.2376E+02
   3.700  0.1963E+00  0.2376E+02
   3.710  0.1953E+00  0.2376E+02
   3.720  0.1943E+00  0.2376E+02
   3.730  0.1935E+00  0.2376E+02
   3.740  0.1928E+00  0.2377E+02
   3.750  0.1922E+00  0.2377E+02
   3.760  0.1917E+00  0.2377E+02
   3.770  0.1913E+00  0.2377E+02
   3.780  0.1911E+00  0.2377E+02
   3.790  0.1910E+00  0.2377E+02
   3.800  0.1910E+00  0.2378E+02
   3.810  0.1912E+00  0.2378E+02
   3.820  0.1915E+00  0.2378E+02
   3.830  0.1920E+00  0.2378E+02
   3.840  0.1926E+00  0.2378E+02
   3.850  0.1934E+00  0.2379E+02
   3.860  0.1943E+00  0.2379E+02
   3.870  0.1954E+00  0.2379E+02
   3.880  0.1967E+00  0.2379E+02
   3.890  0.1981E+00  0.2379E+02
   3.900  0.1997E+00  0.2380E+02
   3.910  0.2015E+00  0.2380E+02
   3.920  0.2035E+00  0.2380E+02
   3.930  0.2056E+00  0.2380E+02
   3.940  0.2080E+00  0.2380E+02
   3.950  0.2106E+00  0.2381E+02
   3.960  0.2134E+00  0.2381E+02
   3.970  0.2164E+00  0.2381E+02
   3.980  0.2197E+00  0.2381E+02
   3.990  0.2232E+00  0.2382E+02
   4.000  0.2269E+00  0.2382E+02
   4.010  0.2309E+00  0.2382E+02
   4.020  0.2352E+00  0.2382E+02
   4.030  0.2397E+00  0.2382E+02
   4.040  0.2445E+00  0.2383E+02
   4.050  0.2496E+00  0.2383E+02
   4.060  0.2549E+00  0.2383E+02
   4.070  0.2606E+00  0.2383E+02
   4.080  0.2666E+00  0.2384E+02
   4.090  0.2729E+00  0.2384E+02
   4.100  0.2795E+00  0.2384E+02
   4.110  0.2864E+00  0.2385E+02
   4.120  0.2937E+00  0.2385E+02
   4.130  0.3013E+00  0.2385E+02
   4.140  0.3093E+00  0.2385E+02
   4.150  0.3176E+00  0.2386E+02
   4.160  0.3262E+00  0.2386E+02
   4.170  0.3353E+00  0.2386E+02
   4.180  0.3447E+00  0.2387E+02
   4.190  0.3544E+00  0.2387E+02
   4.200  0.3645E+00  0.2387E+02
   4.210  0.3750E+00  0.2388E+02
   4.220  0.3858E+00  0.2388E+02
   4.230  0.3971E+00  0.2389E+02
   4.240  0.4086E+00  0.2389E+02
   4.250  0.4206E+00  0.2389E+02
   4.260  0.4329E+00  0.2390E+02
   4.270  0.4455E+00  0.2390E+02
   4.280  0.4585E+00  0.2391E+02
   4.290  0.4719E+00  0.2391E+02
   4.300  0.4856E+00  0.2392E+02
   4.310  0.4996E+00  0.2392E+02
   4.320  0.5139E+00  0.2393E+02
   4.330  0.5286E+00  0.2393E+02
   4.340  0.5435E+00  0.2394E+02
   4.350  0.5588E+00  0.2394E+02
   4.360  0.5743E+00  0.2395E+02
   4.370  0.5901E+00  0.2396E+02
   4.380  0.6061E+00  0.2396E+02
   4.390  0.6223E+00  0.2397E+02
   4.400  0.6388E+00  0.2397E+02
   4.410  0.6555E+00  0.2398E+02
   4.420  0.6723E+00  0.2399E+02
   4.430  0.6893E+00  0.2399E+02
   4.440  0.7065E+00  0.2400E+02
   4.450  0.7237E+00  0.2401E+02
   4.460  0.7411E+00  0.2402E+02
   4.470  0.7586E+00  0.2402E+02
   4.480  0.7761E+00  0.2403E+02
   4.490  0.7936E+00  0.2404E+02
   4.500  0.8112E+00  0.2405E+02
   4.510  0.8288E+00  0.2406E+02
   4.520  0.8464E+00  0.2406E+02
   4.530  0.8639E+00  0.2407E+02
   4.540  0.8813E+00  0.2408E+02
   4.550  0.8987E+00  0.2409E+02
   4.560  0.9160E+00  0.2410E+02
   4.570  0.9331E+00  0.2411E+02
   4.580  0.9501E+00  0.2412E+02
   4.590  0.9669E+00  0.2413E+02
   4.600  0.9835E+00  0.2414E+02
   4.610  0.1000E+01  0.2415E+02
   4.620  0.1016E+01  0.2416E+02
   4.630  0.1032E+01  0.2417E+02
   4.640  0.1048E+01  0.2418E+02
   4.650  0.1063E+01  0.2419E+02
   4.660  0.1079E+01  0.2420E+02
   4.670  0.1094E+01  0.2421E+02
   4.680  0.1108E+01  0.2422E+02
   4.690  0.1122E+01  0.2423E+02
   4.700  0.1136E+01  0.2425E+02
   4.710  0.1150E+01  0.2426E+02
   4.720  0.1163E+01  0.2427E+02
   4.730  0.1176E+01  0.2428E+02
   4.740  0.1189E+01  0.2429E+02
   4.750  0.1201E+01  0.2430E+02
   4.760  0.1213E+01  0.2432E+02
   4.770  0.1225E+01  0.2433E+02
   4.780  0.1236E+01  0.2434E+02
   4.790  0.1247E+01  0.2435E+02
   4.800  0.1258E+01  0.2437E+02
   4.810  0.1268E+01  0.2438E+02
   4.820  0.1278E+01  0.2439E+02
   4.830  0.1288E+01  0.2440E+02
   4.840  0.1297E+01  0.2442E+02
   4.850  0.1307E+01  0.2443E+02
   4.860  0.1315E+01  0.2444E+02
   4.870  0.1324E+01  0.2446E+02
   4.880  0.1332E+01  0.2447E+02
   4.890  0.1340E+01  0.2448E+02
   4.900  0.1348E+01  0.2450E+02
   4.910  0.1356E+01  0.2451E+02
   4.920  0.1363E+01  0.2452E+02
   4.930  0.1370E+01  0.2454E+02
   4.940  0.1377E+01  0.2455E+02
   4.950  0.1384E+01  0.2457E+02
   4.960  0.1391E+01  0.2458E+02
   4.970  0.1397E+01  0.2459E+02
   4.980  0.1404E+01  0.2461E+02
   4.990  0.1410E+01  0.2462E+02
   5.000  0.1416E+01  0.2464E+02
   5.010  0.1422E+01  0.2465E+02
   5.020  0.1428E+01  0.2466E+02
   5.030  0.1434E+01  0.2468E+02
   5.040  0.1440E+01  0.2469E+02
   5.050  0.1446E+01  0.2471E+02
   5.060  0.1452E+01  0.2472E+02
   5.070  0.1458E+01  0.2474E+02
   5.080  0.1464E+01  0.2475E+02
   5.090  0.1469E+01  0.2477E+02
   5.100  0.1475E+01  0.2478E+02
   5.110  0.1481E+01  0.2480E+02
   5.120  0.1487E+01  0.2481E+02
   5.130  0.1493E+01  0.2483E+02
   5.140  0.1498E+01  0.2484E+02
   5.150  0.1504E+01  0.2486E+02
   5.160  0.1510E+01  0.2487E+02
   5.170  0.1516E+01  0.2489E+02
   5.180  0.1521E+01  0.2490E+02
   5.190  0.1527E+01  0.2492E+02
   5.200  0.1533E+01  0.2493E+02
   5.210  0.1539E+01  0.2495E+02
   5.220  0.1545E+01  0.2496E+02
   5.230  0.1550E+01  0.2498E+02
   5.240  0.1556E+01  0.2499E+02
   5.250  0.1562E+01  0.2501E+02
   5.260  0.1567E+01  0.2502E+02
   5.270  0.1573E+01  0.2504E+02
   5.280  0.1578E+01  0.2506E+02
   5.290  0.1584E+01  0.2507E+02
   5.300  0.1589E+01  0.2509E+02
   5.310  0.1595E+01  0.2510E+02
   5.320  0.1600E+01  0.2512E+02
   5.330  0.1605E+01  0.2514E+02
   5.340  0.1610E+01  0.2515E+02
   5.350  0.1615E+01  0.2517E+02
   5.360  0.1620E+01  0.2518E+02
   5.370  0.1625E+01  0.2520E+02
   5.380  0.1629E+01  0.2522E+02
   5.390  0.1634E+01  0.2523E+02
   5.400  0.1638E+01  0.2525E+02
   5.410  0.1642E+01  0.2527E+02
   5.420  0.1646E+01  0.2528E+02
   5.430  0.1650E+01  0.2530E+02
   5.440  0.1653E+01  0.2532E+02
   5.450  0.1657E+01  0.2533E+02
   5.460  0.1660E+01  0.2535E+02
   5.470  0.1663E+01  0.2537E+02
   5.480  0.1666E+01  0.2538E+02
   5.490  0.1669E+01  0.2540E+02
   5.500  0.1672E+01  0.2542E+02
   5.510  0.1674E+01  0.2543E+02
   5.520  0.1676E+01  0.2545E+02
   5.530  0.1679E+01  0.2547E+02
   5.540  0.1680E+01  0.2548E+02
   5.550  0.1682E+01  0.2550E+02
   5.560  0.1684E+01  0.2552E+02
   5.570  0.1685E+01  0.2553E+02
   5.580  0.1686E+01  0.2555E+02
   5.590  0.1687E+01  0.2557E+02
   5.600  0.1688E+01  0.2558E+02
   5.610  0.1689E+01  0.2560E+02
   5.620  0.1689E+01  0.2562E+02
   5.630  0.1690E+01  0.2563E+02
   5.640  0.1690E+01  0.2565E+02
   5.650  0.1690E+01  0.2567E+02
   5.660  0.1690E+01  0.2568E+02
   5.670  0.1690E+01  0.2570E+02
   5.680  0.1690E+01  0.2572E+02
   5.690  0.1690E+01  0.2574E+02
   5.700  0.1689E+01  0.2575E+02
   5.710  0.1688E+01  0.2577E+02
   5.720  0.1688E+01  0.2579E+02
   5.730  0.1687E+01  0.2580E+02
   5.740  0.1686E+01  0.2582E+02
   5.750  0.1685E+01  0.2584E+02
   5.760  0.1684E+01  0.2585E+02
   5.770  0.1683E+01  0.2587E+02
   5.780  0.1682E+01  0.2589E+02
   5.790  0.1681E+01  0.2590E+02
   5.800  0.1679E+01  0.2592E+02
   5.810  0.1678E+01  0.2594E+02
   5.820  0.1677E+01  0.2595E+02
   5.830  0.1675E+01  0.2597E+02
   5.840  0.1674E+01  0.2599E+02
   5.850  0.1672E+01  0.2600E+02
   5.860  0.1670E+01  0.2602E+02
   5.870  0.1669E+01  0.2604E+02
   5.880  0.1667E+01  0.2605E+02
   5.890  0.1665E+01  0.2607E+02
   5.900  0.1663E+01  0.2609E+02
   5.910  0.1662E+01  0.2610E+02
   5.920  0.1660E+01  0.2612E+02
   5.930  0.1658E+01  0.2614E+02
   5.940  0.1656E+01  0.2615E+02
   5.950  0.1654E+01  0.2617E+02
   5.960  0.1652E+01  0.2619E+02
   5.970  0.1650E+01  0.2620E+02
   5.980  0.1647E+01  0.2622E+02
   5.990  0.1645E+01  0.2624E+02
   6.000  0.1643E+01  0.2625E+02
   6.010  0.1641E+01  0.2627E+02
   6.020  0.1638E+01  0.2629E+02
   6.030  0.1636E+01  0.2630E+02
   6.040  0.1633E+01  0.2632E+02
   6.050  0.1631E+01  0.2634E+02
   6.060  0.1628E+01  0.2635E+02
   6.070  0.1625E+01  0.2637E+02
   6.080  0.1623E+01  0.2638E+02
   6.090  0.1620E+01  0.2640E+02
   6.100  0.1617E+01  0.2642E+02
   6.110  0.1614E+01  0.2643E+02
   6.120  0.1611E+01  0.2645E+02
   6.130  0.1608E+01  0.2646E+02
   6.140  0.1604E+01  0.2648E+02
   6.150  0.1601E+01  0.2650E+02
   6.160  0.1597E+01  0.2651E+02
   6.170  0.1594E+01  0.2653E+02
   6.180  0.1590E+01  0.2654E+02
   6.190  0.1586E+01  0.2656E+02
   6.200  0.1582E+01  0.2658E+02
   6.210  0.1578E+01  0.2659E+02
   6.220  0.1574E+01  0.2661E+02
   6.230  0.1570E+01  0.2662E+02
   6.240  0.1565E+01  0.2664E+02
   6.250  0.1561E+01  0.2665E+02
   6.260  0.1556E+01  0.2667E+02
   6.270  0.1551E+01  0.2669E+02
   6.280  0.1546E+01  0.2670E+02
   6.290  0.1541E+01  0.2672E+02
   6.300  0.1536E+01  0.2673E+02
   6.310  0.1530E+01  0.2675E+02
   6.320  0.1525E+01  0.2676E+02
   6.330  0.1519E+01  0.2678E+02
   6.340  0.1513E+01  0.2679E+02
   6.350  0.1507E+01  0.2681E+02
   6.360  0.1501E+01  0.2682E+02
   6.370  0.1494E+01  0.2684E+02
   6.380  0.1488E+01  0.2685E+02
   6.390  0.1481E+01  0.2687E+02
   6.400  0.1474E+01  0.2688E+02
   6.410  0.1467E+01  0.2690E+02
   6.420  0.1460E+01  0.2691E+02
   6.430  0.1453E+01  0.2693E+02
   6.440  0.1445E+01  0.2694E+02
   6.450  0.1438E+01  0.2695E+02
   6.460  0.1430E+01  0.2697E+02
   6.470  0.1422E+01  0.2698E+02
   6.480  0.1414E+01  0.2700E+02
   6.490  0.1405E+01  0.2701E+02
   6.500  0.1397E+01  0.2703E+02
   6.510  0.1388E+01  0.2704E+02
   6.520  0.1380E+01  0.2705E+02
   6.530  0.1371E+01  0.2707E+02
   6.540  0.1362E+01  0.2708E+02
   6.550  0.1352E+01  0.2709E+02
   6.560  0.1343E+01  0.2711E+02
   6.570  0.1334E+01  0.2712E+02
   6.580  0.1324E+01  0.2713E+02
   6.590  0.1314E+01  0.2715E+02
   6.600  0.1304E+01  0.2716E+02
   6.610  0.1294E+01  0.2717E+02
   6.620  0.1284E+01  0.2719E+02
   6.630  0.1274E+01  0.2720E+02
   6.640  0.1264E+01  0.2721E+02
   6.650  0.1253E+01  0.2722E+02
   6.660  0.1243E+01  0.2724E+02
   6.670  0.1232E+01  0.2725E+02
   6.680  0.1221E+01  0.2726E+02
   6.690  0.1210E+01  0.2727E+02
   6.700  0.1199E+01  0.2728E+02
   6.710  0.1188E+01  0.2730E+02
   6.720  0.1177E+01  0.2731E+02
   6.730  0.1166E+01  0.2732E+02
   6.740  0.1155E+01  0.2733E+02
   6.750  0.1143E+01  0.2734E+02
   6.760  0.1132E+01  0.2735E+02
   6.770  0.1121E+01  0.2737E+02
   6.780  0.1109E+01  0.2738E+02
   6.790  0.1098E+01  0.2739E+02
   6.800  0.1086E+01  0.2740E+02
   6.810  0.1074E+01  0.2741E+02
   6.820  0.1063E+01  0.2742E+02
   6.830  0.1051E+01  0.2743E+02
   6.840  0.1039E+01  0.2744E+02
   6.850  0.1028E+01  0.2745E+02
   6.860  0.1016E+01  0.2746E+02
   6.870  0.1004E+01  0.2747E+02
   6.880  0.9923E+00  0.2748E+02
   6.890  0.9805E+00  0.2749E+02
   6.900  0.9687E+00  0.2750E+02
   6.910  0.9569E+00  0.2751E+02
   6.920  0.9451E+00  0.2752E+02
   6.930  0.9333E+00  0.2753E+02
   6.940  0.9215E+00  0.2754E+02
   6.950  0.9097E+00  0.2755E+02
   6.960  0.8980E+00  0.2756E+02
   6.970  0.8862E+00  0.2757E+02
   6.980  0.8745E+00  0.2757E+02
   6.990  0.8628E+00  0.2758E+02
   7.000  0.8511E+00  0.2759E+02
   7.010  0.8395E+00  0.2760E+02
   7.020  0.8278E+00  0.2761E+02
   7.030  0.8162E+00  0.2762E+02
   7.040  0.8047E+00  0.2762E+02
   7.050  0.7932E+00  0.2763E+02
   7.060  0.7817E+00  0.2764E+02
   7.070  0.7703E+00  0.2765E+02
   7.080  0.7589E+00  0.2766E+02
   7.090  0.7475E+00  0.2766E+02
   7.100  0.7363E+00  0.2767E+02
   7.110  0.7250E+00  0.2768E+02
   7.120  0.7139E+00  0.2768E+02
   7.130  0.7027E+00  0.2769E+02
   7.140  0.6917E+00  0.2770E+02
   7.150  0.6807E+00  0.2771E+02
   7.160  0.6698E+00  0.2771E+02
   7.170  0.6589E+00  0.2772E+02
   7.180  0.6481E+00  0.2772E+02
   7.190  0.6374E+00  0.2773E+02
   7.200  0.6268E+00  0.2774E+02
   7.210  0.6162E+00  0.2774E+02
   7.220  0.6057E+00  0.2775E+02
   7.230  0.5953E+00  0.2776E+02
   7.240  0.5850E+00  0.2776E+02
   7.250  0.5748E+00  0.2777E+02
   7.260  0.5647E+00  0.2777E+02
   7.270  0.5547E+00  0.2778E+02
   7.280  0.5448E+00  0.2778E+02
   7.290  0.5350E+00  0.2779E+02
   7.300  0.5253E+00  0.2779E+02
   7.310  0.5157E+00  0.2780E+02
   7.320  0.5062E+00  0.2780E+02
   7.330  0.4968E+00  0.2781E+02
   7.340  0.4876E+00  0.2781E+02
   7.350  0.4785E+00  0.2782E+02
   7.360  0.4695E+00  0.2782E+02
   7.370  0.4606E+00  0.2783E+02
   7.380  0.4519E+00  0.2783E+02
   7.390  0.4433E+00  0.2784E+02
   7.400  0.4348E+00  0.2784E+02
   7.410  0.4265E+00  0.2785E+02
   7.420  0.4183E+00  0.2785E+02
   7.430  0.4102E+00  0.2785E+02
   7.440  0.4023E+00  0.2786E+02
   7.450  0.3945E+00  0.2786E+02
   7.460  0.3869E+00  0.2787E+02
   7.470  0.3794E+00  0.2787E+02
   7.480  0.3721E+00  0.2787E+02
   7.490  0.3649E+00  0.2788E+02
   7.500  0.3579E+00  0.2788E+02
   7.510  0.3510E+00  0.2788E+02
   7.520  0.3442E+00  0.2789E+02
   7.530  0.3376E+00  0.2789E+02
   7.540  0.3312E+00  0.2789E+02
   7.550  0.3249E+00  0.2790E+02
   7.560  0.3188E+00  0.2790E+02
   7.570  0.3128E+00  0.2790E+02
   7.580  0.3069E+00  0.2791E+02
   7.590  0.3012E+00  0.2791E+02
   7.600  0.2956E+00  0.2791E+02
   7.610  0.2902E+00  0.2792E+02
   7.620  0.2849E+00  0.2792E+02
   7.630  0.2797E+00  0.2792E+02
   7.640  0.2747E+00  0.2792E+02
   7.650  0.2698E+00  0.2793E+02
   7.660  0.2650E+00  0.2793E+02
   7.670  0.2604E+00  0.2793E+02
   7.680  0.2559E+00  0.2794E+02
   7.690  0.2515E+00  0.2794E+02
   7.700  0.2472E+00  0.2794E+02
   7.710  0.2430E+00  0.2794E+02
   7.720  0.2390E+00  0.2795E+02
   7.730  0.2350E+00  0.2795E+02
   7.740  0.2312E+00  0.2795E+02
   7.750  0.2275E+00  0.2795E+02
   7.760  0.2239E+00  0.2795E+02
   7.770  0.2204E+00  0.2796E+02
   7.780  0.2170E+00  0.2796E+02
   7.790  0.2137E+00  0.2796E+02
   7.800  0.2104E+00  0.2796E+02
   7.810  0.2073E+00  0.2796E+02
   7.820  0.2043E+00  0.2797E+02
   7.830  0.2014E+00  0.2797E+02
   7.840  0.1985E+00  0.2797E+02
   7.850  0.1958E+00  0.2797E+02
   7.860  0.1932E+00  0.2797E+02
   7.870  0.1906E+00  0.2798E+02
   7.880  0.1882E+00  0.2798E+02
   7.890  0.1858E+00  0.2798E+02
   7.900  0.1835E+00  0.2798E+02
   7.910  0.1814E+00  0.2798E+02
   7.920  0.1793E+00  0.2799E+02
   7.930  0.1774E+00  0.2799E+02
   7.940  0.1755E+00  0.2799E+02
   7.950  0.1738E+00  0.2799E+02
   7.960  0.1722E+00  0.2799E+02
   7.970  0.1707E+00  0.2799E+02
   7.980  0.1693E+00  0.2800E+02
   7.990  0.1680E+00  0.2800E+02
   8.000  0.1669E+00  0.2800E+02
   8.010  0.1659E+00  0.2800E+02
   8.020  0.1651E+00  0.2800E+02
   8.030  0.1644E+00  0.2800E+02
   8.040  0.1638E+00  0.2801E+02
   8.050  0.1634E+00  0.2801E+02
   8.060  0.1632E+00  0.2801E+02
   8.070  0.1632E+00  0.2801E+02
   8.080  0.1633E+00  0.2801E+02
   8.090  0.1636E+00  0.2801E+02
   8.100  0.1642E+00  0.2802E+02
   8.110  0.1649E+00  0.2802E+02
   8.120  0.1658E+00  0.2802E+02
   8.130  0.1669E+00  0.2802E+02
   8.140  0.1683E+00  0.2802E+02
   8.150  0.1699E+00  0.2802E+02
   8.160  0.1717E+00  0.2803E+02
   8.170  0.1738E+00  0.2803E+02
   8.180  0.1761E+00  0.2803E+02
   8.190  0.1787E+00  0.2803E+02
   8.200  0.1815E+00  0.2803E+02
   8.210  0.1846E+00  0.2804E+02
   8.220  0.1880E+00  0.2804E+02
   8.230  0.1917E+00  0.2804E+02
   8.240  0.1956E+00  0.2804E+02
   8.250  0.1999E+00  0.2804E+02
   8.260  0.2044E+00  0.2804E+02
   8.270  0.2092E+00  0.2805E+02
   8.280  0.2144E+00  0.2805E+02
   8.290  0.2198E+00  0.2805E+02
   8.300  0.2255E+00  0.2805E+02
   8.310  0.2316E+00  0.2806E+02
   8.320  0.2379E+00  0.2806E+02
   8.330  0.2446E+00  0.2806E+02
   8.340  0.2516E+00  0.2806E+02
   8.350  0.2589E+00  0.2807E+02
   8.360  0.2665E+00  0.2807E+02
   8.370  0.2744E+00  0.2807E+02
   8.380  0.2826E+00  0.2807E+02
   8.390  0.2911E+00  0.2808E+02
   8.400  0.2999E+00  0.2808E+02
   8.410  0.3091E+00  0.2808E+02
   8.420  0.3185E+00  0.2809E+02
   8.430  0.3282E+00  0.2809E+02
   8.440  0.3382E+00  0.2809E+02
   8.450  0.3484E+00  0.2810E+02
   8.460  0.3590E+00  0.2810E+02
   8.470  0.3698E+00  0.2810E+02
   8.480  0.3809E+00  0.2811E+02
   8.490  0.3922E+00  0.2811E+02
   8.500  0.4038E+00  0.2812E+02
   8.510  0.4156E+00  0.2812E+02
   8.520  0.4277E+00  0.2812E+02
   8.530  0.4400E+00  0.2813E+02
   8.540  0.4525E+00  0.2813E+02
   8.550  0.4652E+00  0.2814E+02
   8.560  0.4781E+00  0.2814E+02
   8.570  0.4913E+00  0.2815E+02
   8.580  0.5046E+00  0.2815E+02
   8.590  0.5181E+00  0.2816E+02
   8.600  0.5318E+00  0.2816E+02
   8.610  0.5456E+00  0.2817E+02
   8.620  0.5597E+00  0.2817E+02
   8.630  0.5738E+00  0.2818E+02
   8.640  0.5882E+00  0.2819E+02
   8.650  0.6027E+00  0.2819E+02
   8.660  0.6173E+00  0.2820E+02
   8.670  0.6321E+00  0.2820E+02
   8.680  0.6470E+00  0.2821E+02
   8.690  0.6620E+00  0.2822E+02
   8.700  0.6772E+00  0.2822E+02
   8.710  0.6925E+00  0.2823E+02
   8.720  0.7079E+00  0.2824E+02
   8.730  0.7235E+00  0.2824E+02
   8.740  0.7391E+00  0.2825E+02
   8.750  0.7549E+00  0.2826E+02
   8.760  0.7708E+00  0.2827E+02
   8.770  0.7869E+00  0.2828E+02
   8.780  0.8030E+00  0.2828E+02
   8.790  0.8193E+00  0.2829E+02
   8.800  0.8357E+00  0.2830E+02
   8.810  0.8522E+00  0.2831E+02
   8.820  0.8688E+00  0.2832E+02
   8.830  0.8856E+00  0.2833E+02
   8.840  0.9025E+00  0.2834E+02
   8.850  0.9195E+00  0.2834E+02
   8.860  0.9366E+00  0.2835E+02
   8.870  0.9538E+00  0.2836E+02
   8.880  0.9712E+00  0.2837E+02
   8.890  0.9887E+00  0.2838E+02
   8.900  0.1006E+01  0.2839E+02
   8.910  0.1024E+01  0.2840E+02
   8.920  0.1042E+01  0.2841E+02
   8.930  0.1060E+01  0.2842E+02
   8.940  0.1078E+01  0.2843E+02
   8.950  0.1096E+01  0.2845E+02
   8.960  0.1114E+01  0.2846E+02
   8.970  0.1132E+01  0.2847E+02
   8.980  0.1151E+01  0.2848E+02
   8.990  0.1169E+01  0.2849E+02
   9.000  0.1188E+01  0.2850E+02
   9.010  0.1206E+01  0.2852E+02
   9.020  0.1225E+01  0.2853E+02
   9.030  0.1244E+01  0.2854E+02
   9.040  0.1262E+01  0.2855E+02
   9.050  0.1281E+01  0.2857E+02
   9.060  0.1299E+01  0.2858E+02
   9.070  0.1318E+01  0.2859E+02
   9.080  0.1336E+01  0.2861E+02
   9.090  0.1355E+01  0.2862E+02
   9.100  0.1373E+01  0.2863E+02
   9.110  0.1391E+01  0.2865E+02
   9.120  0.1409E+01  0.2866E+02
   9.130  0.1427E+01  0.2867E+02
   9.140  0.1444E+01  0.2869E+02
   9.150  0.1462E+01  0.2870E+02
   9.160  0.1479E+01  0.2872E+02
   9.170  0.1495E+01  0.2873E+02
   9.180  0.1512E+01  0.2875E+02
   9.190  0.1528E+01  0.2876E+02
   9.200  0.1544E+01  0.2878E+02
   9.210  0.1559E+01  0.2879E+02
   9.220  0.1574E+01  0.2881E+02
   9.230  0.1588E+01  0.2883E+02
   9.240  0.1602E+01  0.2884E+02
   9.250  0.1616E+01  0.2886E+02
   9.260  0.1629E+01  0.2888E+02
   9.270  0.1641E+01  0.2889E+02
   9.280  0.1653E+01  0.2891E+02
   9.290  0.1664E+01  0.2892E+02
   9.300  0.1675E+01  0.2894E+02
   9.310  0.1685E+01  0.2896E+02
   9.320  0.1694E+01  0.2898E+02
   9.330  0.1703E+01  0.2899E+02
   9.340  0.1711E+01  0.2901E+02
   9.350  0.1718E+01  0.2903E+02
   9.360  0.1725E+01  0.2904E+02
   9.370  0.1730E+01  0.2906E+02
   9.380  0.1735E+01  0.2908E+02
   9.390  0.1740E+01  0.2910E+02
   9.400  0.1743E+01  0.2911E+02
   9.410  0.1746E+01  0.2913E+02
   9.420  0.1748E+01  0.2915E+02
   9.430  0.1749E+01  0.2917E+02
   9.440  0.1750E+01  0.2918E+02
   9.450  0.1749E+01  0.2920E+02
   9.460  0.1748E+01  0.2922E+02
   9.470  0.1746E+01  0.2924E+02
   9.480  0.1744E+01  0.2925E+02
   9.490  0.1740E+01  0.2927E+02
   9.500  0.1736E+01  0.2929E+02
   9.510  0.1731E+01  0.2931E+02
   9.520  0.1726E+01  0.2932E+02
   9.530  0.1720E+01  0.2934E+02
   9.540  0.1713E+01  0.2936E+02
   9.550  0.1705E+01  0.2937E+02
   9.560  0.1697E+01  0.2939E+02
   9.570  0.1688E+01  0.2941E+02
   9.580  0.1679E+01  0.2942E+02
   9.590  0.1669E+01  0.2944E+02
   9.600  0.1659E+01  0.2946E+02
   9.610  0.1647E+01  0.2947E+02
   9.620  0.1636E+01  0.2949E+02
   9.630  0.1624E+01  0.2951E+02
   9.640  0.1611E+01  0.2952E+02
   9.650  0.1599E+01  0.2954E+02
   9.660  0.1585E+01  0.2955E+02
   9.670  0.1572E+01  0.2957E+02
   9.680  0.1558E+01  0.2959E+02
   9.690  0.1543E+01  0.2960E+02
   9.700  0.1529E+01  0.2962E+02
   9.710  0.1514E+01  0.2963E+02
   9.720  0.1499E+01  0.2965E+02
   9.730  0.1484E+01  0.2966E+02
   9.740  0.1469E+01  0.2968E+02
   9.750  0.1453E+01  0.2969E+02
   9.760  0.1438E+01  0.2971E+02
   9.770  0.1422E+01  0.2972E+02
   9.780  0.1407E+01  0.2973E+02
   9.790  0.1391E+01  0.2975E+02
   9.800  0.1376E+01  0.2976E+02
   9.810  0.1361E+01  0.2977E+02
   9.820  0.1346E+01  0.2979E+02
   9.830  0.1331E+01  0.2980E+02
   9.840  0.1316E+01  0.2981E+02
   9.850  0.1301E+01  0.2983E+02
   9.860  0.1287E+01  0.2984E+02
   9.870  0.1273E+01  0.2985E+02
   9.880  0.1260E+01  0.2987E+02
   9.890  0.1246E+01  0.2988E+02
   9.900  0.1234E+01  0.2989E+02
   9.910  0.1221E+01  0.2990E+02
   9.920  0.1209E+01  0.2992E+02
   9.930  0.1198E+01  0.2993E+02
   9.940  0.1187E+01  0.2994E+02
   9.950  0.1177E+01  0.2995E+02
   9.960  0.1167E+01  0.2996E+02
   9.970  0.1158E+01  0.2997E+02
   9.980  0.1149E+01  0.2999E+02
   9.990  0.1141E+01  0.3000E+02
  10.000  0.1134E+01  0.3001E+02
  10.010  0.1128E+01  0.3002E+02
  10.020  0.1122E+01  0.3003E+02
  10.030  0.1116E+01  0.3004E+02
  10.040  0.1112E+01  0.3005E+02
  10.050  0.1108E+01  0.3006E+02
  10.060  0.1105E+01  0.3008E+02
  10.070  0.1102E+01  0.3009E+02
  10.080  0.1101E+01  0.3010E+02
  10.090  0.1100E+01  0.3011E+02
  10.100  0.1100E+01  0.3012E+02
  10.110  0.1100E+01  0.3013E+02
  10.120  0.1101E+01  0.3014E+02
  10.130  0.1103E+01  0.3015E+02
  10.140  0.1105E+01  0.3016E+02
  10.150  0.1109E+01  0.3017E+02
  10.160  0.1112E+01  0.3019E+02
  10.170  0.1117E+01  0.3020E+02
  10.180  0.1122E+01  0.3021E+02
  10.190  0.1127E+01  0.3022E+02
  10.200  0.1133E+01  0.3023E+02
  10.210  0.1140E+01  0.3024E+02
  10.220  0.1147E+01  0.3025E+02
  10.230  0.1154E+01  0.3026E+02
  10.240  0.1162E+01  0.3028E+02
  10.250  0.1170E+01  0.3029E+02
  10.260  0.1179E+01  0.3030E+02
  10.270  0.1188E+01  0.3031E+02
  10.280  0.1197E+01  0.3032E+02
  10.290  0.1207E+01  0.3034E+02
  10.300  0.1216E+01  0.3035E+02
  10.310  0.1226E+01  0.3036E+02
  10.320  0.1236E+01  0.3037E+02
  10.330  0.1246E+01  0.3039E+02
  10.340  0.1256E+01  0.3040E+02
  10.350  0.1266E+01  0.3041E+02
  10.360  0.1276E+01  0.3042E+02
  10.370  0.1286E+01  0.3044E+02
  10.380  0.1296E+01  0.3045E+02
  10.390  0.1305E+01  0.3046E+02
  10.400  0.1315E+01  0.3048E+02
  10.410  0.1324E+01  0.3049E+02
  10.420  0.1333E+01  0.3050E+02
  10.430  0.1342E+01  0.3052E+02
  10.440  0.1351E+01  0.3053E+02
  10.450  0.1359E+01  0.3054E+02
  10.460  0.1367E+01  0.3056E+02
  10.470  0.1375E+01  0.3057E+02
  10.480  0.1382E+01  0.3058E+02
  10.490  0.1389E+01  0.3060E+02
  10.500  0.1396E+01  0.3061E+02
  10.510  0.1403E+01  0.3063E+02
  10.520  0.1409E+01  0.3064E+02
  10.530  0.1414E+01  0.3065E+02
  10.540  0.1420E+01  0.3067E+02
  10.550  0.1424E+01  0.3068E+02
  10.560  0.1429E+01  0.3070E+02
  10.570  0.1433E+01  0.3071E+02
  10.580  0.1437E+01  0.3072E+02
  10.590  0.1441E+01  0.3074E+02
  10.600  0.1444E+01  0.3075E+02
  10.610  0.1447E+01  0.3077E+02
  10.620  0.1450E+01  0.3078E+02
  10.630  0.1453E+01  0.3080E+02
  10.640  0.1455E+01  0.3081E+02
  10.650  0.1457E+01  0.3083E+02
  10.660  0.1459E+01  0.3084E+02
  10.670  0.1461E+01  0.3086E+02
  10.680  0.1462E+01  0.3087E+02
  10.690  0.1464E+01  0.3088E+02
  10.700  0.1465E+01  0.3090E+02
  10.710  0.1466E+01  0.3091E+02
  10.720  0.1468E+01  0.3093E+02
  10.730  0.1469E+01  0.3094E+02
  10.740  0.1470E+01  0.3096E+02
  10.750  0.1471E+01  0.3097E+02
  10.760  0.1472E+01  0.3099E+02
  10.770  0.1474E+01  0.3100E+02
  10.780  0.1475E+01  0.3102E+02
  10.790  0.1476E+01  0.3103E+02
  10.800  0.1478E+01  0.3105E+02
  10.810  0.1479E+01  0.3106E+02
  10.820  0.1481E+01  0.3108E+02
  10.830  0.1482E+01  0.3109E+02
  10.840  0.1484E+01  0.3111E+02
  10.850  0.1486E+01  0.3112E+02
  10.860  0.1488E+01  0.3114E+02
  10.870  0.1491E+01  0.3115E+02
  10.880  0.1493E+01  0.3117E+02
  10.890  0.1495E+01  0.3118E+02
  10.900  0.1498E+01  0.3120E+02
  10.910  0.1501E+01  0.3121E+02
  10.920  0.1504E+01  0.3123E+02
  10.930  0.1506E+01  0.3124E+02
  10.940  0.1509E+01  0.3126E+02
  10.950  0.1512E+01  0.3127E+02
  10.960  0.1515E+01  0.3129E+02
  10.970  0.1519E+01  0.3130E+02
  10.980  0.1522E+01  0.3132E+02
  10.990  0.1525E+01  0.3133E+02
  11.000  0.1528E+01  0.3135E+02
  11.010  0.1531E+01  0.3136E+02
  11.020  0.1534E+01  0.3138E+02
  11.030  0.1537E+01  0.3139E+02
  11.040  0.1540E+01  0.3141E+02
  11.050  0.1543E+01  0.3142E+02
  11.060  0.1545E+01  0.3144E+02
  11.070  0.1548E+01  0.3145E+02
  11.080  0.1550E+01  0.3147E+02
  11.090  0.1552E+01  0.3149E+02
  11.100  0.1554E+01  0.3150E+02
  11.110  0.1556E+01  0.3152E+02
  11.120  0.1558E+01  0.3153E+02
  11.130  0.1559E+01  0.3155E+02
  11.140  0.1560E+01  0.3156E+02
  11.150  0.1561E+01  0.3158E+02
  11.160  0.1561E+01  0.3159E+02
  11.170  0.1562E+01  0.3161E+02
  11.180  0.1562E+01  0.3163E+02
  11.190  0.1562E+01  0.3164E+02
  11.200  0.1561E+01  0.3166E+02
  11.210  0.1560E+01  0.3167E+02
  11.220  0.1559E+01  0.3169E+02
  11.230  0.1558E+01  0.3170E+02
  11.240  0.1556E+01  0.3172E+02
  11.250  0.1554E+01  0.3174E+02
  11.260  0.1552E+01  0.3175E+02
  11.270  0.1550E+01  0.3177E+02
  11.280  0.1547E+01  0.3178E+02
  11.290  0.1544E+01  0.3180E+02
  11.300  0.1541E+01  0.3181E+02
  11.310  0.1538E+01  0.3183E+02
  11.320  0.1535E+01  0.3184E+02
  11.330  0.1531E+01  0.3186E+02
  11.340  0.1528E+01  0.3187E+02
  11.350  0.1524E+01  0.3189E+02
  11.360  0.1520E+01  0.3190E+02
  11.370  0.1516E+01  0.3192E+02
  11.380  0.1513E+01  0.3193E+02
  11.390  0.1509E+01  0.3195E+02
  11.400  0.1505E+01  0.3196E+02
  11.410  0.1501E+01  0.3198E+02
  11.420  0.1497E+01  0.3199E+02
  11.430  0.1493E+01  0.3201E+02
  11.440  0.1490E+01  0.3202E+02
  11.450  0.1486E+01  0.3204E+02
  11.460  0.1483E+01  0.3205E+02
  11.470  0.1480E+01  0.3207E+02
  11.480  0.1477E+01  0.3208E+02
  11.490  0.1474E+01  0.3210E+02
  11.500  0.1471E+01  0.3211E+02
  11.510  0.1469E+01  0.3213E+02
  11.520  0.1467E+01  0.3214E+02
  11.530  0.1465E+01  0.3216E+02
  11.540  0.1464E+01  0.3217E+02
  11.550  0.1463E+01  0.3219E+02
  11.560  0.1462E+01  0.3220E+02
  11.570  0.1462E+01  0.3222E+02
  11.580  0.1462E+01  0.3223E+02
  11.590  0.1463E+01  0.3224E+02
  11.600  0.1463E+01  0.3226E+02
  11.610  0.1465E+01  0.3227E+02
  11.620  0.1466E+01  0.3229E+02
  11.630  0.1469E+01  0.3230E+02
  11.640  0.1471E+01  0.3232E+02
  11.650  0.1474E+01  0.3233E+02
  11.660  0.1477E+01  0.3235E+02
  11.670  0.1481E+01  0.3236E+02
  11.680  0.1486E+01  0.3238E+02
  11.690  0.1490E+01  0.3239E+02
  11.700  0.1495E+01  0.3241E+02
  11.710  0.1501E+01  0.3242E+02
  11.720  0.1507E+01  0.3244E+02
  11.730  0.1513E+01  0.3245E+02
  11.740  0.1520E+01  0.3247E+02
  11.750  0.1527E+01  0.3248E+02
  11.760  0.1534E+01  0.3250E+02
  11.770  0.1542E+01  0.3251E+02
  11.780  0.1550E+01  0.3253E+02
  11.790  0.1558E+01  0.3254E+02
  11.800  0.1566E+01  0.3256E+02
  11.810  0.1575E+01  0.3258E+02
  11.820  0.1584E+01  0.3259E+02
  11.830  0.1593E+01  0.3261E+02
  11.840  0.1603E+01  0.3262E+02
  11.850  0.1612E+01  0.3264E+02
  11.860  0.1622E+01  0.3266E+02
  11.870  0.1631E+01  0.3267E+02
  11.880  0.1641E+01  0.3269E+02
  11.890  0.1651E+01  0.3271E+02
  11.900  0.1660E+01  0.3272E+02
  11.910  0.1670E+01  0.3274E+02
  11.920  0.1679E+01  0.3276E+02
  11.930  0.1689E+01  0.3277E+02
  11.940  0.1698E+01  0.3279E+02
  11.950  0.1707E+01  0.3281E+02
  11.960  0.1716E+01  0.3282E+02
  11.970  0.1724E+01  0.3284E+02
  11.980  0.1732E+01  0.3286E+02
  11.990  0.1740E+01  0.3288E+02
  12.000  0.1747E+01  0.3289E+02
  12.010  0.1754E+01  0.3291E+02
  12.020  0.1761E+01  0.3293E+02
  12.030  0.1767E+01  0.3295E+02
  12.040  0.1773E+01  0.3296E+02
  12.050  0.1778E+01  0.3298E+02
  12.060  0.1783E+01  0.3300E+02
  12.070  0.1787E+01  0.3302E+02
  12.080  0.1791E+01  0.3304E+02
  12.090  0.1794E+01  0.3305E+02
  12.100  0.1796E+01  0.3307E+02
  12.110  0.1798E+01  0.3309E+02
  12.120  0.1799E+01  0.3311E+02
  12.130  0.1800E+01  0.3313E+02
  12.140  0.1800E+01  0.3314E+02
  12.150  0.1799E+01  0.3316E+02
  12.160  0.1798E+01  0.3318E+02
  12.170  0.1796E+01  0.3320E+02
  12.180  0.1793E+01  0.3321E+02
  12.190  0.1790E+01  0.3323E+02
  12.200  0.1786E+01  0.3325E+02
  12.210  0.1781E+01  0.3327E+02
  12.220  0.1776E+01  0.3329E+02
  12.230  0.1771E+01  0.3330E+02
  12.240  0.1764E+01  0.3332E+02
  12.250  0.1758E+01  0.3334E+02
  12.260  0.1750E+01  0.3336E+02
  12.270  0.1743E+01  0.3337E+02
  12.280  0.1734E+01  0.3339E+02
  12.290  0.1726E+01  0.3341E+02
  12.300  0.1717E+01  0.3343E+02
  12.310  0.1707E+01  0.3344E+02
  12.320  0.1697E+01  0.3346E+02
  12.330  0.1687E+01  0.3348E+02
  12.340  0.1676E+01  0.3349E+02
  12.350  0.1665E+01  0.3351E+02
  12.360  0.1654E+01  0.3353E+02
  12.370  0.1643E+01  0.3354E+02
  12.380  0.1632E+01  0.3356E+02
  12.390  0.1620E+01  0.3358E+02
  12.400  0.1608E+01  0.3359E+02
  12.410  0.1596E+01  0.3361E+02
  12.420  0.1585E+01  0.3362E+02
  12.430  0.1573E+01  0.3364E+02
  12.440  0.1561E+01  0.3365E+02
  12.450  0.1549E+01  0.3367E+02
  12.460  0.1537E+01  0.3369E+02
  12.470  0.1525E+01  0.3370E+02
  12.480  0.1514E+01  0.3372E+02
  12.490  0.1502E+01  0.3373E+02
  12.500  0.1491E+01  0.3375E+02
  12.510  0.1479E+01  0.3376E+02
  12.520  0.1468E+01  0.3378E+02
  12.530  0.1458E+01  0.3379E+02
  12.540  0.1447E+01  0.3380E+02
  12.550  0.1437E+01  0.3382E+02
  12.560  0.1426E+01  0.3383E+02
  12.570  0.1417E+01  0.3385E+02
  12.580  0.1407E+01  0.3386E+02
  12.590  0.1398E+01  0.3388E+02
  12.600  0.1389E+01  0.3389E+02
  12.610  0.1380E+01  0.3390E+02
  12.620  0.1371E+01  0.3392E+02
  12.630  0.1363E+01  0.3393E+02
  12.640  0.1356E+01  0.3394E+02
  12.650  0.1348E+01  0.3396E+02
  12.660  0.1341E+01  0.3397E+02
  12.670  0.1334E+01  0.3398E+02
  12.680  0.1327E+01  0.3400E+02
  12.690  0.1321E+01  0.3401E+02
  12.700  0.1315E+01  0.3402E+02
  12.710  0.1309E+01  0.3404E+02
  12.720  0.1304E+01  0.3405E+02
  12.730  0.1299E+01  0.3406E+02
  12.740  0.1294E+01  0.3408E+02
  12.750  0.1290E+01  0.3409E+02
  12.760  0.1285E+01  0.3410E+02
  12.770  0.1281E+01  0.3411E+02
  12.780  0.1278E+01  0.3413E+02
  12.790  0.1274E+01  0.3414E+02
  12.800  0.1271E+01  0.3415E+02
  12.810  0.1268E+01  0.3417E+02
  12.820  0.1265E+01  0.3418E+02
  12.830  0.1263E+01  0.3419E+02
  12.840  0.1261E+01  0.3420E+02
  12.850  0.1259E+01  0.3422E+02
  12.860  0.1257E+01  0.3423E+02
  12.870  0.1255E+01  0.3424E+02
  12.880  0.1254E+01  0.3425E+02
  12.890  0.1253E+01  0.3427E+02
  12.900  0.1252E+01  0.3428E+02
  12.910  0.1251E+01  0.3429E+02
  12.920  0.1251E+01  0.3430E+02
  12.930  0.1250E+01  0.3432E+02
  12.940  0.1250E+01  0.3433E+02
  12.950  0.1250E+01  0.3434E+02
  12.960  0.1251E+01  0.3435E+02
  12.970  0.1251E+01  0.3437E+02
  12.980  0.1252E+01  0.3438E+02
  12.990  0.1252E+01  0.3439E+02
  13.000  0.1253E+01  0.3440E+02
  13.010  0.1254E+01  0.3442E+02
  13.020  0.1256E+01  0.3443E+02
  13.030  0.1257E+01  0.3444E+02
  13.040  0.1259E+01  0.3445E+02
  13.050  0.1260E+01  0.3447E+02
  13.060  0.1262E+01  0.3448E+02
  13.070  0.1264E+01  0.3449E+02
  13.080  0.1266E+01  0.3450E+02
  13.090  0.1268E+01  0.3452E+02
  13.100  0.1270E+01  0.3453E+02
  13.110  0.1272E+01  0.3454E+02
  13.120  0.1275E+01  0.3456E+02
  13.130  0.1277E+01  0.3457E+02
  13.140  0.1279E+01  0.3458E+02
  13.150  0.1282E+01  0.3459E+02
  13.160  0.1284E+01  0.3461E+02
  13.170  0.1287E+01  0.3462E+02
  13.180  0.1289E+01  0.3463E+02
  13.190  0.1292E+01  0.3465E+02
  13.200  0.1294E+01  0.3466E+02
  13.210  0.1296E+01  0.3467E+02
  13.220  0.1299E+01  0.3468E+02
  13.230  0.1301E+01  0.3470E+02
  13.240  0.1303E+01  0.3471E+02
  13.250  0.1305E+01  0.3472E+02
  13.260  0.1307E+01  0.3474E+02
  13.270  0.1309E+01  0.3475E+02
  13.280  0.1311E+01  0.3476E+02
  13.290  0.1312E+01  0.3478E+02
  13.300  0.1314E+01  0.3479E+02
  13.310  0.1315E+01  0.3480E+02
  13.320  0.1316E+01  0.3482E+02
  13.330  0.1317E+01  0.3483E+02
  13.340  0.1318E+01  0.3484E+02
  13.350  0.1318E+01  0.3485E+02
  13.360  0.1319E+01  0.3487E+02
  13.370  0.1319E+01  0.3488E+02
  13.380  0.1319E+01  0.3489E+02
  13.390  0.1319E+01  0.3491E+02
  13.400  0.1319E+01  0.3492E+02
  13.410  0.1318E+01  0.3493E+02
  13.420  0.1317E+01  0.3495E+02
  13.430  0.1316E+01  0.3496E+02
  13.440  0.1315E+01  0.3497E+02
  13.450  0.1314E+01  0.3499E+02
  13.460  0.1312E+01  0.3500E+02
  13.470  0.1310E+01  0.3501E+02
  13.480  0.1308E+01  0.3503E+02
  13.490  0.1306E+01  0.3504E+02
  13.500  0.1304E+01  0.3505E+02
  13.510  0.1302E+01  0.3506E+02
  13.520  0.1299E+01  0.3508E+02
  13.530  0.1296E+01  0.3509E+02
  13.540  0.1294E+01  0.3510E+02
  13.550  0.1291E+01  0.3512E+02
  13.560  0.1288E+01  0.3513E+02
  13.570  0.1285E+01  0.3514E+02
  13.580  0.1281E+01  0.3516E+02
  13.590  0.1278E+01  0.3517E+02
  13.600  0.1275E+01  0.3518E+02
  13.610  0.1271E+01  0.3519E+02
  13.620  0.1268E+01  0.3521E+02
  13.630  0.1265E+01  0.3522E+02
  13.640  0.1261E+01  0.3523E+02
  13.650  0.1258E+01  0.3524E+02
  13.660  0.1255E+01  0.3526E+02
  13.670  0.1251E+01  0.3527E+02
  13.680  0.1248E+01  0.3528E+02
  13.690  0.1245E+01  0.3529E+02
  13.700  0.1242E+01  0.3531E+02
  13.710  0.1239E+01  0.3532E+02
  13.720  0.1236E+01  0.3533E+02
  13.730  0.1234E+01  0.3534E+02
  13.740  0.1231E+01  0.3536E+02
  13.750  0.1229E+01  0.3537E+02
  13.760  0.1227E+01  0.3538E+02
  13.770  0.1225E+01  0.3539E+02
  13.780  0.1223E+01  0.3540E+02
  13.790  0.1221E+01  0.3542E+02
  13.800  0.1220E+01  0.3543E+02
  13.810  0.1219E+01  0.3544E+02
  13.820  0.1218E+01  0.3545E+02
  13.830  0.1217E+01  0.3547E+02
  13.840  0.1217E+01  0.3548E+02
  13.850  0.1216E+01  0.3549E+02
  13.860  0.1216E+01  0.3550E+02
  13.870  0.1217E+01  0.3551E+02
  13.880  0.1217E+01  0.3553E+02
  13.890  0.1218E+01  0.3554E+02
  13.900  0.1219E+01  0.3555E+02
  13.910  0.1221E+01  0.3556E+02
  13.920  0.1223E+01  0.3558E+02
  13.930  0.1225E+01  0.3559E+02
  13.940  0.1227E+01  0.3560E+02
  13.950  0.1230E+01  0.3561E+02
  13.960  0.1232E+01  0.3562E+02
  13.970  0.1236E+01  0.3564E+02
  13.980  0.1239E+01  0.3565E+02
  13.990  0.1243E+01  0.3566E+02
  14.000  0.1247E+01  0.3567E+02
  14.010  0.1251E+01  0.3569E+02
  14.020  0.1255E+01  0.3570E+02
  14.030  0.1260E+01  0.3571E+02
  14.040  0.1265E+01  0.3572E+02
  14.050  0.1270E+01  0.3574E+02
  14.060  0.1275E+01  0.3575E+02
  14.070  0.1281E+01  0.3576E+02
  14.080  0.1286E+01  0.3578E+02
  14.090  0.1292E+01  0.3579E+02
  14.100  0.1298E+01  0.3580E+02
  14.110  0.1304E+01  0.3581E+02
  14.120  0.1311E+01  0.3583E+02
  14.130  0.1317E+01  0.3584E+02
  14.140  0.1323E+01  0.3585E+02
  14.150  0.1330E+01  0.3587E+02
  14.160  0.1336E+01  0.3588E+02
  14.170  0.1343E+01  0.3589E+02
  14.180  0.1350E+01  0.3591E+02
  14.190  0.1356E+01  0.3592E+02
  14.200  0.1363E+01  0.3593E+02
  14.210  0.1369E+01  0.3595E+02
  14.220  0.1375E+01  0.3596E+02
  14.230  0.1382E+01  0.3598E+02
  14.240  0.1388E+01  0.3599E+02
  14.250  0.1394E+01  0.3600E+02
  14.260  0.1400E+01  0.3602E+02
  14.270  0.1405E+01  0.3603E+02
  14.280  0.1411E+01  0.3605E+02
  14.290  0.1416E+01  0.3606E+02
  14.300  0.1421E+01  0.3607E+02
  14.310  0.1426E+01  0.3609E+02
  14.320  0.1430E+01  0.3610E+02
  14.330  0.1435E+01  0.3612E+02
  14.340  0.1439E+01  0.3613E+02
  14.350  0.1442E+01  0.3615E+02
  14.360  0.1446E+01  0.3616E+02
  14.370  0.1449E+01  0.3618E+02
  14.380  0.1452E+01  0.3619E+02
  14.390  0.1454E+01  0.3620E+02
  14.400  0.1456E+01  0.3622E+02
  14.410  0.1458E+01  0.3623E+02
  14.420  0.1459E+01  0.3625E+02
  14.430  0.1461E+01  0.3626E+02
  14.440  0.1461E+01  0.3628E+02
  14.450  0.1462E+01  0.3629E+02
  14.460  0.1462E+01  0.3631E+02
  14.470  0.1462E+01  0.3632E+02
  14.480  0.1462E+01  0.3634E+02
  14.490  0.1461E+01  0.3635E+02
  14.500  0.1461E+01  0.3636E+02
  14.510  0.1459E+01  0.3638E+02
  14.520  0.1458E+01  0.3639E+02
  14.530  0.1457E+01  0.3641E+02
  14.540  0.1455E+01  0.3642E+02
  14.550  0.1453E+01  0.3644E+02
  14.560  0.1452E+01  0.3645E+02
  14.570  0.1450E+01  0.3647E+02
  14.580  0.1448E+01  0.3648E+02
  14.590  0.1446E+01  0.3650E+02
  14.600  0.1444E+01  0.3651E+02
  14.610  0.1442E+01  0.3652E+02
  14.620  0.1440E+01  0.3654E+02
  14.630  0.1438E+01  0.3655E+02
  14.640  0.1436E+01  0.3657E+02
  14.650  0.1435E+01  0.3658E+02
  14.660  0.1433E+01  0.3660E+02
  14.670  0.1432E+01  0.3661E+02
  14.680  0.1431E+01  0.3662E+02
  14.690  0.1431E+01  0.3664E+02
  14.700  0.1430E+01  0.3665E+02
  14.710  0.1430E+01  0.3667E+02
  14.720  0.1431E+01  0.3668E+02
  14.730  0.1431E+01  0.3670E+02
  14.740  0.1433E+01  0.3671E+02
  14.750  0.1434E+01  0.3673E+02
  14.760  0.1436E+01  0.3674E+02
  14.770  0.1439E+01  0.3675E+02
  14.780  0.1442E+01  0.3677E+02
  14.790  0.1446E+01  0.3678E+02
  14.800  0.1450E+01  0.3680E+02
  14.810  0.1454E+01  0.3681E+02
  14.820  0.1459E+01  0.3683E+02
  14.830  0.1465E+01  0.3684E+02
  14.840  0.1471E+01  0.3686E+02
  14.850  0.1478E+01  0.3687E+02
  14.860  0.1485E+01  0.3689E+02
  14.870  0.1493E+01  0.3690E+02
  14.880  0.1501E+01  0.3692E+02
  14.890  0.1510E+01  0.3693E+02
  14.900  0.1519E+01  0.3695E+02
  14.910  0.1529E+01  0.3696E+02
  14.920  0.1540E+01  0.3698E+02
  14.930  0.1550E+01  0.3699E+02
  14.940  0.1562E+01  0.3701E+02
  14.950  0.1573E+01  0.3702E+02
  14.960  0.1585E+01  0.3704E+02
  14.970  0.1597E+01  0.3705E+02
  14.980  0.1610E+01  0.3707E+02
  14.990  0.1623E+01  0.3709E+02
  15.000  0.1636E+01  0.3710E+02
  15.010  0.1649E+01  0.3712E+02
  15.020  0.1663E+01  0.3714E+02
  15.030  0.1676E+01  0.3715E+02
  15.040  0.1690E+01  0.3717E+02
  15.050  0.1704E+01  0.3719E+02
  15.060  0.1718E+01  0.3720E+02
  15.070  0.1731E+01  0.3722E+02
  15.080  0.1745E+01  0.3724E+02
  15.090  0.1759E+01  0.3726E+02
  15.100  0.1772E+01  0.3727E+02
  15.110  0.1785E+01  0.3729E+02
  15.120  0.1798E+01  0.3731E+02
  15.130  0.1811E+01  0.3733E+02
  15.140  0.1824E+01  0.3735E+02
  15.150  0.1836E+01  0.3737E+02
  15.160  0.1848E+01  0.3738E+02
  15.170  0.1859E+01  0.3740E+02
  15.180  0.1870E+01  0.3742E+02
  15.190  0.1880E+01  0.3744E+02
  15.200  0.1890E+01  0.3746E+02
  15.210  0.1899E+01  0.3748E+02
  15.220  0.1908E+01  0.3750E+02
  15.230  0.1917E+01  0.3752E+02
  15.240  0.1924E+01  0.3754E+02
  15.250  0.1931E+01  0.3755E+02
  15.260  0.1937E+01  0.3757E+02
  15.270  0.1943E+01  0.3759E+02
  15.280  0.1948E+01  0.3761E+02
  15.290  0.1952E+01  0.3763E+02
  15.300  0.1956E+01  0.3765E+02
  15.310  0.1959E+01  0.3767E+02
  15.320  0.1961E+01  0.3769E+02
  15.330  0.1963E+01  0.3771E+02
  15.340  0.1963E+01  0.3773E+02
  15.350  0.1963E+01  0.3775E+02
  15.360  0.1963E+01  0.3777E+02
  15.370  0.1961E+01  0.3779E+02
  15.380  0.1959E+01  0.3781E+02
  15.390  0.1957E+01  0.3783E+02
  15.400  0.1953E+01  0.3785E+02
  15.410  0.1949E+01  0.3787E+02
  15.420  0.1945E+01  0.3789E+02
  15.430  0.1939E+01  0.3791E+02
  15.440  0.1934E+01  0.3793E+02
  15.450  0.1927E+01  0.3794E+02
  15.460  0.1920E+01  0.3796E+02
  15.470  0.1913E+01  0.3798E+02
  15.480  0.1905E+01  0.3800E+02
  15.490  0.1897E+01  0.3802E+02
  15.500  0.1888E+01  0.3804E+02
  15.510  0.1879E+01  0.3806E+02
  15.520  0.1869E+01  0.3808E+02
  15.530  0.1859E+01  0.3810E+02
  15.540  0.1849E+01  0.3811E+02
  15.550  0.1839E+01  0.3813E+02
  15.560  0.1828E+01  0.3815E+02
  15.570  0.1818E+01  0.3817E+02
  15.580  0.1807E+01  0.3819E+02
  15.590  0.1796E+01  0.3821E+02
  15.600  0.1785E+01  0.3822E+02
  15.610  0.1773E+01  0.3824E+02
  15.620  0.1762E+01  0.3826E+02
  15.630  0.1751E+01  0.3828E+02
  15.640  0.1740E+01  0.3829E+02
  15.650  0.1729E+01  0.3831E+02
  15.660  0.1718E+01  0.3833E+02
  15.670  0.1708E+01  0.3835E+02
  15.680  0.1697E+01  0.3836E+02
  15.690  0.1687E+01  0.3838E+02
  15.700  0.1677E+01  0.3840E+02
  15.710  0.1667E+01  0.3841E+02
  15.720  0.1658E+01  0.3843E+02
  15.730  0.1648E+01  0.3845E+02
  15.740  0.1640E+01  0.3846E+02
  15.750  0.1631E+01  0.3848E+02
  15.760  0.1623E+01  0.3849E+02
  15.770  0.1616E+01  0.3851E+02
  15.780  0.1608E+01  0.3853E+02
  15.790  0.1601E+01  0.3854E+02
  15.800  0.1595E+01  0.3856E+02
  15.810  0.1589E+01  0.3857E+02
  15.820  0.1584E+01  0.3859E+02
  15.830  0.1579E+01  0.3861E+02
  15.840  0.1574E+01  0.3862E+02
  15.850  0.1570E+01  0.3864E+02
  15.860  0.1567E+01  0.3865E+02
  15.870  0.1564E+01  0.3867E+02
  15.880  0.1561E+01  0.3868E+02
  15.890  0.1559E+01  0.3870E+02
  15.900  0.1558E+01  0.3872E+02
  15.910  0.1557E+01  0.3873E+02
  15.920  0.1556E+01  0.3875E+02
  15.930  0.1556E+01  0.3876E+02
  15.940  0.1557E+01  0.3878E+02
  15.950  0.1557E+01  0.3879E+02
  15.960  0.1559E+01  0.3881E+02
  15.970  0.1561E+01  0.3882E+02
  15.980  0.1563E+01  0.3884E+02
  15.990  0.1565E+01  0.3886E+02
  16.000  0.1568E+01  0.3887E+02
  16.010  0.1572E+01  0.3889E+02
  16.020  0.1575E+01  0.3890E+02
  16.030  0.1580E+01  0.3892E+02
  16.040  0.1584E+01  0.3893E+02
  16.050  0.1589E+01  0.3895E+02
  16.060  0.1594E+01  0.3897E+02
  16.070  0.1599E+01  0.3898E+02
  16.080  0.1605E+01  0.3900E+02
  16.090  0.1611E+01  0.3901E+02
  16.100  0.1617E+01  0.3903E+02
  16.110  0.1623E+01  0.3905E+02
  16.120  0.1629E+01  0.3906E+02
  16.130  0.1636E+01  0.3908E+02
  16.140  0.1643E+01  0.3910E+02
  16.150  0.1650E+01  0.3911E+02
  16.160  0.1657E+01  0.3913E+02
  16.170  0.1664E+01  0.3915E+02
  16.180  0.1671E+01  0.3916E+02
  16.190  0.1678E+01  0.3918E+02
  16.200  0.1685E+01  0.3920E+02
  16.210  0.1692E+01  0.3921E+02
  16.220  0.1699E+01  0.3923E+02
  16.230  0.1706E+01  0.3925E+02
  16.240  0.1714E+01  0.3926E+02
  16.250  0.1721E+01  0.3928E+02
  16.260  0.1728E+01  0.3930E+02
  16.270  0.1734E+01  0.3932E+02
  16.280  0.1741E+01  0.3933E+02
  16.290  0.1748E+01  0.3935E+02
  16.300  0.1754E+01  0.3937E+02
  16.310  0.1761E+01  0.3939E+02
  16.320  0.1767E+01  0.3940E+02
  16.330  0.1773E+01  0.3942E+02
  16.340  0.1779E+01  0.3944E+02
  16.350  0.1784E+01  0.3946E+02
  16.360  0.1790E+01  0.3948E+02
  16.370  0.1795E+01  0.3949E+02
  16.380  0.1800E+01  0.3951E+02
  16.390  0.1805E+01  0.3953E+02
  16.400  0.1810E+01  0.3955E+02
  16.410  0.1814E+01  0.3957E+02
  16.420  0.1819E+01  0.3958E+02
  16.430  0.1823E+01  0.3960E+02
  16.440  0.1827E+01  0.3962E+02
  16.450  0.1831E+01  0.3964E+02
  16.460  0.1835E+01  0.3966E+02
  16.470  0.1838E+01  0.3968E+02
  16.480  0.1842E+01  0.3969E+02
  16.490  0.1845E+01  0.3971E+02
  16.500  0.1848E+01  0.3973E+02
  16.510  0.1851E+01  0.3975E+02
  16.520  0.1854E+01  0.3977E+02
  16.530  0.1857E+01  0.3979E+02
  16.540  0.1860E+01  0.3980E+02
  16.550  0.1862E+01  0.3982E+02
  16.560  0.1865E+01  0.3984E+02
  16.570  0.1867E+01  0.3986E+02
  16.580  0.1870E+01  0.3988E+02
  16.590  0.1873E+01  0.3990E+02
  16.600  0.1875E+01  0.3992E+02
  16.610  0.1878E+01  0.3994E+02
  16.620  0.1880E+01  0.3995E+02
  16.630  0.1883E+01  0.3997E+02
  16.640  0.1885E+01  0.3999E+02
  16.650  0.1888E+01  0.4001E+02
  16.660  0.1891E+01  0.4003E+02
  16.670  0.1894E+01  0.4005E+02
  16.680  0.1897E+01  0.4007E+02
  16.690  0.1900E+01  0.4009E+02
  16.700  0.1903E+01  0.4011E+02
  16.710  0.1906E+01  0.4012E+02
  16.720  0.1910E+01  0.4014E+02
  16.730  0.1913E+01  0.4016E+02
  16.740  0.1917E+01  0.4018E+02
  16.750  0.1921E+01  0.4020E+02
  16.760  0.1925E+01  0.4022E+02
  16.770  0.1929E+01  0.4024E+02
  16.780  0.1933E+01  0.4026E+02
  16.790  0.1937E+01  0.4028E+02
  16.800  0.1942E+01  0.4030E+02
  16.810  0.1946E+01  0.4032E+02
  16.820  0.1951E+01  0.4034E+02
  16.830  0.1956E+01  0.4036E+02
  16.840  0.1960E+01  0.4038E+02
  16.850  0.1965E+01  0.4040E+02
  16.860  0.1970E+01  0.4042E+02
  16.870  0.1975E+01  0.4044E+02
  16.880  0.1980E+01  0.4046E+02
  16.890  0.1985E+01  0.4047E+02
  16.900  0.1990E+01  0.4049E+02
  16.910  0.1995E+01  0.4051E+02
  16.920  0.2000E+01  0.4053E+02
  16.930  0.2005E+01  0.4055E+02
  16.940  0.2010E+01  0.4057E+02
  16.950  0.2015E+01  0.4060E+02
  16.960  0.2019E+01  0.4062E+02
  16.970  0.2024E+01  0.4064E+02
  16.980  0.2029E+01  0.4066E+02
  16.990  0.2033E+01  0.4068E+02
  17.000  0.2037E+01  0.4070E+02
  17.010  0.2041E+01  0.4072E+02
  17.020  0.2045E+01  0.4074E+02
  17.030  0.2048E+01  0.4076E+02
  17.040  0.2052E+01  0.4078E+02
  17.050  0.2055E+01  0.4080E+02
  17.060  0.2058E+01  0.4082E+02
  17.070  0.2060E+01  0.4084E+02
  17.080  0.2063E+01  0.4086E+02
  17.090  0.2065E+01  0.4088E+02
  17.100  0.2066E+01  0.4090E+02
  17.110  0.2068E+01  0.4092E+02
  17.120  0.2069E+01  0.4094E+02
  17.130  0.2069E+01  0.4096E+02
  17.140  0.2070E+01  0.4098E+02
  17.150  0.2070E+01  0.4101E+02
  17.160  0.2070E+01  0.4103E+02
  17.170  0.2069E+01  0.4105E+02
  17.180  0.2068E+01  0.4107E+02
  17.190  0.2067E+01  0.4109E+02
  17.200  0.2065E+01  0.4111E+02
  17.210  0.2063E+01  0.4113E+02
  17.220  0.2061E+01  0.4115E+02
  17.230  0.2059E+01  0.4117E+02
  17.240  0.2056E+01  0.4119E+02
  17.250  0.2052E+01  0.4121E+02
  17.260  0.2049E+01  0.4123E+02
  17.270  0.2045E+01  0.4125E+02
  17.280  0.2041E+01  0.4127E+02
  17.290  0.2036E+01  0.4129E+02
  17.300  0.2032E+01  0.4131E+02
  17.310  0.2027E+01  0.4133E+02
  17.320  0.2021E+01  0.4135E+02
  17.330  0.2016E+01  0.4137E+02
  17.340  0.2010E+01  0.4139E+02
  17.350  0.2004E+01  0.4141E+02
  17.360  0.1998E+01  0.4143E+02
  17.370  0.1992E+01  0.4145E+02
  17.380  0.1986E+01  0.4147E+02
  17.390  0.1979E+01  0.4149E+02
  17.400  0.1973E+01  0.4151E+02
  17.410  0.1966E+01  0.4153E+02
  17.420  0.1959E+01  0.4155E+02
  17.430  0.1952E+01  0.4157E+02
  17.440  0.1945E+01  0.4159E+02
  17.450  0.1938E+01  0.4161E+02
  17.460  0.1931E+01  0.4163E+02
  17.470  0.1924E+01  0.4165E+02
  17.480  0.1917E+01  0.4167E+02
  17.490  0.1911E+01  0.4169E+02
  17.500  0.1904E+01  0.4171E+02
  17.510  0.1897E+01  0.4173E+02
  17.520  0.1890E+01  0.4175E+02
  17.530  0.1884E+01  0.4176E+02
  17.540  0.1877E+01  0.4178E+02
  17.550  0.1871E+01  0.4180E+02
  17.560  0.1865E+01  0.4182E+02
