#  E (eV)   dos(E)     Int dos(E) EFermi =   7.984 eV
 -15.682  0.4786E-03  0.4786E-05
 -15.672  0.5296E-03  0.1008E-04
 -15.662  0.5857E-03  0.1594E-04
 -15.652  0.6475E-03  0.2241E-04
 -15.642  0.7154E-03  0.2957E-04
 -15.632  0.7901E-03  0.3747E-04
 -15.622  0.8720E-03  0.4619E-04
 -15.612  0.9620E-03  0.5581E-04
 -15.602  0.1061E-02  0.6642E-04
 -15.592  0.1169E-02  0.7811E-04
 -15.582  0.1288E-02  0.9098E-04
 -15.572  0.1418E-02  0.1052E-03
 -15.562  0.1560E-02  0.1208E-03
 -15.552  0.1716E-02  0.1379E-03
 -15.542  0.1886E-02  0.1568E-03
 -15.532  0.2072E-02  0.1775E-03
 -15.522  0.2276E-02  0.2003E-03
 -15.512  0.2498E-02  0.2252E-03
 -15.502  0.2740E-02  0.2526E-03
 -15.492  0.3004E-02  0.2827E-03
 -15.482  0.3292E-02  0.3156E-03
 -15.472  0.3606E-02  0.3517E-03
 -15.462  0.3948E-02  0.3911E-03
 -15.452  0.4320E-02  0.4343E-03
 -15.442  0.4725E-02  0.4816E-03
 -15.432  0.5165E-02  0.5332E-03
 -15.422  0.5643E-02  0.5897E-03
 -15.412  0.6162E-02  0.6513E-03
 -15.402  0.6726E-02  0.7185E-03
 -15.392  0.7337E-02  0.7919E-03
 -15.382  0.8000E-02  0.8719E-03
 -15.372  0.8718E-02  0.9591E-03
 -15.362  0.9496E-02  0.1054E-02
 -15.352  0.1034E-01  0.1157E-02
 -15.342  0.1125E-01  0.1270E-02
 -15.332  0.1224E-01  0.1392E-02
 -15.322  0.1330E-01  0.1525E-02
 -15.312  0.1445E-01  0.1670E-02
 -15.302  0.1569E-01  0.1827E-02
 -15.292  0.1703E-01  0.1997E-02
 -15.282  0.1848E-01  0.2182E-02
 -15.272  0.2004E-01  0.2382E-02
 -15.262  0.2171E-01  0.2599E-02
 -15.252  0.2352E-01  0.2835E-02
 -15.242  0.2547E-01  0.3089E-02
 -15.232  0.2756E-01  0.3365E-02
 -15.222  0.2981E-01  0.3663E-02
 -15.212  0.3222E-01  0.3985E-02
 -15.202  0.3482E-01  0.4333E-02
 -15.192  0.3760E-01  0.4709E-02
 -15.182  0.4059E-01  0.5115E-02
 -15.172  0.4379E-01  0.5553E-02
 -15.162  0.4722E-01  0.6025E-02
 -15.152  0.5089E-01  0.6534E-02
 -15.142  0.5482E-01  0.7082E-02
 -15.132  0.5903E-01  0.7673E-02
 -15.122  0.6353E-01  0.8308E-02
 -15.112  0.6833E-01  0.8991E-02
 -15.102  0.7347E-01  0.9726E-02
 -15.092  0.7895E-01  0.1052E-01
 -15.082  0.8479E-01  0.1136E-01
 -15.072  0.9102E-01  0.1227E-01
 -15.062  0.9767E-01  0.1325E-01
 -15.052  0.1047E+00  0.1430E-01
 -15.042  0.1123E+00  0.1542E-01
 -15.032  0.1203E+00  0.1662E-01
 -15.022  0.1288E+00  0.1791E-01
 -15.012  0.1379E+00  0.1929E-01
 -15.002  0.1475E+00  0.2077E-01
 -14.992  0.1577E+00  0.2234E-01
 -14.982  0.1685E+00  0.2403E-01
 -14.972  0.1800E+00  0.2583E-01
 -14.962  0.1922E+00  0.2775E-01
 -14.952  0.2051E+00  0.2980E-01
 -14.942  0.2188E+00  0.3199E-01
 -14.932  0.2333E+00  0.3432E-01
 -14.922  0.2486E+00  0.3681E-01
 -14.912  0.2647E+00  0.3946E-01
 -14.902  0.2818E+00  0.4227E-01
 -14.892  0.2999E+00  0.4527E-01
 -14.882  0.3189E+00  0.4846E-01
 -14.872  0.3390E+00  0.5185E-01
 -14.862  0.3601E+00  0.5545E-01
 -14.852  0.3824E+00  0.5928E-01
 -14.842  0.4059E+00  0.6334E-01
 -14.832  0.4306E+00  0.6764E-01
 -14.822  0.4566E+00  0.7221E-01
 -14.812  0.4840E+00  0.7705E-01
 -14.802  0.5127E+00  0.8217E-01
 -14.792  0.5428E+00  0.8760E-01
 -14.782  0.5745E+00  0.9335E-01
 -14.772  0.6077E+00  0.9942E-01
 -14.762  0.6425E+00  0.1058E+00
 -14.752  0.6790E+00  0.1126E+00
 -14.742  0.7172E+00  0.1198E+00
 -14.732  0.7571E+00  0.1274E+00
 -14.722  0.7989E+00  0.1354E+00
 -14.712  0.8427E+00  0.1438E+00
 -14.702  0.8883E+00  0.1527E+00
 -14.692  0.9360E+00  0.1620E+00
 -14.682  0.9858E+00  0.1719E+00
 -14.672  0.1038E+01  0.1823E+00
 -14.662  0.1092E+01  0.1932E+00
 -14.652  0.1148E+01  0.2047E+00
 -14.642  0.1207E+01  0.2168E+00
 -14.632  0.1268E+01  0.2294E+00
 -14.622  0.1332E+01  0.2428E+00
 -14.612  0.1398E+01  0.2567E+00
 -14.602  0.1467E+01  0.2714E+00
 -14.592  0.1538E+01  0.2868E+00
 -14.582  0.1612E+01  0.3029E+00
 -14.572  0.1689E+01  0.3198E+00
 -14.562  0.1769E+01  0.3375E+00
 -14.552  0.1851E+01  0.3560E+00
 -14.542  0.1936E+01  0.3753E+00
 -14.532  0.2025E+01  0.3956E+00
 -14.522  0.2116E+01  0.4168E+00
 -14.512  0.2211E+01  0.4389E+00
 -14.502  0.2308E+01  0.4620E+00
 -14.492  0.2409E+01  0.4860E+00
 -14.482  0.2513E+01  0.5112E+00
 -14.472  0.2621E+01  0.5374E+00
 -14.462  0.2731E+01  0.5647E+00
 -14.452  0.2845E+01  0.5931E+00
 -14.442  0.2962E+01  0.6228E+00
 -14.432  0.3083E+01  0.6536E+00
 -14.422  0.3207E+01  0.6857E+00
 -14.412  0.3334E+01  0.7190E+00
 -14.402  0.3465E+01  0.7537E+00
 -14.392  0.3599E+01  0.7896E+00
 -14.382  0.3737E+01  0.8270E+00
 -14.372  0.3878E+01  0.8658E+00
 -14.362  0.4023E+01  0.9060E+00
 -14.352  0.4171E+01  0.9477E+00
 -14.342  0.4322E+01  0.9910E+00
 -14.332  0.4477E+01  0.1036E+01
 -14.322  0.4636E+01  0.1082E+01
 -14.312  0.4797E+01  0.1130E+01
 -14.302  0.4962E+01  0.1180E+01
 -14.292  0.5130E+01  0.1231E+01
 -14.282  0.5302E+01  0.1284E+01
 -14.272  0.5477E+01  0.1339E+01
 -14.262  0.5654E+01  0.1395E+01
 -14.252  0.5835E+01  0.1454E+01
 -14.242  0.6019E+01  0.1514E+01
 -14.232  0.6206E+01  0.1576E+01
 -14.222  0.6395E+01  0.1640E+01
 -14.212  0.6588E+01  0.1706E+01
 -14.202  0.6783E+01  0.1774E+01
 -14.192  0.6980E+01  0.1843E+01
 -14.182  0.7180E+01  0.1915E+01
 -14.172  0.7383E+01  0.1989E+01
 -14.162  0.7587E+01  0.2065E+01
 -14.152  0.7794E+01  0.2143E+01
 -14.142  0.8002E+01  0.2223E+01
 -14.132  0.8213E+01  0.2305E+01
 -14.122  0.8425E+01  0.2389E+01
 -14.112  0.8638E+01  0.2476E+01
 -14.102  0.8853E+01  0.2564E+01
 -14.092  0.9069E+01  0.2655E+01
 -14.082  0.9286E+01  0.2748E+01
 -14.072  0.9504E+01  0.2843E+01
 -14.062  0.9723E+01  0.2940E+01
 -14.052  0.9942E+01  0.3039E+01
 -14.042  0.1016E+02  0.3141E+01
 -14.032  0.1038E+02  0.3245E+01
 -14.022  0.1060E+02  0.3351E+01
 -14.012  0.1082E+02  0.3459E+01
 -14.002  0.1104E+02  0.3569E+01
 -13.992  0.1126E+02  0.3682E+01
 -13.982  0.1147E+02  0.3797E+01
 -13.972  0.1169E+02  0.3913E+01
 -13.962  0.1190E+02  0.4033E+01
 -13.952  0.1212E+02  0.4154E+01
 -13.942  0.1233E+02  0.4277E+01
 -13.932  0.1254E+02  0.4402E+01
 -13.922  0.1274E+02  0.4530E+01
 -13.912  0.1295E+02  0.4659E+01
 -13.902  0.1315E+02  0.4791E+01
 -13.892  0.1335E+02  0.4924E+01
 -13.882  0.1354E+02  0.5060E+01
 -13.872  0.1373E+02  0.5197E+01
 -13.862  0.1392E+02  0.5336E+01
 -13.852  0.1411E+02  0.5477E+01
 -13.842  0.1429E+02  0.5620E+01
 -13.832  0.1447E+02  0.5765E+01
 -13.822  0.1464E+02  0.5911E+01
 -13.812  0.1481E+02  0.6059E+01
 -13.802  0.1497E+02  0.6209E+01
 -13.792  0.1513E+02  0.6360E+01
 -13.782  0.1528E+02  0.6513E+01
 -13.772  0.1543E+02  0.6667E+01
 -13.762  0.1557E+02  0.6823E+01
 -13.752  0.1570E+02  0.6980E+01
 -13.742  0.1583E+02  0.7138E+01
 -13.732  0.1596E+02  0.7298E+01
 -13.722  0.1607E+02  0.7459E+01
 -13.712  0.1619E+02  0.7620E+01
 -13.702  0.1629E+02  0.7783E+01
 -13.692  0.1639E+02  0.7947E+01
 -13.682  0.1648E+02  0.8112E+01
 -13.672  0.1656E+02  0.8278E+01
 -13.662  0.1664E+02  0.8444E+01
 -13.652  0.1671E+02  0.8611E+01
 -13.642  0.1677E+02  0.8779E+01
 -13.632  0.1683E+02  0.8947E+01
 -13.622  0.1687E+02  0.9116E+01
 -13.612  0.1692E+02  0.9285E+01
 -13.602  0.1695E+02  0.9455E+01
 -13.592  0.1697E+02  0.9624E+01
 -13.582  0.1699E+02  0.9794E+01
 -13.572  0.1700E+02  0.9964E+01
 -13.562  0.1700E+02  0.1013E+02
 -13.552  0.1700E+02  0.1030E+02
 -13.542  0.1698E+02  0.1047E+02
 -13.532  0.1696E+02  0.1064E+02
 -13.522  0.1693E+02  0.1081E+02
 -13.512  0.1690E+02  0.1098E+02
 -13.502  0.1686E+02  0.1115E+02
 -13.492  0.1680E+02  0.1132E+02
 -13.482  0.1675E+02  0.1149E+02
 -13.472  0.1668E+02  0.1165E+02
 -13.462  0.1661E+02  0.1182E+02
 -13.452  0.1653E+02  0.1198E+02
 -13.442  0.1644E+02  0.1215E+02
 -13.432  0.1635E+02  0.1231E+02
 -13.422  0.1625E+02  0.1247E+02
 -13.412  0.1614E+02  0.1264E+02
 -13.402  0.1602E+02  0.1280E+02
 -13.392  0.1590E+02  0.1296E+02
 -13.382  0.1578E+02  0.1311E+02
 -13.372  0.1565E+02  0.1327E+02
 -13.362  0.1551E+02  0.1342E+02
 -13.352  0.1536E+02  0.1358E+02
 -13.342  0.1521E+02  0.1373E+02
 -13.332  0.1506E+02  0.1388E+02
 -13.322  0.1490E+02  0.1403E+02
 -13.312  0.1473E+02  0.1418E+02
 -13.302  0.1456E+02  0.1432E+02
 -13.292  0.1439E+02  0.1447E+02
 -13.282  0.1421E+02  0.1461E+02
 -13.272  0.1402E+02  0.1475E+02
 -13.262  0.1384E+02  0.1489E+02
 -13.252  0.1365E+02  0.1502E+02
 -13.242  0.1345E+02  0.1516E+02
 -13.232  0.1325E+02  0.1529E+02
 -13.222  0.1305E+02  0.1542E+02
 -13.212  0.1285E+02  0.1555E+02
 -13.202  0.1264E+02  0.1568E+02
 -13.192  0.1244E+02  0.1580E+02
 -13.182  0.1222E+02  0.1592E+02
 -13.172  0.1201E+02  0.1604E+02
 -13.162  0.1180E+02  0.1616E+02
 -13.152  0.1158E+02  0.1628E+02
 -13.142  0.1136E+02  0.1639E+02
 -13.132  0.1115E+02  0.1650E+02
 -13.122  0.1093E+02  0.1661E+02
 -13.112  0.1071E+02  0.1672E+02
 -13.102  0.1049E+02  0.1682E+02
 -13.092  0.1027E+02  0.1693E+02
 -13.082  0.1005E+02  0.1703E+02
 -13.072  0.9827E+01  0.1712E+02
 -13.062  0.9608E+01  0.1722E+02
 -13.052  0.9388E+01  0.1731E+02
 -13.042  0.9170E+01  0.1741E+02
 -13.032  0.8953E+01  0.1750E+02
 -13.022  0.8736E+01  0.1758E+02
 -13.012  0.8521E+01  0.1767E+02
 -13.002  0.8308E+01  0.1775E+02
 -12.992  0.8096E+01  0.1783E+02
 -12.982  0.7886E+01  0.1791E+02
 -12.972  0.7677E+01  0.1799E+02
 -12.962  0.7471E+01  0.1806E+02
 -12.952  0.7267E+01  0.1814E+02
 -12.942  0.7065E+01  0.1821E+02
 -12.932  0.6865E+01  0.1827E+02
 -12.922  0.6668E+01  0.1834E+02
 -12.912  0.6474E+01  0.1841E+02
 -12.902  0.6282E+01  0.1847E+02
 -12.892  0.6094E+01  0.1853E+02
 -12.882  0.5908E+01  0.1859E+02
 -12.872  0.5725E+01  0.1865E+02
 -12.862  0.5545E+01  0.1870E+02
 -12.852  0.5368E+01  0.1876E+02
 -12.842  0.5195E+01  0.1881E+02
 -12.832  0.5024E+01  0.1886E+02
 -12.822  0.4857E+01  0.1891E+02
 -12.812  0.4694E+01  0.1895E+02
 -12.802  0.4533E+01  0.1900E+02
 -12.792  0.4377E+01  0.1904E+02
 -12.782  0.4223E+01  0.1908E+02
 -12.772  0.4073E+01  0.1913E+02
 -12.762  0.3927E+01  0.1916E+02
 -12.752  0.3784E+01  0.1920E+02
 -12.742  0.3644E+01  0.1924E+02
 -12.732  0.3508E+01  0.1927E+02
 -12.722  0.3375E+01  0.1931E+02
 -12.712  0.3246E+01  0.1934E+02
 -12.702  0.3120E+01  0.1937E+02
 -12.692  0.2998E+01  0.1940E+02
 -12.682  0.2879E+01  0.1943E+02
 -12.672  0.2764E+01  0.1946E+02
 -12.662  0.2652E+01  0.1948E+02
 -12.652  0.2543E+01  0.1951E+02
 -12.642  0.2438E+01  0.1953E+02
 -12.632  0.2335E+01  0.1956E+02
 -12.622  0.2236E+01  0.1958E+02
 -12.612  0.2141E+01  0.1960E+02
 -12.602  0.2048E+01  0.1962E+02
 -12.592  0.1958E+01  0.1964E+02
 -12.582  0.1872E+01  0.1966E+02
 -12.572  0.1788E+01  0.1968E+02
 -12.562  0.1707E+01  0.1969E+02
 -12.552  0.1629E+01  0.1971E+02
 -12.542  0.1554E+01  0.1973E+02
 -12.532  0.1482E+01  0.1974E+02
 -12.522  0.1412E+01  0.1976E+02
 -12.512  0.1345E+01  0.1977E+02
 -12.502  0.1281E+01  0.1978E+02
 -12.492  0.1219E+01  0.1979E+02
 -12.482  0.1159E+01  0.1981E+02
 -12.472  0.1102E+01  0.1982E+02
 -12.462  0.1047E+01  0.1983E+02
 -12.452  0.9948E+00  0.1984E+02
 -12.442  0.9444E+00  0.1985E+02
 -12.432  0.8961E+00  0.1986E+02
 -12.422  0.8499E+00  0.1986E+02
 -12.412  0.8056E+00  0.1987E+02
 -12.402  0.7633E+00  0.1988E+02
 -12.392  0.7229E+00  0.1989E+02
 -12.382  0.6842E+00  0.1989E+02
 -12.372  0.6473E+00  0.1990E+02
 -12.362  0.6121E+00  0.1991E+02
 -12.352  0.5786E+00  0.1991E+02
 -12.342  0.5466E+00  0.1992E+02
 -12.332  0.5161E+00  0.1992E+02
 -12.322  0.4871E+00  0.1993E+02
 -12.312  0.4594E+00  0.1993E+02
 -12.302  0.4332E+00  0.1994E+02
 -12.292  0.4082E+00  0.1994E+02
 -12.282  0.3845E+00  0.1994E+02
 -12.272  0.3620E+00  0.1995E+02
 -12.262  0.3406E+00  0.1995E+02
 -12.252  0.3204E+00  0.1995E+02
 -12.242  0.3012E+00  0.1996E+02
 -12.232  0.2830E+00  0.1996E+02
 -12.222  0.2657E+00  0.1996E+02
 -12.212  0.2494E+00  0.1997E+02
 -12.202  0.2340E+00  0.1997E+02
 -12.192  0.2195E+00  0.1997E+02
 -12.182  0.2057E+00  0.1997E+02
 -12.172  0.1927E+00  0.1997E+02
 -12.162  0.1804E+00  0.1998E+02
 -12.152  0.1689E+00  0.1998E+02
 -12.142  0.1579E+00  0.1998E+02
 -12.132  0.1477E+00  0.1998E+02
 -12.122  0.1380E+00  0.1998E+02
 -12.112  0.1289E+00  0.1998E+02
 -12.102  0.1203E+00  0.1998E+02
 -12.092  0.1123E+00  0.1999E+02
 -12.082  0.1047E+00  0.1999E+02
 -12.072  0.9760E-01  0.1999E+02
 -12.062  0.9093E-01  0.1999E+02
 -12.052  0.8468E-01  0.1999E+02
 -12.042  0.7882E-01  0.1999E+02
 -12.032  0.7332E-01  0.1999E+02
 -12.022  0.6818E-01  0.1999E+02
 -12.012  0.6336E-01  0.1999E+02
 -12.002  0.5885E-01  0.1999E+02
 -11.992  0.5464E-01  0.1999E+02
 -11.982  0.5071E-01  0.1999E+02
 -11.972  0.4703E-01  0.1999E+02
 -11.962  0.4360E-01  0.1999E+02
 -11.952  0.4040E-01  0.2000E+02
 -11.942  0.3741E-01  0.2000E+02
 -11.932  0.3463E-01  0.2000E+02
 -11.922  0.3204E-01  0.2000E+02
 -11.912  0.2962E-01  0.2000E+02
 -11.902  0.2738E-01  0.2000E+02
 -11.892  0.2529E-01  0.2000E+02
 -11.882  0.2335E-01  0.2000E+02
 -11.872  0.2155E-01  0.2000E+02
 -11.862  0.1988E-01  0.2000E+02
 -11.852  0.1833E-01  0.2000E+02
 -11.842  0.1689E-01  0.2000E+02
 -11.832  0.1555E-01  0.2000E+02
 -11.822  0.1432E-01  0.2000E+02
 -11.812  0.1317E-01  0.2000E+02
 -11.802  0.1211E-01  0.2000E+02
 -11.792  0.1113E-01  0.2000E+02
 -11.782  0.1023E-01  0.2000E+02
 -11.772  0.9389E-02  0.2000E+02
 -11.762  0.8617E-02  0.2000E+02
 -11.752  0.7904E-02  0.2000E+02
 -11.742  0.7246E-02  0.2000E+02
 -11.732  0.6640E-02  0.2000E+02
 -11.722  0.6081E-02  0.2000E+02
 -11.712  0.5566E-02  0.2000E+02
 -11.702  0.5093E-02  0.2000E+02
 -11.692  0.4657E-02  0.2000E+02
 -11.682  0.4257E-02  0.2000E+02
 -11.672  0.3888E-02  0.2000E+02
 -11.662  0.3550E-02  0.2000E+02
 -11.652  0.3240E-02  0.2000E+02
 -11.642  0.2955E-02  0.2000E+02
 -11.632  0.2694E-02  0.2000E+02
 -11.622  0.2455E-02  0.2000E+02
 -11.612  0.2236E-02  0.2000E+02
 -11.602  0.2035E-02  0.2000E+02
 -11.592  0.1852E-02  0.2000E+02
 -11.582  0.1684E-02  0.2000E+02
 -11.572  0.1530E-02  0.2000E+02
 -11.562  0.1390E-02  0.2000E+02
 -11.552  0.1262E-02  0.2000E+02
 -11.542  0.1145E-02  0.2000E+02
 -11.532  0.1039E-02  0.2000E+02
 -11.522  0.9418E-03  0.2000E+02
 -11.512  0.8534E-03  0.2000E+02
 -11.502  0.7728E-03  0.2000E+02
 -11.492  0.6995E-03  0.2000E+02
 -11.482  0.6329E-03  0.2000E+02
 -11.472  0.5723E-03  0.2000E+02
 -11.462  0.5172E-03  0.2000E+02
 -11.452  0.4672E-03  0.2000E+02
 -11.442  0.4218E-03  0.2000E+02
 -11.432  0.3806E-03  0.2000E+02
 -11.422  0.3433E-03  0.2000E+02
 -11.412  0.3094E-03  0.2000E+02
 -11.402  0.2788E-03  0.2000E+02
 -11.392  0.2511E-03  0.2000E+02
 -11.382  0.2260E-03  0.2000E+02
 -11.372  0.2033E-03  0.2000E+02
 -11.362  0.1828E-03  0.2000E+02
 -11.352  0.1643E-03  0.2000E+02
 -11.342  0.1475E-03  0.2000E+02
 -11.332  0.1324E-03  0.2000E+02
 -11.322  0.1188E-03  0.2000E+02
 -11.312  0.1066E-03  0.2000E+02
 -11.302  0.9553E-04  0.2000E+02
 -11.292  0.8559E-04  0.2000E+02
 -11.282  0.7664E-04  0.2000E+02
 -11.272  0.6859E-04  0.2000E+02
 -11.262  0.6135E-04  0.2000E+02
 -11.252  0.5485E-04  0.2000E+02
 -11.242  0.4901E-04  0.2000E+02
 -11.232  0.4378E-04  0.2000E+02
 -11.222  0.3908E-04  0.2000E+02
 -11.212  0.3486E-04  0.2000E+02
 -11.202  0.3109E-04  0.2000E+02
 -11.192  0.2771E-04  0.2000E+02
 -11.182  0.2468E-04  0.2000E+02
 -11.172  0.2198E-04  0.2000E+02
 -11.162  0.1956E-04  0.2000E+02
 -11.152  0.1739E-04  0.2000E+02
 -11.142  0.1546E-04  0.2000E+02
 -11.132  0.1374E-04  0.2000E+02
 -11.122  0.1220E-04  0.2000E+02
 -11.112  0.1083E-04  0.2000E+02
 -11.102  0.9607E-05  0.2000E+02
 -11.092  0.8518E-05  0.2000E+02
 -11.082  0.7549E-05  0.2000E+02
 -11.072  0.6686E-05  0.2000E+02
 -11.062  0.5919E-05  0.2000E+02
 -11.052  0.5238E-05  0.2000E+02
 -11.042  0.4632E-05  0.2000E+02
 -11.032  0.4094E-05  0.2000E+02
 -11.022  0.3617E-05  0.2000E+02
 -11.012  0.3194E-05  0.2000E+02
 -11.002  0.2819E-05  0.2000E+02
 -10.992  0.2486E-05  0.2000E+02
 -10.982  0.2192E-05  0.2000E+02
 -10.972  0.1931E-05  0.2000E+02
 -10.962  0.1701E-05  0.2000E+02
 -10.952  0.1497E-05  0.2000E+02
 -10.942  0.1317E-05  0.2000E+02
 -10.932  0.1158E-05  0.2000E+02
 -10.922  0.1018E-05  0.2000E+02
 -10.912  0.8942E-06  0.2000E+02
 -10.902  0.7851E-06  0.2000E+02
 -10.892  0.6889E-06  0.2000E+02
 -10.882  0.6042E-06  0.2000E+02
 -10.872  0.5296E-06  0.2000E+02
 -10.862  0.4640E-06  0.2000E+02
 -10.852  0.4063E-06  0.2000E+02
 -10.842  0.3556E-06  0.2000E+02
 -10.832  0.3111E-06  0.2000E+02
 -10.822  0.2720E-06  0.2000E+02
 -10.812  0.2377E-06  0.2000E+02
 -10.802  0.2076E-06  0.2000E+02
 -10.792  0.1812E-06  0.2000E+02
 -10.782  0.1581E-06  0.2000E+02
 -10.772  0.1379E-06  0.2000E+02
 -10.762  0.1201E-06  0.2000E+02
 -10.752  0.1047E-06  0.2000E+02
 -10.742  0.9113E-07  0.2000E+02
 -10.732  0.7930E-07  0.2000E+02
 -10.722  0.6897E-07  0.2000E+02
 -10.712  0.5995E-07  0.2000E+02
 -10.702  0.5209E-07  0.2000E+02
 -10.692  0.4523E-07  0.2000E+02
 -10.682  0.3926E-07  0.2000E+02
 -10.672  0.3406E-07  0.2000E+02
 -10.662  0.2953E-07  0.2000E+02
 -10.652  0.2559E-07  0.2000E+02
 -10.642  0.2216E-07  0.2000E+02
 -10.632  0.1918E-07  0.2000E+02
 -10.622  0.1660E-07  0.2000E+02
 -10.612  0.1435E-07  0.2000E+02
 -10.602  0.1241E-07  0.2000E+02
 -10.592  0.1072E-07  0.2000E+02
 -10.582  0.9253E-08  0.2000E+02
 -10.572  0.7985E-08  0.2000E+02
 -10.562  0.6887E-08  0.2000E+02
 -10.552  0.5937E-08  0.2000E+02
 -10.542  0.5115E-08  0.2000E+02
 -10.532  0.4405E-08  0.2000E+02
 -10.522  0.3791E-08  0.2000E+02
 -10.512  0.3261E-08  0.2000E+02
 -10.502  0.2804E-08  0.2000E+02
 -10.492  0.2410E-08  0.2000E+02
 -10.482  0.2070E-08  0.2000E+02
 -10.472  0.1777E-08  0.2000E+02
 -10.462  0.1524E-08  0.2000E+02
 -10.452  0.1307E-08  0.2000E+02
 -10.442  0.1120E-08  0.2000E+02
 -10.432  0.9597E-09  0.2000E+02
 -10.422  0.8217E-09  0.2000E+02
 -10.412  0.7032E-09  0.2000E+02
 -10.402  0.6014E-09  0.2000E+02
 -10.392  0.5141E-09  0.2000E+02
 -10.382  0.4392E-09  0.2000E+02
 -10.372  0.3751E-09  0.2000E+02
 -10.362  0.3201E-09  0.2000E+02
 -10.352  0.2731E-09  0.2000E+02
 -10.342  0.2328E-09  0.2000E+02
 -10.332  0.1984E-09  0.2000E+02
 -10.322  0.1690E-09  0.2000E+02
 -10.312  0.1439E-09  0.2000E+02
 -10.302  0.1224E-09  0.2000E+02
 -10.292  0.1041E-09  0.2000E+02
 -10.282  0.8846E-10  0.2000E+02
 -10.272  0.7514E-10  0.2000E+02
 -10.262  0.6380E-10  0.2000E+02
 -10.252  0.5414E-10  0.2000E+02
 -10.242  0.4591E-10  0.2000E+02
 -10.232  0.3892E-10  0.2000E+02
 -10.222  0.3298E-10  0.2000E+02
 -10.212  0.2792E-10  0.2000E+02
 -10.202  0.2363E-10  0.2000E+02
 -10.192  0.1999E-10  0.2000E+02
 -10.182  0.1690E-10  0.2000E+02
 -10.172  0.1428E-10  0.2000E+02
 -10.162  0.1206E-10  0.2000E+02
 -10.152  0.1018E-10  0.2000E+02
 -10.142  0.8590E-11  0.2000E+02
 -10.132  0.7244E-11  0.2000E+02
 -10.122  0.6105E-11  0.2000E+02
 -10.112  0.5142E-11  0.2000E+02
 -10.102  0.4329E-11  0.2000E+02
 -10.092  0.3643E-11  0.2000E+02
 -10.082  0.3064E-11  0.2000E+02
 -10.072  0.2575E-11  0.2000E+02
 -10.062  0.2164E-11  0.2000E+02
 -10.052  0.1817E-11  0.2000E+02
 -10.042  0.1525E-11  0.2000E+02
 -10.032  0.1279E-11  0.2000E+02
 -10.022  0.1072E-11  0.2000E+02
 -10.012  0.8984E-12  0.2000E+02
 -10.002  0.7524E-12  0.2000E+02
  -9.992  0.6298E-12  0.2000E+02
  -9.982  0.5269E-12  0.2000E+02
  -9.972  0.4406E-12  0.2000E+02
  -9.962  0.3682E-12  0.2000E+02
  -9.952  0.3075E-12  0.2000E+02
  -9.942  0.2567E-12  0.2000E+02
  -9.932  0.2142E-12  0.2000E+02
  -9.922  0.1787E-12  0.2000E+02
  -9.912  0.1489E-12  0.2000E+02
  -9.902  0.1241E-12  0.2000E+02
  -9.892  0.1033E-12  0.2000E+02
  -9.882  0.8596E-13  0.2000E+02
  -9.872  0.7150E-13  0.2000E+02
  -9.862  0.5944E-13  0.2000E+02
  -9.852  0.4939E-13  0.2000E+02
  -9.842  0.4101E-13  0.2000E+02
  -9.832  0.3404E-13  0.2000E+02
  -9.822  0.2824E-13  0.2000E+02
  -9.812  0.2341E-13  0.2000E+02
  -9.802  0.1940E-13  0.2000E+02
  -9.792  0.1607E-13  0.2000E+02
  -9.782  0.1330E-13  0.2000E+02
  -9.772  0.1101E-13  0.2000E+02
  -9.762  0.9102E-14  0.2000E+02
  -9.752  0.7523E-14  0.2000E+02
  -9.742  0.6214E-14  0.2000E+02
  -9.732  0.5131E-14  0.2000E+02
  -9.722  0.4234E-14  0.2000E+02
  -9.712  0.3492E-14  0.2000E+02
  -9.702  0.2879E-14  0.2000E+02
  -9.692  0.2372E-14  0.2000E+02
  -9.682  0.1953E-14  0.2000E+02
  -9.672  0.1607E-14  0.2000E+02
  -9.662  0.1322E-14  0.2000E+02
  -9.652  0.1087E-14  0.2000E+02
  -9.642  0.8932E-15  0.2000E+02
  -9.632  0.7336E-15  0.2000E+02
  -9.622  0.6021E-15  0.2000E+02
  -9.612  0.4940E-15  0.2000E+02
  -9.602  0.4051E-15  0.2000E+02
  -9.592  0.3320E-15  0.2000E+02
  -9.582  0.2719E-15  0.2000E+02
  -9.572  0.2226E-15  0.2000E+02
  -9.562  0.1822E-15  0.2000E+02
  -9.552  0.1490E-15  0.2000E+02
  -9.542  0.1218E-15  0.2000E+02
  -9.532  0.9948E-16  0.2000E+02
  -9.522  0.8123E-16  0.2000E+02
  -9.512  0.6629E-16  0.2000E+02
  -9.502  0.5407E-16  0.2000E+02
  -9.492  0.4408E-16  0.2000E+02
  -9.482  0.3592E-16  0.2000E+02
  -9.472  0.2925E-16  0.2000E+02
  -9.462  0.2381E-16  0.2000E+02
  -9.452  0.1937E-16  0.2000E+02
  -9.442  0.1575E-16  0.2000E+02
  -9.432  0.1280E-16  0.2000E+02
  -9.422  0.1039E-16  0.2000E+02
  -9.412  0.8437E-17  0.2000E+02
  -9.402  0.6845E-17  0.2000E+02
  -9.392  0.5551E-17  0.2000E+02
  -9.382  0.4499E-17  0.2000E+02
  -9.372  0.3645E-17  0.2000E+02
  -9.362  0.2951E-17  0.2000E+02
  -9.352  0.2388E-17  0.2000E+02
  -9.342  0.1931E-17  0.2000E+02
  -9.332  0.1561E-17  0.2000E+02
  -9.322  0.1261E-17  0.2000E+02
  -9.312  0.1018E-17  0.2000E+02
  -9.302  0.8220E-18  0.2000E+02
  -9.292  0.6630E-18  0.2000E+02
  -9.282  0.5346E-18  0.2000E+02
  -9.272  0.4307E-18  0.2000E+02
  -9.262  0.3469E-18  0.2000E+02
  -9.252  0.2792E-18  0.2000E+02
  -9.242  0.2246E-18  0.2000E+02
  -9.232  0.1806E-18  0.2000E+02
  -9.222  0.1452E-18  0.2000E+02
  -9.212  0.1166E-18  0.2000E+02
  -9.202  0.9361E-19  0.2000E+02
  -9.192  0.7511E-19  0.2000E+02
  -9.182  0.6024E-19  0.2000E+02
  -9.172  0.4828E-19  0.2000E+02
  -9.162  0.3868E-19  0.2000E+02
  -9.152  0.3097E-19  0.2000E+02
  -9.142  0.2478E-19  0.2000E+02
  -9.132  0.1982E-19  0.2000E+02
  -9.122  0.1585E-19  0.2000E+02
  -9.112  0.1266E-19  0.2000E+02
  -9.102  0.1011E-19  0.2000E+02
  -9.092  0.8070E-20  0.2000E+02
  -9.082  0.6437E-20  0.2000E+02
  -9.072  0.5133E-20  0.2000E+02
  -9.062  0.4090E-20  0.2000E+02
  -9.052  0.3257E-20  0.2000E+02
  -9.042  0.2593E-20  0.2000E+02
  -9.032  0.2063E-20  0.2000E+02
  -9.022  0.1641E-20  0.2000E+02
  -9.012  0.1304E-20  0.2000E+02
  -9.002  0.1036E-20  0.2000E+02
  -8.992  0.8223E-21  0.2000E+02
  -8.982  0.6525E-21  0.2000E+02
  -8.972  0.5175E-21  0.2000E+02
  -8.962  0.4102E-21  0.2000E+02
  -8.952  0.3250E-21  0.2000E+02
  -8.942  0.2573E-21  0.2000E+02
  -8.932  0.2036E-21  0.2000E+02
  -8.922  0.1611E-21  0.2000E+02
  -8.912  0.1273E-21  0.2000E+02
  -8.902  0.1006E-21  0.2000E+02
  -8.892  0.7946E-22  0.2000E+02
  -8.882  0.6272E-22  0.2000E+02
  -8.872  0.4948E-22  0.2000E+02
  -8.862  0.3901E-22  0.2000E+02
  -8.852  0.3074E-22  0.2000E+02
  -8.842  0.2421E-22  0.2000E+02
  -8.832  0.1906E-22  0.2000E+02
  -8.822  0.1500E-22  0.2000E+02
  -8.812  0.1179E-22  0.2000E+02
  -8.802  0.9269E-23  0.2000E+02
  -8.792  0.7281E-23  0.2000E+02
  -8.782  0.5717E-23  0.2000E+02
  -8.772  0.4486E-23  0.2000E+02
  -8.762  0.3518E-23  0.2000E+02
  -8.752  0.2758E-23  0.2000E+02
  -8.742  0.2161E-23  0.2000E+02
  -8.732  0.1692E-23  0.2000E+02
  -8.722  0.1324E-23  0.2000E+02
  -8.712  0.1036E-23  0.2000E+02
  -8.702  0.8098E-24  0.2000E+02
  -8.692  0.6328E-24  0.2000E+02
  -8.682  0.4942E-24  0.2000E+02
  -8.672  0.3858E-24  0.2000E+02
  -8.662  0.3009E-24  0.2000E+02
  -8.652  0.2347E-24  0.2000E+02
  -8.642  0.1829E-24  0.2000E+02
  -8.632  0.1424E-24  0.2000E+02
  -8.622  0.1109E-24  0.2000E+02
  -8.612  0.8628E-25  0.2000E+02
  -8.602  0.6710E-25  0.2000E+02
  -8.592  0.5215E-25  0.2000E+02
  -8.582  0.4051E-25  0.2000E+02
  -8.572  0.3146E-25  0.2000E+02
  -8.562  0.2441E-25  0.2000E+02
  -8.552  0.1893E-25  0.2000E+02
  -8.542  0.1468E-25  0.2000E+02
  -8.532  0.1137E-25  0.2000E+02
  -8.522  0.8805E-26  0.2000E+02
  -8.512  0.6815E-26  0.2000E+02
  -8.502  0.5272E-26  0.2000E+02
  -8.492  0.4076E-26  0.2000E+02
  -8.482  0.3149E-26  0.2000E+02
  -8.472  0.2432E-26  0.2000E+02
  -8.462  0.1878E-26  0.2000E+02
  -8.452  0.1449E-26  0.2000E+02
  -8.442  0.1117E-26  0.2000E+02
  -8.432  0.8608E-27  0.2000E+02
  -8.422  0.6631E-27  0.2000E+02
  -8.412  0.5105E-27  0.2000E+02
  -8.402  0.3928E-27  0.2000E+02
  -8.392  0.3021E-27  0.2000E+02
  -8.382  0.2322E-27  0.2000E+02
  -8.372  0.1784E-27  0.2000E+02
  -8.362  0.1369E-27  0.2000E+02
  -8.352  0.1051E-27  0.2000E+02
  -8.342  0.8061E-28  0.2000E+02
  -8.332  0.6180E-28  0.2000E+02
  -8.322  0.4735E-28  0.2000E+02
  -8.312  0.3626E-28  0.2000E+02
  -8.302  0.2775E-28  0.2000E+02
  -8.292  0.2123E-28  0.2000E+02
  -8.282  0.1623E-28  0.2000E+02
  -8.272  0.1240E-28  0.2000E+02
  -8.262  0.9472E-29  0.2000E+02
  -8.252  0.7231E-29  0.2000E+02
  -8.242  0.5517E-29  0.2000E+02
  -8.232  0.4207E-29  0.2000E+02
  -8.222  0.3206E-29  0.2000E+02
  -8.212  0.2442E-29  0.2000E+02
  -8.202  0.1859E-29  0.2000E+02
  -8.192  0.1415E-29  0.2000E+02
  -8.182  0.1076E-29  0.2000E+02
  -8.172  0.8178E-30  0.2000E+02
  -8.162  0.6213E-30  0.2000E+02
  -8.152  0.4717E-30  0.2000E+02
  -8.142  0.3580E-30  0.2000E+02
  -8.132  0.2715E-30  0.2000E+02
  -8.122  0.2059E-30  0.2000E+02
  -8.112  0.1560E-30  0.2000E+02
  -8.102  0.1181E-30  0.2000E+02
  -8.092  0.8940E-31  0.2000E+02
  -8.082  0.6763E-31  0.2000E+02
  -8.072  0.5114E-31  0.2000E+02
  -8.062  0.3864E-31  0.2000E+02
  -8.052  0.2919E-31  0.2000E+02
  -8.042  0.2204E-31  0.2000E+02
  -8.032  0.1663E-31  0.2000E+02
  -8.022  0.1255E-31  0.2000E+02
  -8.012  0.9463E-32  0.2000E+02
  -8.002  0.7138E-32  0.2000E+02
  -7.992  0.5386E-32  0.2000E+02
  -7.982  0.4070E-32  0.2000E+02
  -7.972  0.3083E-32  0.2000E+02
  -7.962  0.2348E-32  0.2000E+02
  -7.952  0.1803E-32  0.2000E+02
  -7.942  0.1406E-32  0.2000E+02
  -7.932  0.1124E-32  0.2000E+02
  -7.922  0.9348E-33  0.2000E+02
  -7.912  0.8217E-33  0.2000E+02
  -7.902  0.7755E-33  0.2000E+02
  -7.892  0.7917E-33  0.2000E+02
  -7.882  0.8711E-33  0.2000E+02
  -7.872  0.1019E-32  0.2000E+02
  -7.862  0.1246E-32  0.2000E+02
  -7.852  0.1570E-32  0.2000E+02
  -7.842  0.2014E-32  0.2000E+02
  -7.832  0.2611E-32  0.2000E+02
  -7.822  0.3405E-32  0.2000E+02
  -7.812  0.4455E-32  0.2000E+02
  -7.802  0.5839E-32  0.2000E+02
  -7.792  0.7658E-32  0.2000E+02
  -7.782  0.1005E-31  0.2000E+02
  -7.772  0.1318E-31  0.2000E+02
  -7.762  0.1728E-31  0.2000E+02
  -7.752  0.2265E-31  0.2000E+02
  -7.742  0.2967E-31  0.2000E+02
  -7.732  0.3886E-31  0.2000E+02
  -7.722  0.5086E-31  0.2000E+02
  -7.712  0.6653E-31  0.2000E+02
  -7.702  0.8699E-31  0.2000E+02
  -7.692  0.1137E-30  0.2000E+02
  -7.682  0.1485E-30  0.2000E+02
  -7.672  0.1938E-30  0.2000E+02
  -7.662  0.2529E-30  0.2000E+02
  -7.652  0.3298E-30  0.2000E+02
  -7.642  0.4299E-30  0.2000E+02
  -7.632  0.5600E-30  0.2000E+02
  -7.622  0.7291E-30  0.2000E+02
  -7.612  0.9488E-30  0.2000E+02
  -7.602  0.1234E-29  0.2000E+02
  -7.592  0.1604E-29  0.2000E+02
  -7.582  0.2084E-29  0.2000E+02
  -7.572  0.2706E-29  0.2000E+02
  -7.562  0.3513E-29  0.2000E+02
  -7.552  0.4557E-29  0.2000E+02
  -7.542  0.5908E-29  0.2000E+02
  -7.532  0.7656E-29  0.2000E+02
  -7.522  0.9915E-29  0.2000E+02
  -7.512  0.1284E-28  0.2000E+02
  -7.502  0.1661E-28  0.2000E+02
  -7.492  0.2147E-28  0.2000E+02
  -7.482  0.2775E-28  0.2000E+02
  -7.472  0.3585E-28  0.2000E+02
  -7.462  0.4628E-28  0.2000E+02
  -7.452  0.5973E-28  0.2000E+02
  -7.442  0.7703E-28  0.2000E+02
  -7.432  0.9929E-28  0.2000E+02
  -7.422  0.1279E-27  0.2000E+02
  -7.412  0.1647E-27  0.2000E+02
  -7.402  0.2120E-27  0.2000E+02
  -7.392  0.2727E-27  0.2000E+02
  -7.382  0.3506E-27  0.2000E+02
  -7.372  0.4505E-27  0.2000E+02
  -7.362  0.5786E-27  0.2000E+02
  -7.352  0.7426E-27  0.2000E+02
  -7.342  0.9528E-27  0.2000E+02
  -7.332  0.1222E-26  0.2000E+02
  -7.322  0.1566E-26  0.2000E+02
  -7.312  0.2005E-26  0.2000E+02
  -7.302  0.2567E-26  0.2000E+02
  -7.292  0.3285E-26  0.2000E+02
  -7.282  0.4201E-26  0.2000E+02
  -7.272  0.5370E-26  0.2000E+02
  -7.262  0.6861E-26  0.2000E+02
  -7.252  0.8760E-26  0.2000E+02
  -7.242  0.1118E-25  0.2000E+02
  -7.232  0.1426E-25  0.2000E+02
  -7.222  0.1818E-25  0.2000E+02
  -7.212  0.2316E-25  0.2000E+02
  -7.202  0.2950E-25  0.2000E+02
  -7.192  0.3755E-25  0.2000E+02
  -7.182  0.4777E-25  0.2000E+02
  -7.172  0.6074E-25  0.2000E+02
  -7.162  0.7719E-25  0.2000E+02
  -7.152  0.9804E-25  0.2000E+02
  -7.142  0.1245E-24  0.2000E+02
  -7.132  0.1579E-24  0.2000E+02
  -7.122  0.2003E-24  0.2000E+02
  -7.112  0.2538E-24  0.2000E+02
  -7.102  0.3216E-24  0.2000E+02
  -7.092  0.4072E-24  0.2000E+02
  -7.082  0.5152E-24  0.2000E+02
  -7.072  0.6517E-24  0.2000E+02
  -7.062  0.8239E-24  0.2000E+02
  -7.052  0.1041E-23  0.2000E+02
  -7.042  0.1315E-23  0.2000E+02
  -7.032  0.1659E-23  0.2000E+02
  -7.022  0.2093E-23  0.2000E+02
  -7.012  0.2639E-23  0.2000E+02
  -7.002  0.3326E-23  0.2000E+02
  -6.992  0.4189E-23  0.2000E+02
  -6.982  0.5273E-23  0.2000E+02
  -6.972  0.6634E-23  0.2000E+02
  -6.962  0.8343E-23  0.2000E+02
  -6.952  0.1049E-22  0.2000E+02
  -6.942  0.1317E-22  0.2000E+02
  -6.932  0.1654E-22  0.2000E+02
  -6.922  0.2075E-22  0.2000E+02
  -6.912  0.2603E-22  0.2000E+02
  -6.902  0.3263E-22  0.2000E+02
  -6.892  0.4089E-22  0.2000E+02
  -6.882  0.5120E-22  0.2000E+02
  -6.872  0.6408E-22  0.2000E+02
  -6.862  0.8016E-22  0.2000E+02
  -6.852  0.1002E-21  0.2000E+02
  -6.842  0.1252E-21  0.2000E+02
  -6.832  0.1564E-21  0.2000E+02
  -6.822  0.1953E-21  0.2000E+02
  -6.812  0.2436E-21  0.2000E+02
  -6.802  0.3038E-21  0.2000E+02
  -6.792  0.3787E-21  0.2000E+02
  -6.782  0.4717E-21  0.2000E+02
  -6.772  0.5873E-21  0.2000E+02
  -6.762  0.7308E-21  0.2000E+02
  -6.752  0.9089E-21  0.2000E+02
  -6.742  0.1130E-20  0.2000E+02
  -6.732  0.1404E-20  0.2000E+02
  -6.722  0.1743E-20  0.2000E+02
  -6.712  0.2164E-20  0.2000E+02
  -6.702  0.2684E-20  0.2000E+02
  -6.692  0.3328E-20  0.2000E+02
  -6.682  0.4123E-20  0.2000E+02
  -6.672  0.5107E-20  0.2000E+02
  -6.662  0.6322E-20  0.2000E+02
  -6.652  0.7822E-20  0.2000E+02
  -6.642  0.9672E-20  0.2000E+02
  -6.632  0.1195E-19  0.2000E+02
  -6.622  0.1477E-19  0.2000E+02
  -6.612  0.1823E-19  0.2000E+02
  -6.602  0.2250E-19  0.2000E+02
  -6.592  0.2775E-19  0.2000E+02
  -6.582  0.3420E-19  0.2000E+02
  -6.572  0.4214E-19  0.2000E+02
  -6.562  0.5189E-19  0.2000E+02
  -6.552  0.6387E-19  0.2000E+02
  -6.542  0.7857E-19  0.2000E+02
  -6.532  0.9659E-19  0.2000E+02
  -6.522  0.1187E-18  0.2000E+02
  -6.512  0.1458E-18  0.2000E+02
  -6.502  0.1790E-18  0.2000E+02
  -6.492  0.2196E-18  0.2000E+02
  -6.482  0.2692E-18  0.2000E+02
  -6.472  0.3300E-18  0.2000E+02
  -6.462  0.4042E-18  0.2000E+02
  -6.452  0.4949E-18  0.2000E+02
  -6.442  0.6056E-18  0.2000E+02
  -6.432  0.7407E-18  0.2000E+02
  -6.422  0.9054E-18  0.2000E+02
  -6.412  0.1106E-17  0.2000E+02
  -6.402  0.1351E-17  0.2000E+02
  -6.392  0.1649E-17  0.2000E+02
  -6.382  0.2011E-17  0.2000E+02
  -6.372  0.2452E-17  0.2000E+02
  -6.362  0.2988E-17  0.2000E+02
  -6.352  0.3639E-17  0.2000E+02
  -6.342  0.4430E-17  0.2000E+02
  -6.332  0.5390E-17  0.2000E+02
  -6.322  0.6554E-17  0.2000E+02
  -6.312  0.7966E-17  0.2000E+02
  -6.302  0.9677E-17  0.2000E+02
  -6.292  0.1175E-16  0.2000E+02
  -6.282  0.1426E-16  0.2000E+02
  -6.272  0.1729E-16  0.2000E+02
  -6.262  0.2096E-16  0.2000E+02
  -6.252  0.2540E-16  0.2000E+02
  -6.242  0.3075E-16  0.2000E+02
  -6.232  0.3722E-16  0.2000E+02
  -6.222  0.4503E-16  0.2000E+02
  -6.212  0.5444E-16  0.2000E+02
  -6.202  0.6579E-16  0.2000E+02
  -6.192  0.7946E-16  0.2000E+02
  -6.182  0.9592E-16  0.2000E+02
  -6.172  0.1157E-15  0.2000E+02
  -6.162  0.1396E-15  0.2000E+02
  -6.152  0.1682E-15  0.2000E+02
  -6.142  0.2026E-15  0.2000E+02
  -6.132  0.2440E-15  0.2000E+02
  -6.122  0.2936E-15  0.2000E+02
  -6.112  0.3531E-15  0.2000E+02
  -6.102  0.4245E-15  0.2000E+02
  -6.092  0.5101E-15  0.2000E+02
  -6.082  0.6126E-15  0.2000E+02
  -6.072  0.7352E-15  0.2000E+02
  -6.062  0.8820E-15  0.2000E+02
  -6.052  0.1058E-14  0.2000E+02
  -6.042  0.1267E-14  0.2000E+02
  -6.032  0.1518E-14  0.2000E+02
  -6.022  0.1817E-14  0.2000E+02
  -6.012  0.2174E-14  0.2000E+02
  -6.002  0.2600E-14  0.2000E+02
  -5.992  0.3108E-14  0.2000E+02
  -5.982  0.3713E-14  0.2000E+02
  -5.972  0.4433E-14  0.2000E+02
  -5.962  0.5291E-14  0.2000E+02
  -5.952  0.6311E-14  0.2000E+02
  -5.942  0.7523E-14  0.2000E+02
  -5.932  0.8964E-14  0.2000E+02
  -5.922  0.1068E-13  0.2000E+02
  -5.912  0.1271E-13  0.2000E+02
  -5.902  0.1512E-13  0.2000E+02
  -5.892  0.1798E-13  0.2000E+02
  -5.882  0.2136E-13  0.2000E+02
  -5.872  0.2538E-13  0.2000E+02
  -5.862  0.3013E-13  0.2000E+02
  -5.852  0.3575E-13  0.2000E+02
  -5.842  0.4240E-13  0.2000E+02
  -5.832  0.5025E-13  0.2000E+02
  -5.822  0.5954E-13  0.2000E+02
  -5.812  0.7050E-13  0.2000E+02
  -5.802  0.8344E-13  0.2000E+02
  -5.792  0.9870E-13  0.2000E+02
  -5.782  0.1167E-12  0.2000E+02
  -5.772  0.1379E-12  0.2000E+02
  -5.762  0.1629E-12  0.2000E+02
  -5.752  0.1922E-12  0.2000E+02
  -5.742  0.2268E-12  0.2000E+02
  -5.732  0.2675E-12  0.2000E+02
  -5.722  0.3152E-12  0.2000E+02
  -5.712  0.3713E-12  0.2000E+02
  -5.702  0.4372E-12  0.2000E+02
  -5.692  0.5145E-12  0.2000E+02
  -5.682  0.6051E-12  0.2000E+02
  -5.672  0.7114E-12  0.2000E+02
  -5.662  0.8358E-12  0.2000E+02
  -5.652  0.9815E-12  0.2000E+02
  -5.642  0.1152E-11  0.2000E+02
  -5.632  0.1352E-11  0.2000E+02
  -5.622  0.1585E-11  0.2000E+02
  -5.612  0.1857E-11  0.2000E+02
  -5.602  0.2175E-11  0.2000E+02
  -5.592  0.2546E-11  0.2000E+02
  -5.582  0.2980E-11  0.2000E+02
  -5.572  0.3485E-11  0.2000E+02
  -5.562  0.4073E-11  0.2000E+02
  -5.552  0.4758E-11  0.2000E+02
  -5.542  0.5556E-11  0.2000E+02
  -5.532  0.6485E-11  0.2000E+02
  -5.522  0.7564E-11  0.2000E+02
  -5.512  0.8819E-11  0.2000E+02
  -5.502  0.1028E-10  0.2000E+02
  -5.492  0.1197E-10  0.2000E+02
  -5.482  0.1393E-10  0.2000E+02
  -5.472  0.1621E-10  0.2000E+02
  -5.462  0.1885E-10  0.2000E+02
  -5.452  0.2191E-10  0.2000E+02
  -5.442  0.2545E-10  0.2000E+02
  -5.432  0.2955E-10  0.2000E+02
  -5.422  0.3429E-10  0.2000E+02
  -5.412  0.3977E-10  0.2000E+02
  -5.402  0.4610E-10  0.2000E+02
  -5.392  0.5341E-10  0.2000E+02
  -5.382  0.6186E-10  0.2000E+02
  -5.372  0.7160E-10  0.2000E+02
  -5.362  0.8283E-10  0.2000E+02
  -5.352  0.9577E-10  0.2000E+02
  -5.342  0.1107E-09  0.2000E+02
  -5.332  0.1278E-09  0.2000E+02
  -5.322  0.1476E-09  0.2000E+02
  -5.312  0.1703E-09  0.2000E+02
  -5.302  0.1964E-09  0.2000E+02
  -5.292  0.2264E-09  0.2000E+02
  -5.282  0.2609E-09  0.2000E+02
  -5.272  0.3004E-09  0.2000E+02
  -5.262  0.3457E-09  0.2000E+02
  -5.252  0.3977E-09  0.2000E+02
  -5.242  0.4573E-09  0.2000E+02
  -5.232  0.5255E-09  0.2000E+02
  -5.222  0.6035E-09  0.2000E+02
  -5.212  0.6929E-09  0.2000E+02
  -5.202  0.7950E-09  0.2000E+02
  -5.192  0.9117E-09  0.2000E+02
  -5.182  0.1045E-08  0.2000E+02
  -5.172  0.1197E-08  0.2000E+02
  -5.162  0.1371E-08  0.2000E+02
  -5.152  0.1569E-08  0.2000E+02
  -5.142  0.1795E-08  0.2000E+02
  -5.132  0.2052E-08  0.2000E+02
  -5.122  0.2344E-08  0.2000E+02
  -5.112  0.2678E-08  0.2000E+02
  -5.102  0.3057E-08  0.2000E+02
  -5.092  0.3487E-08  0.2000E+02
  -5.082  0.3977E-08  0.2000E+02
  -5.072  0.4533E-08  0.2000E+02
  -5.062  0.5164E-08  0.2000E+02
  -5.052  0.5880E-08  0.2000E+02
  -5.042  0.6691E-08  0.2000E+02
  -5.032  0.7611E-08  0.2000E+02
  -5.022  0.8653E-08  0.2000E+02
  -5.012  0.9832E-08  0.2000E+02
  -5.002  0.1117E-07  0.2000E+02
  -4.992  0.1268E-07  0.2000E+02
  -4.982  0.1438E-07  0.2000E+02
  -4.972  0.1631E-07  0.2000E+02
  -4.962  0.1848E-07  0.2000E+02
  -4.952  0.2094E-07  0.2000E+02
  -4.942  0.2371E-07  0.2000E+02
  -4.932  0.2683E-07  0.2000E+02
  -4.922  0.3034E-07  0.2000E+02
  -4.912  0.3431E-07  0.2000E+02
  -4.902  0.3876E-07  0.2000E+02
  -4.892  0.4378E-07  0.2000E+02
  -4.882  0.4942E-07  0.2000E+02
  -4.872  0.5575E-07  0.2000E+02
  -4.862  0.6287E-07  0.2000E+02
  -4.852  0.7086E-07  0.2000E+02
  -4.842  0.7982E-07  0.2000E+02
  -4.832  0.8988E-07  0.2000E+02
  -4.822  0.1011E-06  0.2000E+02
  -4.812  0.1138E-06  0.2000E+02
  -4.802  0.1279E-06  0.2000E+02
  -4.792  0.1437E-06  0.2000E+02
  -4.782  0.1614E-06  0.2000E+02
  -4.772  0.1812E-06  0.2000E+02
  -4.762  0.2033E-06  0.2000E+02
  -4.752  0.2280E-06  0.2000E+02
  -4.742  0.2555E-06  0.2000E+02
  -4.732  0.2862E-06  0.2000E+02
  -4.722  0.3205E-06  0.2000E+02
  -4.712  0.3587E-06  0.2000E+02
  -4.702  0.4012E-06  0.2000E+02
  -4.692  0.4485E-06  0.2000E+02
  -4.682  0.5012E-06  0.2000E+02
  -4.672  0.5598E-06  0.2000E+02
  -4.662  0.6249E-06  0.2000E+02
  -4.652  0.6972E-06  0.2000E+02
  -4.642  0.7775E-06  0.2000E+02
  -4.632  0.8666E-06  0.2000E+02
  -4.622  0.9655E-06  0.2000E+02
  -4.612  0.1075E-05  0.2000E+02
  -4.602  0.1197E-05  0.2000E+02
  -4.592  0.1331E-05  0.2000E+02
  -4.582  0.1480E-05  0.2000E+02
  -4.572  0.1645E-05  0.2000E+02
  -4.562  0.1827E-05  0.2000E+02
  -4.552  0.2028E-05  0.2000E+02
  -4.542  0.2250E-05  0.2000E+02
  -4.532  0.2496E-05  0.2000E+02
  -4.522  0.2766E-05  0.2000E+02
  -4.512  0.3065E-05  0.2000E+02
  -4.502  0.3394E-05  0.2000E+02
  -4.492  0.3757E-05  0.2000E+02
  -4.482  0.4156E-05  0.2000E+02
  -4.472  0.4596E-05  0.2000E+02
  -4.462  0.5079E-05  0.2000E+02
  -4.452  0.5610E-05  0.2000E+02
  -4.442  0.6194E-05  0.2000E+02
  -4.432  0.6836E-05  0.2000E+02
  -4.422  0.7540E-05  0.2000E+02
  -4.412  0.8312E-05  0.2000E+02
  -4.402  0.9160E-05  0.2000E+02
  -4.392  0.1009E-04  0.2000E+02
  -4.382  0.1110E-04  0.2000E+02
  -4.372  0.1222E-04  0.2000E+02
  -4.362  0.1344E-04  0.2000E+02
  -4.352  0.1477E-04  0.2000E+02
  -4.342  0.1623E-04  0.2000E+02
  -4.332  0.1782E-04  0.2000E+02
  -4.322  0.1956E-04  0.2000E+02
  -4.312  0.2145E-04  0.2000E+02
  -4.302  0.2352E-04  0.2000E+02
  -4.292  0.2578E-04  0.2000E+02
  -4.282  0.2824E-04  0.2000E+02
  -4.272  0.3092E-04  0.2000E+02
  -4.262  0.3383E-04  0.2000E+02
  -4.252  0.3701E-04  0.2000E+02
  -4.242  0.4046E-04  0.2000E+02
  -4.232  0.4421E-04  0.2000E+02
  -4.222  0.4828E-04  0.2000E+02
  -4.212  0.5271E-04  0.2000E+02
  -4.202  0.5751E-04  0.2000E+02
  -4.192  0.6272E-04  0.2000E+02
  -4.182  0.6836E-04  0.2000E+02
  -4.172  0.7448E-04  0.2000E+02
  -4.162  0.8111E-04  0.2000E+02
  -4.152  0.8829E-04  0.2000E+02
  -4.142  0.9605E-04  0.2000E+02
  -4.132  0.1044E-03  0.2000E+02
  -4.122  0.1135E-03  0.2000E+02
  -4.112  0.1233E-03  0.2000E+02
  -4.102  0.1339E-03  0.2000E+02
  -4.092  0.1453E-03  0.2000E+02
  -4.082  0.1576E-03  0.2000E+02
  -4.072  0.1709E-03  0.2000E+02
  -4.062  0.1852E-03  0.2000E+02
  -4.052  0.2006E-03  0.2000E+02
  -4.042  0.2172E-03  0.2000E+02
  -4.032  0.2351E-03  0.2000E+02
  -4.022  0.2542E-03  0.2000E+02
  -4.012  0.2749E-03  0.2000E+02
  -4.002  0.2970E-03  0.2000E+02
  -3.992  0.3208E-03  0.2000E+02
  -3.982  0.3463E-03  0.2000E+02
  -3.972  0.3737E-03  0.2000E+02
  -3.962  0.4031E-03  0.2000E+02
  -3.952  0.4345E-03  0.2000E+02
  -3.942  0.4682E-03  0.2000E+02
  -3.932  0.5042E-03  0.2000E+02
  -3.922  0.5428E-03  0.2000E+02
  -3.912  0.5840E-03  0.2000E+02
  -3.902  0.6281E-03  0.2000E+02
  -3.892  0.6752E-03  0.2000E+02
  -3.882  0.7254E-03  0.2000E+02
  -3.872  0.7791E-03  0.2000E+02
  -3.862  0.8363E-03  0.2000E+02
  -3.852  0.8972E-03  0.2000E+02
  -3.842  0.9622E-03  0.2000E+02
  -3.832  0.1031E-02  0.2000E+02
  -3.822  0.1105E-02  0.2000E+02
  -3.812  0.1183E-02  0.2000E+02
  -3.802  0.1267E-02  0.2000E+02
  -3.792  0.1355E-02  0.2000E+02
  -3.782  0.1449E-02  0.2000E+02
  -3.772  0.1549E-02  0.2000E+02
  -3.762  0.1655E-02  0.2000E+02
  -3.752  0.1768E-02  0.2000E+02
  -3.742  0.1887E-02  0.2000E+02
  -3.732  0.2013E-02  0.2000E+02
  -3.722  0.2147E-02  0.2000E+02
  -3.712  0.2289E-02  0.2000E+02
  -3.702  0.2438E-02  0.2000E+02
  -3.692  0.2597E-02  0.2000E+02
  -3.682  0.2764E-02  0.2000E+02
  -3.672  0.2941E-02  0.2000E+02
  -3.662  0.3128E-02  0.2000E+02
  -3.652  0.3325E-02  0.2000E+02
  -3.642  0.3533E-02  0.2000E+02
  -3.632  0.3752E-02  0.2000E+02
  -3.622  0.3984E-02  0.2000E+02
  -3.612  0.4227E-02  0.2000E+02
  -3.602  0.4483E-02  0.2000E+02
  -3.592  0.4753E-02  0.2000E+02
  -3.582  0.5036E-02  0.2000E+02
  -3.572  0.5334E-02  0.2000E+02
  -3.562  0.5648E-02  0.2000E+02
  -3.552  0.5977E-02  0.2000E+02
  -3.542  0.6322E-02  0.2000E+02
  -3.532  0.6684E-02  0.2000E+02
  -3.522  0.7064E-02  0.2000E+02
  -3.512  0.7462E-02  0.2000E+02
  -3.502  0.7879E-02  0.2000E+02
  -3.492  0.8316E-02  0.2000E+02
  -3.482  0.8773E-02  0.2000E+02
  -3.472  0.9251E-02  0.2000E+02
  -3.462  0.9751E-02  0.2000E+02
  -3.452  0.1027E-01  0.2000E+02
  -3.442  0.1082E-01  0.2000E+02
  -3.432  0.1139E-01  0.2000E+02
  -3.422  0.1198E-01  0.2000E+02
  -3.412  0.1260E-01  0.2000E+02
  -3.402  0.1325E-01  0.2000E+02
  -3.392  0.1392E-01  0.2000E+02
  -3.382  0.1463E-01  0.2000E+02
  -3.372  0.1536E-01  0.2000E+02
  -3.362  0.1612E-01  0.2000E+02
  -3.352  0.1691E-01  0.2000E+02
  -3.342  0.1773E-01  0.2000E+02
  -3.332  0.1858E-01  0.2000E+02
  -3.322  0.1947E-01  0.2000E+02
  -3.312  0.2039E-01  0.2000E+02
  -3.302  0.2134E-01  0.2000E+02
  -3.292  0.2233E-01  0.2000E+02
  -3.282  0.2336E-01  0.2000E+02
  -3.272  0.2443E-01  0.2000E+02
  -3.262  0.2553E-01  0.2001E+02
  -3.252  0.2667E-01  0.2001E+02
  -3.242  0.2785E-01  0.2001E+02
  -3.232  0.2907E-01  0.2001E+02
  -3.222  0.3033E-01  0.2001E+02
  -3.212  0.3163E-01  0.2001E+02
  -3.202  0.3298E-01  0.2001E+02
  -3.192  0.3437E-01  0.2001E+02
  -3.182  0.3580E-01  0.2001E+02
  -3.172  0.3728E-01  0.2001E+02
  -3.162  0.3880E-01  0.2001E+02
  -3.152  0.4037E-01  0.2001E+02
  -3.142  0.4199E-01  0.2001E+02
  -3.132  0.4365E-01  0.2001E+02
  -3.122  0.4537E-01  0.2001E+02
  -3.112  0.4713E-01  0.2001E+02
  -3.102  0.4894E-01  0.2001E+02
  -3.092  0.5080E-01  0.2001E+02
  -3.082  0.5271E-01  0.2001E+02
  -3.072  0.5468E-01  0.2001E+02
  -3.062  0.5669E-01  0.2001E+02
  -3.052  0.5876E-01  0.2001E+02
  -3.042  0.6087E-01  0.2001E+02
  -3.032  0.6305E-01  0.2001E+02
  -3.022  0.6527E-01  0.2002E+02
  -3.012  0.6755E-01  0.2002E+02
  -3.002  0.6988E-01  0.2002E+02
  -2.992  0.7226E-01  0.2002E+02
  -2.982  0.7470E-01  0.2002E+02
  -2.972  0.7720E-01  0.2002E+02
  -2.962  0.7974E-01  0.2002E+02
  -2.952  0.8235E-01  0.2002E+02
  -2.942  0.8500E-01  0.2002E+02
  -2.932  0.8771E-01  0.2002E+02
  -2.922  0.9048E-01  0.2002E+02
  -2.912  0.9330E-01  0.2002E+02
  -2.902  0.9617E-01  0.2003E+02
  -2.892  0.9910E-01  0.2003E+02
  -2.882  0.1021E+00  0.2003E+02
  -2.872  0.1051E+00  0.2003E+02
  -2.862  0.1082E+00  0.2003E+02
  -2.852  0.1114E+00  0.2003E+02
  -2.842  0.1146E+00  0.2003E+02
  -2.832  0.1178E+00  0.2003E+02
  -2.822  0.1211E+00  0.2003E+02
  -2.812  0.1245E+00  0.2004E+02
  -2.802  0.1279E+00  0.2004E+02
  -2.792  0.1313E+00  0.2004E+02
  -2.782  0.1348E+00  0.2004E+02
  -2.772  0.1384E+00  0.2004E+02
  -2.762  0.1420E+00  0.2004E+02
  -2.752  0.1456E+00  0.2004E+02
  -2.742  0.1493E+00  0.2005E+02
  -2.732  0.1531E+00  0.2005E+02
  -2.722  0.1569E+00  0.2005E+02
  -2.712  0.1607E+00  0.2005E+02
  -2.702  0.1646E+00  0.2005E+02
  -2.692  0.1685E+00  0.2005E+02
  -2.682  0.1725E+00  0.2005E+02
  -2.672  0.1765E+00  0.2006E+02
  -2.662  0.1805E+00  0.2006E+02
  -2.652  0.1846E+00  0.2006E+02
  -2.642  0.1887E+00  0.2006E+02
  -2.632  0.1929E+00  0.2006E+02
  -2.622  0.1971E+00  0.2007E+02
  -2.612  0.2014E+00  0.2007E+02
  -2.602  0.2056E+00  0.2007E+02
  -2.592  0.2099E+00  0.2007E+02
  -2.582  0.2143E+00  0.2007E+02
  -2.572  0.2187E+00  0.2008E+02
  -2.562  0.2231E+00  0.2008E+02
  -2.552  0.2275E+00  0.2008E+02
  -2.542  0.2320E+00  0.2008E+02
  -2.532  0.2365E+00  0.2009E+02
  -2.522  0.2410E+00  0.2009E+02
  -2.512  0.2456E+00  0.2009E+02
  -2.502  0.2501E+00  0.2009E+02
  -2.492  0.2547E+00  0.2010E+02
  -2.482  0.2594E+00  0.2010E+02
  -2.472  0.2640E+00  0.2010E+02
  -2.462  0.2687E+00  0.2010E+02
  -2.452  0.2734E+00  0.2011E+02
  -2.442  0.2781E+00  0.2011E+02
  -2.432  0.2828E+00  0.2011E+02
  -2.422  0.2875E+00  0.2011E+02
  -2.412  0.2923E+00  0.2012E+02
  -2.402  0.2971E+00  0.2012E+02
  -2.392  0.3019E+00  0.2012E+02
  -2.382  0.3067E+00  0.2013E+02
  -2.372  0.3115E+00  0.2013E+02
  -2.362  0.3163E+00  0.2013E+02
  -2.352  0.3212E+00  0.2014E+02
  -2.342  0.3261E+00  0.2014E+02
  -2.332  0.3309E+00  0.2014E+02
  -2.322  0.3358E+00  0.2015E+02
  -2.312  0.3407E+00  0.2015E+02
  -2.302  0.3456E+00  0.2015E+02
  -2.292  0.3505E+00  0.2016E+02
  -2.282  0.3554E+00  0.2016E+02
  -2.272  0.3604E+00  0.2016E+02
  -2.262  0.3653E+00  0.2017E+02
  -2.252  0.3702E+00  0.2017E+02
  -2.242  0.3752E+00  0.2017E+02
  -2.232  0.3801E+00  0.2018E+02
  -2.222  0.3851E+00  0.2018E+02
  -2.212  0.3901E+00  0.2019E+02
  -2.202  0.3950E+00  0.2019E+02
  -2.192  0.4000E+00  0.2019E+02
  -2.182  0.4050E+00  0.2020E+02
  -2.172  0.4100E+00  0.2020E+02
  -2.162  0.4150E+00  0.2021E+02
  -2.152  0.4200E+00  0.2021E+02
  -2.142  0.4250E+00  0.2022E+02
  -2.132  0.4300E+00  0.2022E+02
  -2.122  0.4350E+00  0.2022E+02
  -2.112  0.4400E+00  0.2023E+02
  -2.102  0.4450E+00  0.2023E+02
  -2.092  0.4501E+00  0.2024E+02
  -2.082  0.4551E+00  0.2024E+02
  -2.072  0.4601E+00  0.2025E+02
  -2.062  0.4652E+00  0.2025E+02
  -2.052  0.4702E+00  0.2026E+02
  -2.042  0.4753E+00  0.2026E+02
  -2.032  0.4803E+00  0.2027E+02
  -2.022  0.4854E+00  0.2027E+02
  -2.012  0.4904E+00  0.2027E+02
  -2.002  0.4955E+00  0.2028E+02
  -1.992  0.5006E+00  0.2028E+02
  -1.982  0.5057E+00  0.2029E+02
  -1.972  0.5107E+00  0.2030E+02
  -1.962  0.5158E+00  0.2030E+02
  -1.952  0.5209E+00  0.2031E+02
  -1.942  0.5260E+00  0.2031E+02
  -1.932  0.5311E+00  0.2032E+02
  -1.922  0.5363E+00  0.2032E+02
  -1.912  0.5414E+00  0.2033E+02
  -1.902  0.5465E+00  0.2033E+02
  -1.892  0.5516E+00  0.2034E+02
  -1.882  0.5568E+00  0.2034E+02
  -1.872  0.5619E+00  0.2035E+02
  -1.862  0.5671E+00  0.2035E+02
  -1.852  0.5722E+00  0.2036E+02
  -1.842  0.5774E+00  0.2037E+02
  -1.832  0.5826E+00  0.2037E+02
  -1.822  0.5878E+00  0.2038E+02
  -1.812  0.5930E+00  0.2038E+02
  -1.802  0.5981E+00  0.2039E+02
  -1.792  0.6033E+00  0.2040E+02
  -1.782  0.6085E+00  0.2040E+02
  -1.772  0.6137E+00  0.2041E+02
  -1.762  0.6190E+00  0.2041E+02
  -1.752  0.6242E+00  0.2042E+02
  -1.742  0.6294E+00  0.2043E+02
  -1.732  0.6346E+00  0.2043E+02
  -1.722  0.6398E+00  0.2044E+02
  -1.712  0.6451E+00  0.2045E+02
  -1.702  0.6503E+00  0.2045E+02
  -1.692  0.6555E+00  0.2046E+02
  -1.682  0.6607E+00  0.2047E+02
  -1.672  0.6660E+00  0.2047E+02
  -1.662  0.6712E+00  0.2048E+02
  -1.652  0.6764E+00  0.2049E+02
  -1.642  0.6816E+00  0.2049E+02
  -1.632  0.6868E+00  0.2050E+02
  -1.622  0.6920E+00  0.2051E+02
  -1.612  0.6972E+00  0.2051E+02
  -1.602  0.7024E+00  0.2052E+02
  -1.592  0.7076E+00  0.2053E+02
  -1.582  0.7128E+00  0.2053E+02
  -1.572  0.7179E+00  0.2054E+02
  -1.562  0.7231E+00  0.2055E+02
  -1.552  0.7282E+00  0.2056E+02
  -1.542  0.7333E+00  0.2056E+02
  -1.532  0.7384E+00  0.2057E+02
  -1.522  0.7435E+00  0.2058E+02
  -1.512  0.7485E+00  0.2059E+02
  -1.502  0.7535E+00  0.2059E+02
  -1.492  0.7585E+00  0.2060E+02
  -1.482  0.7635E+00  0.2061E+02
  -1.472  0.7684E+00  0.2062E+02
  -1.462  0.7733E+00  0.2062E+02
  -1.452  0.7782E+00  0.2063E+02
  -1.442  0.7830E+00  0.2064E+02
  -1.432  0.7878E+00  0.2065E+02
  -1.422  0.7926E+00  0.2066E+02
  -1.412  0.7973E+00  0.2066E+02
  -1.402  0.8020E+00  0.2067E+02
  -1.392  0.8066E+00  0.2068E+02
  -1.382  0.8112E+00  0.2069E+02
  -1.372  0.8157E+00  0.2070E+02
  -1.362  0.8202E+00  0.2070E+02
  -1.352  0.8246E+00  0.2071E+02
  -1.342  0.8289E+00  0.2072E+02
  -1.332  0.8332E+00  0.2073E+02
  -1.322  0.8375E+00  0.2074E+02
  -1.312  0.8416E+00  0.2075E+02
  -1.302  0.8457E+00  0.2075E+02
  -1.292  0.8497E+00  0.2076E+02
  -1.282  0.8537E+00  0.2077E+02
  -1.272  0.8576E+00  0.2078E+02
  -1.262  0.8614E+00  0.2079E+02
  -1.252  0.8651E+00  0.2080E+02
  -1.242  0.8687E+00  0.2081E+02
  -1.232  0.8723E+00  0.2081E+02
  -1.222  0.8757E+00  0.2082E+02
  -1.212  0.8791E+00  0.2083E+02
  -1.202  0.8824E+00  0.2084E+02
  -1.192  0.8856E+00  0.2085E+02
  -1.182  0.8887E+00  0.2086E+02
  -1.172  0.8917E+00  0.2087E+02
  -1.162  0.8946E+00  0.2088E+02
  -1.152  0.8974E+00  0.2089E+02
  -1.142  0.9000E+00  0.2089E+02
  -1.132  0.9026E+00  0.2090E+02
  -1.122  0.9051E+00  0.2091E+02
  -1.112  0.9075E+00  0.2092E+02
  -1.102  0.9097E+00  0.2093E+02
  -1.092  0.9118E+00  0.2094E+02
  -1.082  0.9139E+00  0.2095E+02
  -1.072  0.9158E+00  0.2096E+02
  -1.062  0.9176E+00  0.2097E+02
  -1.052  0.9192E+00  0.2098E+02
  -1.042  0.9208E+00  0.2099E+02
  -1.032  0.9222E+00  0.2099E+02
  -1.022  0.9235E+00  0.2100E+02
  -1.012  0.9247E+00  0.2101E+02
  -1.002  0.9257E+00  0.2102E+02
  -0.992  0.9266E+00  0.2103E+02
  -0.982  0.9274E+00  0.2104E+02
  -0.972  0.9281E+00  0.2105E+02
  -0.962  0.9286E+00  0.2106E+02
  -0.952  0.9290E+00  0.2107E+02
  -0.942  0.9293E+00  0.2108E+02
  -0.932  0.9295E+00  0.2109E+02
  -0.922  0.9295E+00  0.2110E+02
  -0.912  0.9294E+00  0.2111E+02
  -0.902  0.9291E+00  0.2112E+02
  -0.892  0.9287E+00  0.2112E+02
  -0.882  0.9282E+00  0.2113E+02
  -0.872  0.9276E+00  0.2114E+02
  -0.862  0.9268E+00  0.2115E+02
  -0.852  0.9259E+00  0.2116E+02
  -0.842  0.9249E+00  0.2117E+02
  -0.832  0.9237E+00  0.2118E+02
  -0.822  0.9224E+00  0.2119E+02
  -0.812  0.9210E+00  0.2120E+02
  -0.802  0.9195E+00  0.2121E+02
  -0.792  0.9178E+00  0.2122E+02
  -0.782  0.9160E+00  0.2123E+02
  -0.772  0.9140E+00  0.2124E+02
  -0.762  0.9120E+00  0.2124E+02
  -0.752  0.9098E+00  0.2125E+02
  -0.742  0.9075E+00  0.2126E+02
  -0.732  0.9051E+00  0.2127E+02
  -0.722  0.9025E+00  0.2128E+02
  -0.712  0.8999E+00  0.2129E+02
  -0.702  0.8971E+00  0.2130E+02
  -0.692  0.8942E+00  0.2131E+02
  -0.682  0.8912E+00  0.2132E+02
  -0.672  0.8881E+00  0.2133E+02
  -0.662  0.8848E+00  0.2133E+02
  -0.652  0.8815E+00  0.2134E+02
  -0.642  0.8780E+00  0.2135E+02
  -0.632  0.8745E+00  0.2136E+02
  -0.622  0.8708E+00  0.2137E+02
  -0.612  0.8670E+00  0.2138E+02
  -0.602  0.8631E+00  0.2139E+02
  -0.592  0.8592E+00  0.2140E+02
  -0.582  0.8551E+00  0.2140E+02
  -0.572  0.8510E+00  0.2141E+02
  -0.562  0.8467E+00  0.2142E+02
  -0.552  0.8424E+00  0.2143E+02
  -0.542  0.8379E+00  0.2144E+02
  -0.532  0.8334E+00  0.2145E+02
  -0.522  0.8288E+00  0.2145E+02
  -0.512  0.8241E+00  0.2146E+02
  -0.502  0.8194E+00  0.2147E+02
  -0.492  0.8145E+00  0.2148E+02
  -0.482  0.8096E+00  0.2149E+02
  -0.472  0.8046E+00  0.2149E+02
  -0.462  0.7995E+00  0.2150E+02
  -0.452  0.7944E+00  0.2151E+02
  -0.442  0.7892E+00  0.2152E+02
  -0.432  0.7840E+00  0.2153E+02
  -0.422  0.7787E+00  0.2153E+02
  -0.412  0.7733E+00  0.2154E+02
  -0.402  0.7679E+00  0.2155E+02
  -0.392  0.7624E+00  0.2156E+02
  -0.382  0.7568E+00  0.2156E+02
  -0.372  0.7513E+00  0.2157E+02
  -0.362  0.7456E+00  0.2158E+02
  -0.352  0.7400E+00  0.2159E+02
  -0.342  0.7343E+00  0.2159E+02
  -0.332  0.7285E+00  0.2160E+02
  -0.322  0.7227E+00  0.2161E+02
  -0.312  0.7169E+00  0.2162E+02
  -0.302  0.7111E+00  0.2162E+02
  -0.292  0.7052E+00  0.2163E+02
  -0.282  0.6994E+00  0.2164E+02
  -0.272  0.6934E+00  0.2164E+02
  -0.262  0.6875E+00  0.2165E+02
  -0.252  0.6816E+00  0.2166E+02
  -0.242  0.6756E+00  0.2166E+02
  -0.232  0.6697E+00  0.2167E+02
  -0.222  0.6637E+00  0.2168E+02
  -0.212  0.6578E+00  0.2168E+02
  -0.202  0.6518E+00  0.2169E+02
  -0.192  0.6458E+00  0.2170E+02
  -0.182  0.6399E+00  0.2170E+02
  -0.172  0.6339E+00  0.2171E+02
  -0.162  0.6280E+00  0.2172E+02
  -0.152  0.6221E+00  0.2172E+02
  -0.142  0.6162E+00  0.2173E+02
  -0.132  0.6103E+00  0.2174E+02
  -0.122  0.6044E+00  0.2174E+02
  -0.112  0.5986E+00  0.2175E+02
  -0.102  0.5928E+00  0.2175E+02
  -0.092  0.5870E+00  0.2176E+02
  -0.082  0.5813E+00  0.2176E+02
  -0.072  0.5756E+00  0.2177E+02
  -0.062  0.5700E+00  0.2178E+02
  -0.052  0.5644E+00  0.2178E+02
  -0.042  0.5588E+00  0.2179E+02
  -0.032  0.5533E+00  0.2179E+02
  -0.022  0.5479E+00  0.2180E+02
  -0.012  0.5425E+00  0.2180E+02
  -0.002  0.5372E+00  0.2181E+02
   0.008  0.5320E+00  0.2181E+02
   0.018  0.5268E+00  0.2182E+02
   0.028  0.5217E+00  0.2183E+02
   0.038  0.5166E+00  0.2183E+02
   0.048  0.5117E+00  0.2184E+02
   0.058  0.5068E+00  0.2184E+02
   0.068  0.5020E+00  0.2185E+02
   0.078  0.4973E+00  0.2185E+02
   0.088  0.4927E+00  0.2186E+02
   0.098  0.4882E+00  0.2186E+02
   0.108  0.4837E+00  0.2187E+02
   0.118  0.4794E+00  0.2187E+02
   0.128  0.4752E+00  0.2187E+02
   0.138  0.4710E+00  0.2188E+02
   0.148  0.4670E+00  0.2188E+02
   0.158  0.4631E+00  0.2189E+02
   0.168  0.4593E+00  0.2189E+02
   0.178  0.4556E+00  0.2190E+02
   0.188  0.4521E+00  0.2190E+02
   0.198  0.4486E+00  0.2191E+02
   0.208  0.4453E+00  0.2191E+02
   0.218  0.4421E+00  0.2192E+02
   0.228  0.4390E+00  0.2192E+02
   0.238  0.4361E+00  0.2192E+02
   0.248  0.4333E+00  0.2193E+02
   0.258  0.4306E+00  0.2193E+02
   0.268  0.4280E+00  0.2194E+02
   0.278  0.4256E+00  0.2194E+02
   0.288  0.4234E+00  0.2195E+02
   0.298  0.4212E+00  0.2195E+02
   0.308  0.4192E+00  0.2195E+02
   0.318  0.4174E+00  0.2196E+02
   0.328  0.4157E+00  0.2196E+02
   0.338  0.4141E+00  0.2197E+02
   0.348  0.4127E+00  0.2197E+02
   0.358  0.4115E+00  0.2198E+02
   0.368  0.4104E+00  0.2198E+02
   0.378  0.4094E+00  0.2198E+02
   0.388  0.4086E+00  0.2199E+02
   0.398  0.4080E+00  0.2199E+02
   0.408  0.4075E+00  0.2200E+02
   0.418  0.4071E+00  0.2200E+02
   0.428  0.4069E+00  0.2200E+02
   0.438  0.4069E+00  0.2201E+02
   0.448  0.4070E+00  0.2201E+02
   0.458  0.4073E+00  0.2202E+02
   0.468  0.4077E+00  0.2202E+02
   0.478  0.4083E+00  0.2202E+02
   0.488  0.4090E+00  0.2203E+02
   0.498  0.4099E+00  0.2203E+02
   0.508  0.4109E+00  0.2204E+02
   0.518  0.4121E+00  0.2204E+02
   0.528  0.4134E+00  0.2204E+02
   0.538  0.4149E+00  0.2205E+02
   0.548  0.4166E+00  0.2205E+02
   0.558  0.4184E+00  0.2206E+02
   0.568  0.4203E+00  0.2206E+02
   0.578  0.4224E+00  0.2207E+02
   0.588  0.4246E+00  0.2207E+02
   0.598  0.4270E+00  0.2207E+02
   0.608  0.4295E+00  0.2208E+02
   0.618  0.4321E+00  0.2208E+02
   0.628  0.4349E+00  0.2209E+02
   0.638  0.4378E+00  0.2209E+02
   0.648  0.4409E+00  0.2210E+02
   0.658  0.4441E+00  0.2210E+02
   0.668  0.4474E+00  0.2210E+02
   0.678  0.4508E+00  0.2211E+02
   0.688  0.4544E+00  0.2211E+02
   0.698  0.4581E+00  0.2212E+02
   0.708  0.4619E+00  0.2212E+02
   0.718  0.4659E+00  0.2213E+02
   0.728  0.4699E+00  0.2213E+02
   0.738  0.4741E+00  0.2214E+02
   0.748  0.4784E+00  0.2214E+02
   0.758  0.4827E+00  0.2215E+02
   0.768  0.4872E+00  0.2215E+02
   0.778  0.4918E+00  0.2216E+02
   0.788  0.4965E+00  0.2216E+02
   0.798  0.5013E+00  0.2217E+02
   0.808  0.5061E+00  0.2217E+02
   0.818  0.5111E+00  0.2218E+02
   0.828  0.5161E+00  0.2218E+02
   0.838  0.5212E+00  0.2219E+02
   0.848  0.5264E+00  0.2219E+02
   0.858  0.5317E+00  0.2220E+02
   0.868  0.5370E+00  0.2220E+02
   0.878  0.5424E+00  0.2221E+02
   0.888  0.5479E+00  0.2221E+02
   0.898  0.5534E+00  0.2222E+02
   0.908  0.5590E+00  0.2222E+02
   0.918  0.5646E+00  0.2223E+02
   0.928  0.5703E+00  0.2224E+02
   0.938  0.5760E+00  0.2224E+02
   0.948  0.5818E+00  0.2225E+02
   0.958  0.5875E+00  0.2225E+02
   0.968  0.5934E+00  0.2226E+02
   0.978  0.5992E+00  0.2227E+02
   0.988  0.6051E+00  0.2227E+02
   0.998  0.6109E+00  0.2228E+02
   1.008  0.6168E+00  0.2228E+02
   1.018  0.6227E+00  0.2229E+02
   1.028  0.6287E+00  0.2230E+02
   1.038  0.6346E+00  0.2230E+02
   1.048  0.6405E+00  0.2231E+02
   1.058  0.6464E+00  0.2232E+02
   1.068  0.6522E+00  0.2232E+02
   1.078  0.6581E+00  0.2233E+02
   1.088  0.6639E+00  0.2234E+02
   1.098  0.6698E+00  0.2234E+02
   1.108  0.6755E+00  0.2235E+02
   1.118  0.6813E+00  0.2236E+02
   1.128  0.6870E+00  0.2236E+02
   1.138  0.6927E+00  0.2237E+02
   1.148  0.6983E+00  0.2238E+02
   1.158  0.7039E+00  0.2238E+02
   1.168  0.7094E+00  0.2239E+02
   1.178  0.7148E+00  0.2240E+02
   1.188  0.7202E+00  0.2240E+02
   1.198  0.7255E+00  0.2241E+02
   1.208  0.7308E+00  0.2242E+02
   1.218  0.7359E+00  0.2243E+02
   1.228  0.7410E+00  0.2243E+02
   1.238  0.7460E+00  0.2244E+02
   1.248  0.7509E+00  0.2245E+02
   1.258  0.7557E+00  0.2246E+02
   1.268  0.7605E+00  0.2246E+02
   1.278  0.7651E+00  0.2247E+02
   1.288  0.7696E+00  0.2248E+02
   1.298  0.7740E+00  0.2249E+02
   1.308  0.7783E+00  0.2250E+02
   1.318  0.7825E+00  0.2250E+02
   1.328  0.7865E+00  0.2251E+02
   1.338  0.7904E+00  0.2252E+02
   1.348  0.7943E+00  0.2253E+02
   1.358  0.7979E+00  0.2253E+02
   1.368  0.8015E+00  0.2254E+02
   1.378  0.8049E+00  0.2255E+02
   1.388  0.8082E+00  0.2256E+02
   1.398  0.8113E+00  0.2257E+02
   1.408  0.8143E+00  0.2258E+02
   1.418  0.8172E+00  0.2258E+02
   1.428  0.8199E+00  0.2259E+02
   1.438  0.8225E+00  0.2260E+02
   1.448  0.8249E+00  0.2261E+02
   1.458  0.8272E+00  0.2262E+02
   1.468  0.8293E+00  0.2262E+02
   1.478  0.8312E+00  0.2263E+02
   1.488  0.8330E+00  0.2264E+02
   1.498  0.8347E+00  0.2265E+02
   1.508  0.8362E+00  0.2266E+02
   1.518  0.8375E+00  0.2267E+02
   1.528  0.8387E+00  0.2267E+02
   1.538  0.8397E+00  0.2268E+02
   1.548  0.8405E+00  0.2269E+02
   1.558  0.8412E+00  0.2270E+02
   1.568  0.8417E+00  0.2271E+02
   1.578  0.8421E+00  0.2272E+02
   1.588  0.8423E+00  0.2273E+02
   1.598  0.8423E+00  0.2273E+02
   1.608  0.8422E+00  0.2274E+02
   1.618  0.8419E+00  0.2275E+02
   1.628  0.8415E+00  0.2276E+02
   1.638  0.8409E+00  0.2277E+02
   1.648  0.8401E+00  0.2278E+02
   1.658  0.8392E+00  0.2278E+02
   1.668  0.8382E+00  0.2279E+02
   1.678  0.8370E+00  0.2280E+02
   1.688  0.8356E+00  0.2281E+02
   1.698  0.8341E+00  0.2282E+02
   1.708  0.8324E+00  0.2283E+02
   1.718  0.8306E+00  0.2283E+02
   1.728  0.8287E+00  0.2284E+02
   1.738  0.8266E+00  0.2285E+02
   1.748  0.8244E+00  0.2286E+02
   1.758  0.8220E+00  0.2287E+02
   1.768  0.8195E+00  0.2288E+02
   1.778  0.8169E+00  0.2288E+02
   1.788  0.8142E+00  0.2289E+02
   1.798  0.8113E+00  0.2290E+02
   1.808  0.8083E+00  0.2291E+02
   1.818  0.8052E+00  0.2292E+02
   1.828  0.8020E+00  0.2292E+02
   1.838  0.7987E+00  0.2293E+02
   1.848  0.7952E+00  0.2294E+02
   1.858  0.7917E+00  0.2295E+02
   1.868  0.7880E+00  0.2296E+02
   1.878  0.7843E+00  0.2296E+02
   1.888  0.7805E+00  0.2297E+02
   1.898  0.7765E+00  0.2298E+02
   1.908  0.7725E+00  0.2299E+02
   1.918  0.7684E+00  0.2299E+02
   1.928  0.7642E+00  0.2300E+02
   1.938  0.7600E+00  0.2301E+02
   1.948  0.7557E+00  0.2302E+02
   1.958  0.7513E+00  0.2302E+02
   1.968  0.7468E+00  0.2303E+02
   1.978  0.7423E+00  0.2304E+02
   1.988  0.7377E+00  0.2305E+02
   1.998  0.7331E+00  0.2305E+02
   2.008  0.7284E+00  0.2306E+02
   2.018  0.7237E+00  0.2307E+02
   2.028  0.7189E+00  0.2308E+02
   2.038  0.7141E+00  0.2308E+02
   2.048  0.7093E+00  0.2309E+02
   2.058  0.7044E+00  0.2310E+02
   2.068  0.6995E+00  0.2310E+02
   2.078  0.6945E+00  0.2311E+02
   2.088  0.6896E+00  0.2312E+02
   2.098  0.6846E+00  0.2313E+02
   2.108  0.6796E+00  0.2313E+02
   2.118  0.6746E+00  0.2314E+02
   2.128  0.6696E+00  0.2315E+02
   2.138  0.6645E+00  0.2315E+02
   2.148  0.6595E+00  0.2316E+02
   2.158  0.6544E+00  0.2317E+02
   2.168  0.6494E+00  0.2317E+02
   2.178  0.6444E+00  0.2318E+02
   2.188  0.6393E+00  0.2318E+02
   2.198  0.6343E+00  0.2319E+02
   2.208  0.6293E+00  0.2320E+02
   2.218  0.6243E+00  0.2320E+02
   2.228  0.6193E+00  0.2321E+02
   2.238  0.6143E+00  0.2322E+02
   2.248  0.6093E+00  0.2322E+02
   2.258  0.6044E+00  0.2323E+02
   2.268  0.5995E+00  0.2323E+02
   2.278  0.5946E+00  0.2324E+02
   2.288  0.5897E+00  0.2325E+02
   2.298  0.5849E+00  0.2325E+02
   2.308  0.5800E+00  0.2326E+02
   2.318  0.5753E+00  0.2326E+02
   2.328  0.5705E+00  0.2327E+02
   2.338  0.5658E+00  0.2327E+02
   2.348  0.5611E+00  0.2328E+02
   2.358  0.5564E+00  0.2329E+02
   2.368  0.5518E+00  0.2329E+02
   2.378  0.5472E+00  0.2330E+02
   2.388  0.5426E+00  0.2330E+02
   2.398  0.5381E+00  0.2331E+02
   2.408  0.5336E+00  0.2331E+02
   2.418  0.5292E+00  0.2332E+02
   2.428  0.5248E+00  0.2332E+02
   2.438  0.5204E+00  0.2333E+02
   2.448  0.5161E+00  0.2333E+02
   2.458  0.5118E+00  0.2334E+02
   2.468  0.5076E+00  0.2334E+02
   2.478  0.5034E+00  0.2335E+02
   2.488  0.4992E+00  0.2335E+02
   2.498  0.4951E+00  0.2336E+02
   2.508  0.4910E+00  0.2336E+02
   2.518  0.4870E+00  0.2337E+02
   2.528  0.4830E+00  0.2337E+02
   2.538  0.4791E+00  0.2338E+02
   2.548  0.4752E+00  0.2338E+02
   2.558  0.4713E+00  0.2339E+02
   2.568  0.4675E+00  0.2339E+02
   2.578  0.4637E+00  0.2340E+02
   2.588  0.4599E+00  0.2340E+02
   2.598  0.4562E+00  0.2341E+02
   2.608  0.4526E+00  0.2341E+02
   2.618  0.4490E+00  0.2342E+02
   2.628  0.4454E+00  0.2342E+02
   2.638  0.4418E+00  0.2342E+02
   2.648  0.4383E+00  0.2343E+02
   2.658  0.4349E+00  0.2343E+02
   2.668  0.4315E+00  0.2344E+02
   2.678  0.4281E+00  0.2344E+02
   2.688  0.4247E+00  0.2345E+02
   2.698  0.4214E+00  0.2345E+02
   2.708  0.4182E+00  0.2345E+02
   2.718  0.4149E+00  0.2346E+02
   2.728  0.4117E+00  0.2346E+02
   2.738  0.4086E+00  0.2347E+02
   2.748  0.4054E+00  0.2347E+02
   2.758  0.4024E+00  0.2347E+02
   2.768  0.3993E+00  0.2348E+02
   2.778  0.3963E+00  0.2348E+02
   2.788  0.3933E+00  0.2349E+02
   2.798  0.3903E+00  0.2349E+02
   2.808  0.3874E+00  0.2349E+02
   2.818  0.3845E+00  0.2350E+02
   2.828  0.3817E+00  0.2350E+02
   2.838  0.3788E+00  0.2351E+02
   2.848  0.3760E+00  0.2351E+02
   2.858  0.3733E+00  0.2351E+02
   2.868  0.3705E+00  0.2352E+02
   2.878  0.3678E+00  0.2352E+02
   2.888  0.3652E+00  0.2352E+02
   2.898  0.3625E+00  0.2353E+02
   2.908  0.3599E+00  0.2353E+02
   2.918  0.3573E+00  0.2353E+02
   2.928  0.3547E+00  0.2354E+02
   2.938  0.3522E+00  0.2354E+02
   2.948  0.3497E+00  0.2355E+02
   2.958  0.3472E+00  0.2355E+02
   2.968  0.3447E+00  0.2355E+02
   2.978  0.3423E+00  0.2356E+02
   2.988  0.3399E+00  0.2356E+02
   2.998  0.3375E+00  0.2356E+02
   3.008  0.3352E+00  0.2357E+02
   3.018  0.3328E+00  0.2357E+02
   3.028  0.3305E+00  0.2357E+02
   3.038  0.3282E+00  0.2358E+02
   3.048  0.3260E+00  0.2358E+02
   3.058  0.3237E+00  0.2358E+02
   3.068  0.3215E+00  0.2359E+02
   3.078  0.3193E+00  0.2359E+02
   3.088  0.3172E+00  0.2359E+02
   3.098  0.3150E+00  0.2360E+02
   3.108  0.3129E+00  0.2360E+02
   3.118  0.3108E+00  0.2360E+02
   3.128  0.3087E+00  0.2360E+02
   3.138  0.3067E+00  0.2361E+02
   3.148  0.3047E+00  0.2361E+02
   3.158  0.3027E+00  0.2361E+02
   3.168  0.3007E+00  0.2362E+02
   3.178  0.2988E+00  0.2362E+02
   3.188  0.2968E+00  0.2362E+02
   3.198  0.2950E+00  0.2363E+02
   3.208  0.2931E+00  0.2363E+02
   3.218  0.2912E+00  0.2363E+02
   3.228  0.2894E+00  0.2363E+02
   3.238  0.2876E+00  0.2364E+02
   3.248  0.2859E+00  0.2364E+02
   3.258  0.2841E+00  0.2364E+02
   3.268  0.2824E+00  0.2365E+02
   3.278  0.2808E+00  0.2365E+02
   3.288  0.2791E+00  0.2365E+02
   3.298  0.2775E+00  0.2365E+02
   3.308  0.2759E+00  0.2366E+02
   3.318  0.2744E+00  0.2366E+02
   3.328  0.2729E+00  0.2366E+02
   3.338  0.2714E+00  0.2366E+02
   3.348  0.2699E+00  0.2367E+02
   3.358  0.2685E+00  0.2367E+02
   3.368  0.2672E+00  0.2367E+02
   3.378  0.2658E+00  0.2368E+02
   3.388  0.2646E+00  0.2368E+02
   3.398  0.2633E+00  0.2368E+02
   3.408  0.2621E+00  0.2368E+02
   3.418  0.2609E+00  0.2369E+02
   3.428  0.2598E+00  0.2369E+02
   3.438  0.2588E+00  0.2369E+02
   3.448  0.2577E+00  0.2369E+02
   3.458  0.2568E+00  0.2370E+02
   3.468  0.2559E+00  0.2370E+02
   3.478  0.2550E+00  0.2370E+02
   3.488  0.2542E+00  0.2370E+02
   3.498  0.2534E+00  0.2371E+02
   3.508  0.2527E+00  0.2371E+02
   3.518  0.2521E+00  0.2371E+02
   3.528  0.2515E+00  0.2371E+02
   3.538  0.2510E+00  0.2372E+02
   3.548  0.2506E+00  0.2372E+02
   3.558  0.2502E+00  0.2372E+02
   3.568  0.2499E+00  0.2372E+02
   3.578  0.2497E+00  0.2373E+02
   3.588  0.2495E+00  0.2373E+02
   3.598  0.2495E+00  0.2373E+02
   3.608  0.2495E+00  0.2373E+02
   3.618  0.2496E+00  0.2374E+02
   3.628  0.2498E+00  0.2374E+02
   3.638  0.2500E+00  0.2374E+02
   3.648  0.2504E+00  0.2374E+02
   3.658  0.2508E+00  0.2375E+02
   3.668  0.2514E+00  0.2375E+02
   3.678  0.2520E+00  0.2375E+02
   3.688  0.2528E+00  0.2375E+02
   3.698  0.2536E+00  0.2376E+02
   3.708  0.2546E+00  0.2376E+02
   3.718  0.2556E+00  0.2376E+02
   3.728  0.2568E+00  0.2376E+02
   3.738  0.2581E+00  0.2377E+02
   3.748  0.2595E+00  0.2377E+02
   3.758  0.2611E+00  0.2377E+02
   3.768  0.2627E+00  0.2377E+02
   3.778  0.2645E+00  0.2378E+02
   3.788  0.2664E+00  0.2378E+02
   3.798  0.2685E+00  0.2378E+02
   3.808  0.2707E+00  0.2379E+02
   3.818  0.2730E+00  0.2379E+02
   3.828  0.2754E+00  0.2379E+02
   3.838  0.2781E+00  0.2379E+02
   3.848  0.2808E+00  0.2380E+02
   3.858  0.2837E+00  0.2380E+02
   3.868  0.2868E+00  0.2380E+02
   3.878  0.2900E+00  0.2381E+02
   3.888  0.2934E+00  0.2381E+02
   3.898  0.2969E+00  0.2381E+02
   3.908  0.3006E+00  0.2381E+02
   3.918  0.3045E+00  0.2382E+02
   3.928  0.3085E+00  0.2382E+02
   3.938  0.3127E+00  0.2382E+02
   3.948  0.3170E+00  0.2383E+02
   3.958  0.3216E+00  0.2383E+02
   3.968  0.3263E+00  0.2383E+02
   3.978  0.3312E+00  0.2384E+02
   3.988  0.3363E+00  0.2384E+02
   3.998  0.3415E+00  0.2384E+02
   4.008  0.3470E+00  0.2385E+02
   4.018  0.3526E+00  0.2385E+02
   4.028  0.3584E+00  0.2385E+02
   4.038  0.3644E+00  0.2386E+02
   4.048  0.3705E+00  0.2386E+02
   4.058  0.3769E+00  0.2386E+02
   4.068  0.3835E+00  0.2387E+02
   4.078  0.3902E+00  0.2387E+02
   4.088  0.3971E+00  0.2388E+02
   4.098  0.4042E+00  0.2388E+02
   4.108  0.4115E+00  0.2388E+02
   4.118  0.4190E+00  0.2389E+02
   4.128  0.4267E+00  0.2389E+02
   4.138  0.4345E+00  0.2390E+02
   4.148  0.4425E+00  0.2390E+02
   4.158  0.4507E+00  0.2391E+02
   4.168  0.4591E+00  0.2391E+02
   4.178  0.4677E+00  0.2392E+02
   4.188  0.4764E+00  0.2392E+02
   4.198  0.4854E+00  0.2393E+02
   4.208  0.4945E+00  0.2393E+02
   4.218  0.5037E+00  0.2394E+02
   4.228  0.5131E+00  0.2394E+02
   4.238  0.5227E+00  0.2395E+02
   4.248  0.5325E+00  0.2395E+02
   4.258  0.5424E+00  0.2396E+02
   4.268  0.5524E+00  0.2396E+02
   4.278  0.5626E+00  0.2397E+02
   4.288  0.5730E+00  0.2397E+02
   4.298  0.5835E+00  0.2398E+02
   4.308  0.5941E+00  0.2399E+02
   4.318  0.6048E+00  0.2399E+02
   4.328  0.6157E+00  0.2400E+02
   4.338  0.6267E+00  0.2400E+02
   4.348  0.6378E+00  0.2401E+02
   4.358  0.6490E+00  0.2402E+02
   4.368  0.6604E+00  0.2402E+02
   4.378  0.6718E+00  0.2403E+02
   4.388  0.6833E+00  0.2404E+02
   4.398  0.6949E+00  0.2404E+02
   4.408  0.7066E+00  0.2405E+02
   4.418  0.7184E+00  0.2406E+02
   4.428  0.7303E+00  0.2407E+02
   4.438  0.7422E+00  0.2407E+02
   4.448  0.7541E+00  0.2408E+02
   4.458  0.7661E+00  0.2409E+02
   4.468  0.7782E+00  0.2410E+02
   4.478  0.7903E+00  0.2410E+02
   4.488  0.8024E+00  0.2411E+02
   4.498  0.8146E+00  0.2412E+02
   4.508  0.8268E+00  0.2413E+02
   4.518  0.8390E+00  0.2414E+02
   4.528  0.8512E+00  0.2414E+02
   4.538  0.8634E+00  0.2415E+02
   4.548  0.8756E+00  0.2416E+02
   4.558  0.8878E+00  0.2417E+02
   4.568  0.9000E+00  0.2418E+02
   4.578  0.9121E+00  0.2419E+02
   4.588  0.9243E+00  0.2420E+02
   4.598  0.9364E+00  0.2421E+02
   4.608  0.9484E+00  0.2422E+02
   4.618  0.9604E+00  0.2423E+02
   4.628  0.9724E+00  0.2424E+02
   4.638  0.9843E+00  0.2425E+02
   4.648  0.9961E+00  0.2426E+02
   4.658  0.1008E+01  0.2427E+02
   4.668  0.1020E+01  0.2428E+02
   4.678  0.1031E+01  0.2429E+02
   4.688  0.1043E+01  0.2430E+02
   4.698  0.1054E+01  0.2431E+02
   4.708  0.1066E+01  0.2432E+02
   4.718  0.1077E+01  0.2433E+02
   4.728  0.1088E+01  0.2434E+02
   4.738  0.1099E+01  0.2435E+02
   4.748  0.1110E+01  0.2436E+02
   4.758  0.1121E+01  0.2437E+02
   4.768  0.1132E+01  0.2438E+02
   4.778  0.1143E+01  0.2440E+02
   4.788  0.1153E+01  0.2441E+02
   4.798  0.1164E+01  0.2442E+02
   4.808  0.1174E+01  0.2443E+02
   4.818  0.1184E+01  0.2444E+02
   4.828  0.1194E+01  0.2445E+02
   4.838  0.1204E+01  0.2447E+02
   4.848  0.1214E+01  0.2448E+02
   4.858  0.1224E+01  0.2449E+02
   4.868  0.1234E+01  0.2450E+02
   4.878  0.1243E+01  0.2452E+02
   4.888  0.1253E+01  0.2453E+02
   4.898  0.1262E+01  0.2454E+02
   4.908  0.1271E+01  0.2455E+02
   4.918  0.1280E+01  0.2457E+02
   4.928  0.1289E+01  0.2458E+02
   4.938  0.1298E+01  0.2459E+02
   4.948  0.1306E+01  0.2461E+02
   4.958  0.1315E+01  0.2462E+02
   4.968  0.1323E+01  0.2463E+02
   4.978  0.1331E+01  0.2465E+02
   4.988  0.1339E+01  0.2466E+02
   4.998  0.1347E+01  0.2467E+02
   5.008  0.1355E+01  0.2469E+02
   5.018  0.1363E+01  0.2470E+02
   5.028  0.1371E+01  0.2471E+02
   5.038  0.1378E+01  0.2473E+02
   5.048  0.1386E+01  0.2474E+02
   5.058  0.1393E+01  0.2475E+02
   5.068  0.1400E+01  0.2477E+02
   5.078  0.1407E+01  0.2478E+02
   5.088  0.1414E+01  0.2480E+02
   5.098  0.1421E+01  0.2481E+02
   5.108  0.1427E+01  0.2483E+02
   5.118  0.1434E+01  0.2484E+02
   5.128  0.1440E+01  0.2485E+02
   5.138  0.1447E+01  0.2487E+02
   5.148  0.1453E+01  0.2488E+02
   5.158  0.1459E+01  0.2490E+02
   5.168  0.1465E+01  0.2491E+02
   5.178  0.1471E+01  0.2493E+02
   5.188  0.1477E+01  0.2494E+02
   5.198  0.1483E+01  0.2496E+02
   5.208  0.1488E+01  0.2497E+02
   5.218  0.1494E+01  0.2499E+02
   5.228  0.1499E+01  0.2500E+02
   5.238  0.1505E+01  0.2502E+02
   5.248  0.1510E+01  0.2503E+02
   5.258  0.1515E+01  0.2505E+02
   5.268  0.1520E+01  0.2506E+02
   5.278  0.1525E+01  0.2508E+02
   5.288  0.1530E+01  0.2509E+02
   5.298  0.1535E+01  0.2511E+02
   5.308  0.1539E+01  0.2512E+02
   5.318  0.1544E+01  0.2514E+02
   5.328  0.1548E+01  0.2515E+02
   5.338  0.1552E+01  0.2517E+02
   5.348  0.1557E+01  0.2519E+02
   5.358  0.1561E+01  0.2520E+02
   5.368  0.1565E+01  0.2522E+02
   5.378  0.1569E+01  0.2523E+02
   5.388  0.1573E+01  0.2525E+02
   5.398  0.1576E+01  0.2526E+02
   5.408  0.1580E+01  0.2528E+02
   5.418  0.1583E+01  0.2530E+02
   5.428  0.1587E+01  0.2531E+02
   5.438  0.1590E+01  0.2533E+02
   5.448  0.1593E+01  0.2534E+02
   5.458  0.1596E+01  0.2536E+02
   5.468  0.1599E+01  0.2538E+02
   5.478  0.1602E+01  0.2539E+02
   5.488  0.1605E+01  0.2541E+02
   5.498  0.1608E+01  0.2542E+02
   5.508  0.1610E+01  0.2544E+02
   5.518  0.1613E+01  0.2546E+02
   5.528  0.1615E+01  0.2547E+02
   5.538  0.1618E+01  0.2549E+02
   5.548  0.1620E+01  0.2550E+02
   5.558  0.1622E+01  0.2552E+02
   5.568  0.1624E+01  0.2554E+02
   5.578  0.1625E+01  0.2555E+02
   5.588  0.1627E+01  0.2557E+02
   5.598  0.1629E+01  0.2559E+02
   5.608  0.1630E+01  0.2560E+02
   5.618  0.1632E+01  0.2562E+02
   5.628  0.1633E+01  0.2563E+02
   5.638  0.1634E+01  0.2565E+02
   5.648  0.1635E+01  0.2567E+02
   5.658  0.1636E+01  0.2568E+02
   5.668  0.1637E+01  0.2570E+02
   5.678  0.1637E+01  0.2572E+02
   5.688  0.1638E+01  0.2573E+02
   5.698  0.1638E+01  0.2575E+02
   5.708  0.1639E+01  0.2577E+02
   5.718  0.1639E+01  0.2578E+02
   5.728  0.1639E+01  0.2580E+02
   5.738  0.1639E+01  0.2581E+02
   5.748  0.1639E+01  0.2583E+02
   5.758  0.1638E+01  0.2585E+02
   5.768  0.1638E+01  0.2586E+02
   5.778  0.1638E+01  0.2588E+02
   5.788  0.1637E+01  0.2590E+02
   5.798  0.1636E+01  0.2591E+02
   5.808  0.1636E+01  0.2593E+02
   5.818  0.1635E+01  0.2595E+02
   5.828  0.1634E+01  0.2596E+02
   5.838  0.1632E+01  0.2598E+02
   5.848  0.1631E+01  0.2599E+02
   5.858  0.1630E+01  0.2601E+02
   5.868  0.1628E+01  0.2603E+02
   5.878  0.1627E+01  0.2604E+02
   5.888  0.1625E+01  0.2606E+02
   5.898  0.1623E+01  0.2608E+02
   5.908  0.1621E+01  0.2609E+02
   5.918  0.1619E+01  0.2611E+02
   5.928  0.1617E+01  0.2612E+02
   5.938  0.1615E+01  0.2614E+02
   5.948  0.1613E+01  0.2616E+02
   5.958  0.1610E+01  0.2617E+02
   5.968  0.1608E+01  0.2619E+02
   5.978  0.1605E+01  0.2620E+02
   5.988  0.1602E+01  0.2622E+02
   5.998  0.1600E+01  0.2624E+02
   6.008  0.1597E+01  0.2625E+02
   6.018  0.1594E+01  0.2627E+02
   6.028  0.1591E+01  0.2628E+02
   6.038  0.1587E+01  0.2630E+02
   6.048  0.1584E+01  0.2632E+02
   6.058  0.1581E+01  0.2633E+02
   6.068  0.1577E+01  0.2635E+02
   6.078  0.1574E+01  0.2636E+02
   6.088  0.1570E+01  0.2638E+02
   6.098  0.1566E+01  0.2639E+02
   6.108  0.1562E+01  0.2641E+02
   6.118  0.1558E+01  0.2643E+02
   6.128  0.1554E+01  0.2644E+02
   6.138  0.1550E+01  0.2646E+02
   6.148  0.1546E+01  0.2647E+02
   6.158  0.1541E+01  0.2649E+02
   6.168  0.1537E+01  0.2650E+02
   6.178  0.1532E+01  0.2652E+02
   6.188  0.1527E+01  0.2653E+02
   6.198  0.1523E+01  0.2655E+02
   6.208  0.1518E+01  0.2656E+02
   6.218  0.1513E+01  0.2658E+02
   6.228  0.1508E+01  0.2659E+02
   6.238  0.1503E+01  0.2661E+02
   6.248  0.1497E+01  0.2662E+02
   6.258  0.1492E+01  0.2664E+02
   6.268  0.1487E+01  0.2665E+02
   6.278  0.1481E+01  0.2667E+02
   6.288  0.1476E+01  0.2668E+02
   6.298  0.1470E+01  0.2670E+02
   6.308  0.1464E+01  0.2671E+02
   6.318  0.1458E+01  0.2673E+02
   6.328  0.1452E+01  0.2674E+02
   6.338  0.1446E+01  0.2676E+02
   6.348  0.1440E+01  0.2677E+02
   6.358  0.1434E+01  0.2679E+02
   6.368  0.1427E+01  0.2680E+02
   6.378  0.1421E+01  0.2681E+02
   6.388  0.1414E+01  0.2683E+02
   6.398  0.1408E+01  0.2684E+02
   6.408  0.1401E+01  0.2686E+02
   6.418  0.1394E+01  0.2687E+02
   6.428  0.1387E+01  0.2688E+02
   6.438  0.1380E+01  0.2690E+02
   6.448  0.1373E+01  0.2691E+02
   6.458  0.1366E+01  0.2693E+02
   6.468  0.1358E+01  0.2694E+02
   6.478  0.1351E+01  0.2695E+02
   6.488  0.1343E+01  0.2697E+02
   6.498  0.1336E+01  0.2698E+02
   6.508  0.1328E+01  0.2699E+02
   6.518  0.1320E+01  0.2701E+02
   6.528  0.1312E+01  0.2702E+02
   6.538  0.1304E+01  0.2703E+02
   6.548  0.1296E+01  0.2704E+02
   6.558  0.1288E+01  0.2706E+02
   6.568  0.1280E+01  0.2707E+02
   6.578  0.1271E+01  0.2708E+02
   6.588  0.1263E+01  0.2710E+02
   6.598  0.1254E+01  0.2711E+02
   6.608  0.1246E+01  0.2712E+02
   6.618  0.1237E+01  0.2713E+02
   6.628  0.1228E+01  0.2715E+02
   6.638  0.1220E+01  0.2716E+02
   6.648  0.1211E+01  0.2717E+02
   6.658  0.1202E+01  0.2718E+02
   6.668  0.1193E+01  0.2719E+02
   6.678  0.1184E+01  0.2721E+02
   6.688  0.1174E+01  0.2722E+02
   6.698  0.1165E+01  0.2723E+02
   6.708  0.1156E+01  0.2724E+02
   6.718  0.1146E+01  0.2725E+02
   6.728  0.1137E+01  0.2726E+02
   6.738  0.1127E+01  0.2727E+02
   6.748  0.1118E+01  0.2729E+02
   6.758  0.1108E+01  0.2730E+02
   6.768  0.1098E+01  0.2731E+02
   6.778  0.1089E+01  0.2732E+02
   6.788  0.1079E+01  0.2733E+02
   6.798  0.1069E+01  0.2734E+02
   6.808  0.1059E+01  0.2735E+02
   6.818  0.1049E+01  0.2736E+02
   6.828  0.1039E+01  0.2737E+02
   6.838  0.1029E+01  0.2738E+02
   6.848  0.1019E+01  0.2739E+02
   6.858  0.1009E+01  0.2740E+02
   6.868  0.9989E+00  0.2741E+02
   6.878  0.9888E+00  0.2742E+02
   6.888  0.9786E+00  0.2743E+02
   6.898  0.9685E+00  0.2744E+02
   6.908  0.9583E+00  0.2745E+02
   6.918  0.9481E+00  0.2746E+02
   6.928  0.9379E+00  0.2747E+02
   6.938  0.9276E+00  0.2748E+02
   6.948  0.9174E+00  0.2749E+02
   6.958  0.9072E+00  0.2750E+02
   6.968  0.8969E+00  0.2751E+02
   6.978  0.8867E+00  0.2752E+02
   6.988  0.8765E+00  0.2752E+02
   6.998  0.8663E+00  0.2753E+02
   7.008  0.8561E+00  0.2754E+02
   7.018  0.8459E+00  0.2755E+02
   7.028  0.8357E+00  0.2756E+02
   7.038  0.8256E+00  0.2757E+02
   7.048  0.8154E+00  0.2757E+02
   7.058  0.8053E+00  0.2758E+02
   7.068  0.7953E+00  0.2759E+02
   7.078  0.7852E+00  0.2760E+02
   7.088  0.7752E+00  0.2761E+02
   7.098  0.7652E+00  0.2761E+02
   7.108  0.7553E+00  0.2762E+02
   7.118  0.7454E+00  0.2763E+02
   7.128  0.7356E+00  0.2764E+02
   7.138  0.7258E+00  0.2764E+02
   7.148  0.7160E+00  0.2765E+02
   7.158  0.7063E+00  0.2766E+02
   7.168  0.6967E+00  0.2766E+02
   7.178  0.6871E+00  0.2767E+02
   7.188  0.6776E+00  0.2768E+02
   7.198  0.6681E+00  0.2768E+02
   7.208  0.6587E+00  0.2769E+02
   7.218  0.6493E+00  0.2770E+02
   7.228  0.6401E+00  0.2770E+02
   7.238  0.6309E+00  0.2771E+02
   7.248  0.6217E+00  0.2772E+02
   7.258  0.6127E+00  0.2772E+02
   7.268  0.6037E+00  0.2773E+02
   7.278  0.5948E+00  0.2774E+02
   7.288  0.5860E+00  0.2774E+02
   7.298  0.5772E+00  0.2775E+02
   7.308  0.5686E+00  0.2775E+02
   7.318  0.5600E+00  0.2776E+02
   7.328  0.5515E+00  0.2776E+02
   7.338  0.5431E+00  0.2777E+02
   7.348  0.5348E+00  0.2777E+02
   7.358  0.5266E+00  0.2778E+02
   7.368  0.5185E+00  0.2778E+02
   7.378  0.5105E+00  0.2779E+02
   7.388  0.5025E+00  0.2779E+02
   7.398  0.4947E+00  0.2780E+02
   7.408  0.4870E+00  0.2780E+02
   7.418  0.4794E+00  0.2781E+02
   7.428  0.4718E+00  0.2781E+02
   7.438  0.4644E+00  0.2782E+02
   7.448  0.4571E+00  0.2782E+02
   7.458  0.4499E+00  0.2783E+02
   7.468  0.4428E+00  0.2783E+02
   7.478  0.4358E+00  0.2784E+02
   7.488  0.4289E+00  0.2784E+02
   7.498  0.4221E+00  0.2785E+02
   7.508  0.4155E+00  0.2785E+02
   7.518  0.4089E+00  0.2785E+02
   7.528  0.4025E+00  0.2786E+02
   7.538  0.3962E+00  0.2786E+02
   7.548  0.3900E+00  0.2787E+02
   7.558  0.3839E+00  0.2787E+02
   7.568  0.3779E+00  0.2787E+02
   7.578  0.3721E+00  0.2788E+02
   7.588  0.3664E+00  0.2788E+02
   7.598  0.3608E+00  0.2788E+02
   7.608  0.3553E+00  0.2789E+02
   7.618  0.3500E+00  0.2789E+02
   7.628  0.3448E+00  0.2789E+02
   7.638  0.3397E+00  0.2790E+02
   7.648  0.3347E+00  0.2790E+02
   7.658  0.3299E+00  0.2790E+02
   7.668  0.3252E+00  0.2791E+02
   7.678  0.3206E+00  0.2791E+02
   7.688  0.3162E+00  0.2791E+02
   7.698  0.3119E+00  0.2792E+02
   7.708  0.3078E+00  0.2792E+02
   7.718  0.3037E+00  0.2792E+02
   7.728  0.2998E+00  0.2793E+02
   7.738  0.2961E+00  0.2793E+02
   7.748  0.2925E+00  0.2793E+02
   7.758  0.2890E+00  0.2794E+02
   7.768  0.2857E+00  0.2794E+02
   7.778  0.2826E+00  0.2794E+02
   7.788  0.2795E+00  0.2794E+02
   7.798  0.2767E+00  0.2795E+02
   7.808  0.2739E+00  0.2795E+02
   7.818  0.2714E+00  0.2795E+02
   7.828  0.2689E+00  0.2795E+02
   7.838  0.2667E+00  0.2796E+02
   7.848  0.2646E+00  0.2796E+02
   7.858  0.2626E+00  0.2796E+02
   7.868  0.2608E+00  0.2797E+02
   7.878  0.2591E+00  0.2797E+02
   7.888  0.2577E+00  0.2797E+02
   7.898  0.2563E+00  0.2797E+02
   7.908  0.2552E+00  0.2798E+02
   7.918  0.2542E+00  0.2798E+02
   7.928  0.2533E+00  0.2798E+02
   7.938  0.2527E+00  0.2798E+02
   7.948  0.2522E+00  0.2799E+02
   7.958  0.2518E+00  0.2799E+02
   7.968  0.2517E+00  0.2799E+02
   7.978  0.2517E+00  0.2799E+02
   7.988  0.2519E+00  0.2800E+02
   7.998  0.2523E+00  0.2800E+02
   8.008  0.2528E+00  0.2800E+02
   8.018  0.2535E+00  0.2800E+02
   8.028  0.2544E+00  0.2801E+02
   8.038  0.2555E+00  0.2801E+02
   8.048  0.2567E+00  0.2801E+02
   8.058  0.2582E+00  0.2801E+02
   8.068  0.2598E+00  0.2802E+02
   8.078  0.2616E+00  0.2802E+02
   8.088  0.2636E+00  0.2802E+02
   8.098  0.2658E+00  0.2802E+02
   8.108  0.2682E+00  0.2803E+02
   8.118  0.2707E+00  0.2803E+02
   8.128  0.2735E+00  0.2803E+02
   8.138  0.2764E+00  0.2803E+02
   8.148  0.2796E+00  0.2804E+02
   8.158  0.2829E+00  0.2804E+02
   8.168  0.2864E+00  0.2804E+02
   8.178  0.2901E+00  0.2805E+02
   8.188  0.2941E+00  0.2805E+02
   8.198  0.2982E+00  0.2805E+02
   8.208  0.3025E+00  0.2806E+02
   8.218  0.3070E+00  0.2806E+02
   8.228  0.3117E+00  0.2806E+02
   8.238  0.3166E+00  0.2806E+02
   8.248  0.3217E+00  0.2807E+02
   8.258  0.3270E+00  0.2807E+02
   8.268  0.3326E+00  0.2807E+02
   8.278  0.3383E+00  0.2808E+02
   8.288  0.3442E+00  0.2808E+02
   8.298  0.3503E+00  0.2808E+02
   8.308  0.3566E+00  0.2809E+02
   8.318  0.3631E+00  0.2809E+02
   8.328  0.3698E+00  0.2810E+02
   8.338  0.3768E+00  0.2810E+02
   8.348  0.3839E+00  0.2810E+02
   8.358  0.3912E+00  0.2811E+02
   8.368  0.3987E+00  0.2811E+02
   8.378  0.4064E+00  0.2812E+02
   8.388  0.4143E+00  0.2812E+02
   8.398  0.4225E+00  0.2812E+02
   8.408  0.4308E+00  0.2813E+02
   8.418  0.4393E+00  0.2813E+02
   8.428  0.4479E+00  0.2814E+02
   8.438  0.4568E+00  0.2814E+02
   8.448  0.4659E+00  0.2815E+02
   8.458  0.4752E+00  0.2815E+02
   8.468  0.4846E+00  0.2816E+02
   8.478  0.4943E+00  0.2816E+02
   8.488  0.5041E+00  0.2817E+02
   8.498  0.5141E+00  0.2817E+02
   8.508  0.5242E+00  0.2818E+02
   8.518  0.5346E+00  0.2818E+02
   8.528  0.5451E+00  0.2819E+02
   8.538  0.5558E+00  0.2819E+02
   8.548  0.5667E+00  0.2820E+02
   8.558  0.5777E+00  0.2820E+02
   8.568  0.5889E+00  0.2821E+02
   8.578  0.6002E+00  0.2822E+02
   8.588  0.6117E+00  0.2822E+02
   8.598  0.6233E+00  0.2823E+02
   8.608  0.6351E+00  0.2823E+02
   8.618  0.6470E+00  0.2824E+02
   8.628  0.6591E+00  0.2825E+02
   8.638  0.6713E+00  0.2825E+02
   8.648  0.6836E+00  0.2826E+02
   8.658  0.6960E+00  0.2827E+02
   8.668  0.7086E+00  0.2827E+02
   8.678  0.7212E+00  0.2828E+02
   8.688  0.7340E+00  0.2829E+02
   8.698  0.7469E+00  0.2830E+02
   8.708  0.7598E+00  0.2830E+02
   8.718  0.7729E+00  0.2831E+02
   8.728  0.7860E+00  0.2832E+02
   8.738  0.7992E+00  0.2833E+02
   8.748  0.8125E+00  0.2834E+02
   8.758  0.8259E+00  0.2834E+02
   8.768  0.8393E+00  0.2835E+02
   8.778  0.8527E+00  0.2836E+02
   8.788  0.8662E+00  0.2837E+02
   8.798  0.8797E+00  0.2838E+02
   8.808  0.8933E+00  0.2839E+02
   8.818  0.9068E+00  0.2840E+02
   8.828  0.9204E+00  0.2841E+02
   8.838  0.9340E+00  0.2842E+02
   8.848  0.9476E+00  0.2842E+02
   8.858  0.9612E+00  0.2843E+02
   8.868  0.9747E+00  0.2844E+02
   8.878  0.9882E+00  0.2845E+02
   8.888  0.1002E+01  0.2846E+02
   8.898  0.1015E+01  0.2847E+02
   8.908  0.1029E+01  0.2848E+02
   8.918  0.1042E+01  0.2849E+02
   8.928  0.1055E+01  0.2851E+02
   8.938  0.1068E+01  0.2852E+02
   8.948  0.1081E+01  0.2853E+02
   8.958  0.1094E+01  0.2854E+02
   8.968  0.1107E+01  0.2855E+02
   8.978  0.1120E+01  0.2856E+02
   8.988  0.1133E+01  0.2857E+02
   8.998  0.1145E+01  0.2858E+02
   9.008  0.1158E+01  0.2859E+02
   9.018  0.1170E+01  0.2861E+02
   9.028  0.1182E+01  0.2862E+02
   9.038  0.1194E+01  0.2863E+02
   9.048  0.1206E+01  0.2864E+02
   9.058  0.1217E+01  0.2865E+02
   9.068  0.1229E+01  0.2867E+02
   9.078  0.1240E+01  0.2868E+02
   9.088  0.1251E+01  0.2869E+02
   9.098  0.1262E+01  0.2870E+02
   9.108  0.1273E+01  0.2872E+02
   9.118  0.1283E+01  0.2873E+02
   9.128  0.1293E+01  0.2874E+02
   9.138  0.1303E+01  0.2876E+02
   9.148  0.1313E+01  0.2877E+02
   9.158  0.1322E+01  0.2878E+02
   9.168  0.1332E+01  0.2880E+02
   9.178  0.1341E+01  0.2881E+02
   9.188  0.1349E+01  0.2882E+02
   9.198  0.1358E+01  0.2884E+02
   9.208  0.1366E+01  0.2885E+02
   9.218  0.1374E+01  0.2886E+02
   9.228  0.1382E+01  0.2888E+02
   9.238  0.1389E+01  0.2889E+02
   9.248  0.1396E+01  0.2890E+02
   9.258  0.1403E+01  0.2892E+02
   9.268  0.1410E+01  0.2893E+02
   9.278  0.1416E+01  0.2895E+02
   9.288  0.1422E+01  0.2896E+02
   9.298  0.1428E+01  0.2898E+02
   9.308  0.1433E+01  0.2899E+02
   9.318  0.1438E+01  0.2900E+02
   9.328  0.1443E+01  0.2902E+02
   9.338  0.1448E+01  0.2903E+02
   9.348  0.1452E+01  0.2905E+02
   9.358  0.1456E+01  0.2906E+02
   9.368  0.1460E+01  0.2908E+02
   9.378  0.1463E+01  0.2909E+02
   9.388  0.1467E+01  0.2911E+02
   9.398  0.1469E+01  0.2912E+02
   9.408  0.1472E+01  0.2914E+02
   9.418  0.1474E+01  0.2915E+02
   9.428  0.1477E+01  0.2917E+02
   9.438  0.1478E+01  0.2918E+02
   9.448  0.1480E+01  0.2919E+02
   9.458  0.1481E+01  0.2921E+02
   9.468  0.1482E+01  0.2922E+02
   9.478  0.1483E+01  0.2924E+02
   9.488  0.1484E+01  0.2925E+02
   9.498  0.1484E+01  0.2927E+02
   9.508  0.1484E+01  0.2928E+02
   9.518  0.1484E+01  0.2930E+02
   9.528  0.1484E+01  0.2931E+02
   9.538  0.1484E+01  0.2933E+02
   9.548  0.1483E+01  0.2934E+02
   9.558  0.1482E+01  0.2936E+02
   9.568  0.1481E+01  0.2937E+02
   9.578  0.1480E+01  0.2939E+02
   9.588  0.1478E+01  0.2940E+02
   9.598  0.1477E+01  0.2942E+02
   9.608  0.1475E+01  0.2943E+02
   9.618  0.1473E+01  0.2945E+02
   9.628  0.1471E+01  0.2946E+02
   9.638  0.1469E+01  0.2948E+02
   9.648  0.1466E+01  0.2949E+02
   9.658  0.1464E+01  0.2951E+02
   9.668  0.1461E+01  0.2952E+02
   9.678  0.1458E+01  0.2953E+02
   9.688  0.1456E+01  0.2955E+02
   9.698  0.1453E+01  0.2956E+02
   9.708  0.1450E+01  0.2958E+02
   9.718  0.1447E+01  0.2959E+02
   9.728  0.1443E+01  0.2961E+02
   9.738  0.1440E+01  0.2962E+02
   9.748  0.1437E+01  0.2964E+02
   9.758  0.1434E+01  0.2965E+02
   9.768  0.1430E+01  0.2966E+02
   9.778  0.1427E+01  0.2968E+02
   9.788  0.1423E+01  0.2969E+02
   9.798  0.1420E+01  0.2971E+02
   9.808  0.1416E+01  0.2972E+02
   9.818  0.1412E+01  0.2974E+02
   9.828  0.1409E+01  0.2975E+02
   9.838  0.1405E+01  0.2976E+02
   9.848  0.1402E+01  0.2978E+02
   9.858  0.1398E+01  0.2979E+02
   9.868  0.1394E+01  0.2981E+02
   9.878  0.1391E+01  0.2982E+02
   9.888  0.1387E+01  0.2983E+02
   9.898  0.1384E+01  0.2985E+02
   9.908  0.1380E+01  0.2986E+02
   9.918  0.1376E+01  0.2987E+02
   9.928  0.1373E+01  0.2989E+02
   9.938  0.1369E+01  0.2990E+02
   9.948  0.1366E+01  0.2992E+02
   9.958  0.1363E+01  0.2993E+02
   9.968  0.1359E+01  0.2994E+02
   9.978  0.1356E+01  0.2996E+02
   9.988  0.1353E+01  0.2997E+02
   9.998  0.1350E+01  0.2998E+02
  10.008  0.1346E+01  0.3000E+02
  10.018  0.1343E+01  0.3001E+02
  10.028  0.1340E+01  0.3002E+02
  10.038  0.1337E+01  0.3004E+02
  10.048  0.1335E+01  0.3005E+02
  10.058  0.1332E+01  0.3006E+02
  10.068  0.1329E+01  0.3008E+02
  10.078  0.1326E+01  0.3009E+02
  10.088  0.1324E+01  0.3010E+02
  10.098  0.1321E+01  0.3012E+02
  10.108  0.1319E+01  0.3013E+02
  10.118  0.1317E+01  0.3014E+02
  10.128  0.1315E+01  0.3016E+02
  10.138  0.1312E+01  0.3017E+02
  10.148  0.1310E+01  0.3018E+02
  10.158  0.1309E+01  0.3020E+02
  10.168  0.1307E+01  0.3021E+02
  10.178  0.1305E+01  0.3022E+02
  10.188  0.1303E+01  0.3023E+02
  10.198  0.1302E+01  0.3025E+02
  10.208  0.1301E+01  0.3026E+02
  10.218  0.1299E+01  0.3027E+02
  10.228  0.1298E+01  0.3029E+02
  10.238  0.1297E+01  0.3030E+02
  10.248  0.1296E+01  0.3031E+02
  10.258  0.1295E+01  0.3033E+02
  10.268  0.1295E+01  0.3034E+02
  10.278  0.1294E+01  0.3035E+02
  10.288  0.1294E+01  0.3036E+02
  10.298  0.1293E+01  0.3038E+02
  10.308  0.1293E+01  0.3039E+02
  10.318  0.1293E+01  0.3040E+02
  10.328  0.1293E+01  0.3042E+02
  10.338  0.1293E+01  0.3043E+02
  10.348  0.1294E+01  0.3044E+02
  10.358  0.1294E+01  0.3046E+02
  10.368  0.1295E+01  0.3047E+02
  10.378  0.1295E+01  0.3048E+02
  10.388  0.1296E+01  0.3049E+02
  10.398  0.1297E+01  0.3051E+02
  10.408  0.1298E+01  0.3052E+02
  10.418  0.1300E+01  0.3053E+02
  10.428  0.1301E+01  0.3055E+02
  10.438  0.1303E+01  0.3056E+02
  10.448  0.1304E+01  0.3057E+02
  10.458  0.1306E+01  0.3058E+02
  10.468  0.1308E+01  0.3060E+02
  10.478  0.1310E+01  0.3061E+02
  10.488  0.1312E+01  0.3062E+02
  10.498  0.1315E+01  0.3064E+02
  10.508  0.1317E+01  0.3065E+02
  10.518  0.1320E+01  0.3066E+02
  10.528  0.1322E+01  0.3068E+02
  10.538  0.1325E+01  0.3069E+02
  10.548  0.1328E+01  0.3070E+02
  10.558  0.1331E+01  0.3072E+02
  10.568  0.1335E+01  0.3073E+02
  10.578  0.1338E+01  0.3074E+02
  10.588  0.1341E+01  0.3076E+02
  10.598  0.1345E+01  0.3077E+02
  10.608  0.1348E+01  0.3078E+02
  10.618  0.1352E+01  0.3080E+02
  10.628  0.1356E+01  0.3081E+02
  10.638  0.1360E+01  0.3082E+02
  10.648  0.1364E+01  0.3084E+02
  10.658  0.1368E+01  0.3085E+02
  10.668  0.1372E+01  0.3087E+02
  10.678  0.1376E+01  0.3088E+02
  10.688  0.1381E+01  0.3089E+02
  10.698  0.1385E+01  0.3091E+02
  10.708  0.1389E+01  0.3092E+02
  10.718  0.1394E+01  0.3093E+02
  10.728  0.1398E+01  0.3095E+02
  10.738  0.1403E+01  0.3096E+02
  10.748  0.1407E+01  0.3098E+02
  10.758  0.1412E+01  0.3099E+02
  10.768  0.1416E+01  0.3101E+02
  10.778  0.1421E+01  0.3102E+02
  10.788  0.1426E+01  0.3103E+02
  10.798  0.1430E+01  0.3105E+02
  10.808  0.1435E+01  0.3106E+02
  10.818  0.1439E+01  0.3108E+02
  10.828  0.1444E+01  0.3109E+02
  10.838  0.1448E+01  0.3111E+02
  10.848  0.1453E+01  0.3112E+02
  10.858  0.1457E+01  0.3113E+02
  10.868  0.1462E+01  0.3115E+02
  10.878  0.1466E+01  0.3116E+02
  10.888  0.1470E+01  0.3118E+02
  10.898  0.1474E+01  0.3119E+02
  10.908  0.1478E+01  0.3121E+02
  10.918  0.1482E+01  0.3122E+02
  10.928  0.1486E+01  0.3124E+02
  10.938  0.1490E+01  0.3125E+02
  10.948  0.1494E+01  0.3127E+02
  10.958  0.1498E+01  0.3128E+02
  10.968  0.1501E+01  0.3130E+02
  10.978  0.1505E+01  0.3131E+02
  10.988  0.1508E+01  0.3133E+02
  10.998  0.1512E+01  0.3134E+02
  11.008  0.1515E+01  0.3136E+02
  11.018  0.1518E+01  0.3137E+02
  11.028  0.1521E+01  0.3139E+02
  11.038  0.1524E+01  0.3140E+02
  11.048  0.1526E+01  0.3142E+02
  11.058  0.1529E+01  0.3143E+02
  11.068  0.1531E+01  0.3145E+02
  11.078  0.1534E+01  0.3147E+02
  11.088  0.1536E+01  0.3148E+02
  11.098  0.1538E+01  0.3150E+02
  11.108  0.1540E+01  0.3151E+02
  11.118  0.1542E+01  0.3153E+02
  11.128  0.1544E+01  0.3154E+02
  11.138  0.1545E+01  0.3156E+02
  11.148  0.1547E+01  0.3157E+02
  11.158  0.1548E+01  0.3159E+02
  11.168  0.1550E+01  0.3160E+02
  11.178  0.1551E+01  0.3162E+02
  11.188  0.1552E+01  0.3163E+02
  11.198  0.1553E+01  0.3165E+02
  11.208  0.1554E+01  0.3167E+02
  11.218  0.1555E+01  0.3168E+02
  11.228  0.1556E+01  0.3170E+02
  11.238  0.1557E+01  0.3171E+02
  11.248  0.1557E+01  0.3173E+02
  11.258  0.1558E+01  0.3174E+02
  11.268  0.1558E+01  0.3176E+02
  11.278  0.1559E+01  0.3178E+02
  11.288  0.1559E+01  0.3179E+02
  11.298  0.1559E+01  0.3181E+02
  11.308  0.1560E+01  0.3182E+02
  11.318  0.1560E+01  0.3184E+02
  11.328  0.1560E+01  0.3185E+02
  11.338  0.1560E+01  0.3187E+02
  11.348  0.1560E+01  0.3188E+02
  11.358  0.1560E+01  0.3190E+02
  11.368  0.1560E+01  0.3192E+02
  11.378  0.1560E+01  0.3193E+02
  11.388  0.1560E+01  0.3195E+02
  11.398  0.1560E+01  0.3196E+02
  11.408  0.1560E+01  0.3198E+02
  11.418  0.1560E+01  0.3199E+02
  11.428  0.1560E+01  0.3201E+02
  11.438  0.1560E+01  0.3202E+02
  11.448  0.1560E+01  0.3204E+02
  11.458  0.1560E+01  0.3206E+02
  11.468  0.1561E+01  0.3207E+02
  11.478  0.1561E+01  0.3209E+02
  11.488  0.1561E+01  0.3210E+02
  11.498  0.1561E+01  0.3212E+02
  11.508  0.1561E+01  0.3213E+02
  11.518  0.1561E+01  0.3215E+02
  11.528  0.1562E+01  0.3217E+02
  11.538  0.1562E+01  0.3218E+02
  11.548  0.1562E+01  0.3220E+02
  11.558  0.1562E+01  0.3221E+02
  11.568  0.1563E+01  0.3223E+02
  11.578  0.1563E+01  0.3224E+02
  11.588  0.1564E+01  0.3226E+02
  11.598  0.1564E+01  0.3227E+02
  11.608  0.1565E+01  0.3229E+02
  11.618  0.1565E+01  0.3231E+02
  11.628  0.1566E+01  0.3232E+02
  11.638  0.1567E+01  0.3234E+02
  11.648  0.1567E+01  0.3235E+02
  11.658  0.1568E+01  0.3237E+02
  11.668  0.1569E+01  0.3238E+02
  11.678  0.1570E+01  0.3240E+02
  11.688  0.1571E+01  0.3242E+02
  11.698  0.1572E+01  0.3243E+02
  11.708  0.1572E+01  0.3245E+02
  11.718  0.1573E+01  0.3246E+02
  11.728  0.1574E+01  0.3248E+02
  11.738  0.1575E+01  0.3249E+02
  11.748  0.1576E+01  0.3251E+02
  11.758  0.1577E+01  0.3253E+02
  11.768  0.1578E+01  0.3254E+02
  11.778  0.1579E+01  0.3256E+02
  11.788  0.1580E+01  0.3257E+02
  11.798  0.1581E+01  0.3259E+02
  11.808  0.1582E+01  0.3260E+02
  11.818  0.1583E+01  0.3262E+02
  11.828  0.1585E+01  0.3264E+02
  11.838  0.1586E+01  0.3265E+02
  11.848  0.1586E+01  0.3267E+02
  11.858  0.1587E+01  0.3268E+02
  11.868  0.1588E+01  0.3270E+02
  11.878  0.1589E+01  0.3272E+02
  11.888  0.1590E+01  0.3273E+02
  11.898  0.1591E+01  0.3275E+02
  11.908  0.1592E+01  0.3276E+02
  11.918  0.1593E+01  0.3278E+02
  11.928  0.1593E+01  0.3280E+02
  11.938  0.1594E+01  0.3281E+02
  11.948  0.1595E+01  0.3283E+02
  11.958  0.1595E+01  0.3284E+02
  11.968  0.1596E+01  0.3286E+02
  11.978  0.1596E+01  0.3288E+02
  11.988  0.1597E+01  0.3289E+02
  11.998  0.1597E+01  0.3291E+02
  12.008  0.1598E+01  0.3292E+02
  12.018  0.1598E+01  0.3294E+02
  12.028  0.1598E+01  0.3296E+02
  12.038  0.1598E+01  0.3297E+02
  12.048  0.1598E+01  0.3299E+02
  12.058  0.1598E+01  0.3300E+02
  12.068  0.1598E+01  0.3302E+02
  12.078  0.1598E+01  0.3304E+02
  12.088  0.1597E+01  0.3305E+02
  12.098  0.1597E+01  0.3307E+02
  12.108  0.1597E+01  0.3308E+02
  12.118  0.1596E+01  0.3310E+02
  12.128  0.1596E+01  0.3311E+02
  12.138  0.1595E+01  0.3313E+02
  12.148  0.1594E+01  0.3315E+02
  12.158  0.1593E+01  0.3316E+02
  12.168  0.1592E+01  0.3318E+02
  12.178  0.1591E+01  0.3319E+02
  12.188  0.1590E+01  0.3321E+02
  12.198  0.1589E+01  0.3323E+02
  12.208  0.1588E+01  0.3324E+02
  12.218  0.1586E+01  0.3326E+02
  12.228  0.1585E+01  0.3327E+02
  12.238  0.1583E+01  0.3329E+02
  12.248  0.1582E+01  0.3331E+02
  12.258  0.1580E+01  0.3332E+02
  12.268  0.1578E+01  0.3334E+02
  12.278  0.1576E+01  0.3335E+02
  12.288  0.1574E+01  0.3337E+02
  12.298  0.1572E+01  0.3338E+02
  12.308  0.1570E+01  0.3340E+02
  12.318  0.1568E+01  0.3342E+02
  12.328  0.1566E+01  0.3343E+02
  12.338  0.1564E+01  0.3345E+02
  12.348  0.1561E+01  0.3346E+02
  12.358  0.1559E+01  0.3348E+02
  12.368  0.1556E+01  0.3349E+02
  12.378  0.1553E+01  0.3351E+02
  12.388  0.1551E+01  0.3352E+02
  12.398  0.1548E+01  0.3354E+02
  12.408  0.1545E+01  0.3356E+02
  12.418  0.1542E+01  0.3357E+02
  12.428  0.1539E+01  0.3359E+02
  12.438  0.1536E+01  0.3360E+02
  12.448  0.1533E+01  0.3362E+02
  12.458  0.1530E+01  0.3363E+02
  12.468  0.1527E+01  0.3365E+02
  12.478  0.1524E+01  0.3366E+02
  12.488  0.1520E+01  0.3368E+02
  12.498  0.1517E+01  0.3369E+02
  12.508  0.1514E+01  0.3371E+02
  12.518  0.1510E+01  0.3372E+02
  12.528  0.1507E+01  0.3374E+02
  12.538  0.1503E+01  0.3375E+02
  12.548  0.1500E+01  0.3377E+02
  12.558  0.1496E+01  0.3378E+02
  12.568  0.1492E+01  0.3380E+02
  12.578  0.1489E+01  0.3381E+02
  12.588  0.1485E+01  0.3383E+02
  12.598  0.1481E+01  0.3384E+02
  12.608  0.1477E+01  0.3386E+02
  12.618  0.1474E+01  0.3387E+02
  12.628  0.1470E+01  0.3389E+02
  12.638  0.1466E+01  0.3390E+02
  12.648  0.1462E+01  0.3392E+02
  12.658  0.1458E+01  0.3393E+02
  12.668  0.1455E+01  0.3395E+02
  12.678  0.1451E+01  0.3396E+02
  12.688  0.1447E+01  0.3397E+02
  12.698  0.1443E+01  0.3399E+02
  12.708  0.1439E+01  0.3400E+02
  12.718  0.1435E+01  0.3402E+02
  12.728  0.1431E+01  0.3403E+02
  12.738  0.1427E+01  0.3405E+02
  12.748  0.1423E+01  0.3406E+02
  12.758  0.1420E+01  0.3407E+02
  12.768  0.1416E+01  0.3409E+02
  12.778  0.1412E+01  0.3410E+02
  12.788  0.1408E+01  0.3412E+02
  12.798  0.1404E+01  0.3413E+02
  12.808  0.1400E+01  0.3415E+02
  12.818  0.1397E+01  0.3416E+02
  12.828  0.1393E+01  0.3417E+02
  12.838  0.1389E+01  0.3419E+02
  12.848  0.1385E+01  0.3420E+02
  12.858  0.1382E+01  0.3421E+02
  12.868  0.1378E+01  0.3423E+02
  12.878  0.1374E+01  0.3424E+02
  12.888  0.1371E+01  0.3426E+02
  12.898  0.1367E+01  0.3427E+02
  12.908  0.1364E+01  0.3428E+02
  12.918  0.1360E+01  0.3430E+02
  12.928  0.1357E+01  0.3431E+02
  12.938  0.1353E+01  0.3432E+02
  12.948  0.1350E+01  0.3434E+02
  12.958  0.1347E+01  0.3435E+02
  12.968  0.1344E+01  0.3436E+02
  12.978  0.1340E+01  0.3438E+02
  12.988  0.1337E+01  0.3439E+02
  12.998  0.1334E+01  0.3440E+02
  13.008  0.1331E+01  0.3442E+02
  13.018  0.1328E+01  0.3443E+02
  13.028  0.1325E+01  0.3444E+02
  13.038  0.1322E+01  0.3446E+02
  13.048  0.1320E+01  0.3447E+02
  13.058  0.1317E+01  0.3448E+02
  13.068  0.1314E+01  0.3450E+02
  13.078  0.1311E+01  0.3451E+02
  13.088  0.1309E+01  0.3452E+02
  13.098  0.1306E+01  0.3454E+02
  13.108  0.1304E+01  0.3455E+02
  13.118  0.1302E+01  0.3456E+02
  13.128  0.1299E+01  0.3458E+02
  13.138  0.1297E+01  0.3459E+02
  13.148  0.1295E+01  0.3460E+02
  13.158  0.1293E+01  0.3461E+02
  13.168  0.1291E+01  0.3463E+02
  13.178  0.1289E+01  0.3464E+02
  13.188  0.1287E+01  0.3465E+02
  13.198  0.1285E+01  0.3467E+02
  13.208  0.1283E+01  0.3468E+02
  13.218  0.1281E+01  0.3469E+02
  13.228  0.1280E+01  0.3470E+02
  13.238  0.1278E+01  0.3472E+02
  13.248  0.1276E+01  0.3473E+02
  13.258  0.1275E+01  0.3474E+02
  13.268  0.1274E+01  0.3476E+02
  13.278  0.1272E+01  0.3477E+02
  13.288  0.1271E+01  0.3478E+02
  13.298  0.1270E+01  0.3479E+02
  13.308  0.1269E+01  0.3481E+02
  13.318  0.1267E+01  0.3482E+02
  13.328  0.1266E+01  0.3483E+02
  13.338  0.1265E+01  0.3484E+02
  13.348  0.1264E+01  0.3486E+02
  13.358  0.1264E+01  0.3487E+02
  13.368  0.1263E+01  0.3488E+02
  13.378  0.1262E+01  0.3489E+02
  13.388  0.1261E+01  0.3491E+02
  13.398  0.1261E+01  0.3492E+02
  13.408  0.1260E+01  0.3493E+02
  13.418  0.1260E+01  0.3495E+02
  13.428  0.1259E+01  0.3496E+02
  13.438  0.1259E+01  0.3497E+02
  13.448  0.1258E+01  0.3498E+02
  13.458  0.1258E+01  0.3500E+02
  13.468  0.1258E+01  0.3501E+02
  13.478  0.1257E+01  0.3502E+02
  13.488  0.1257E+01  0.3503E+02
  13.498  0.1257E+01  0.3505E+02
  13.508  0.1257E+01  0.3506E+02
  13.518  0.1257E+01  0.3507E+02
  13.528  0.1257E+01  0.3508E+02
  13.538  0.1257E+01  0.3510E+02
  13.548  0.1257E+01  0.3511E+02
  13.558  0.1257E+01  0.3512E+02
  13.568  0.1257E+01  0.3513E+02
  13.578  0.1257E+01  0.3515E+02
  13.588  0.1258E+01  0.3516E+02
  13.598  0.1258E+01  0.3517E+02
  13.608  0.1258E+01  0.3518E+02
  13.618  0.1258E+01  0.3520E+02
  13.628  0.1259E+01  0.3521E+02
  13.638  0.1259E+01  0.3522E+02
  13.648  0.1260E+01  0.3523E+02
  13.658  0.1260E+01  0.3525E+02
  13.668  0.1261E+01  0.3526E+02
  13.678  0.1261E+01  0.3527E+02
  13.688  0.1262E+01  0.3528E+02
  13.698  0.1263E+01  0.3530E+02
  13.708  0.1263E+01  0.3531E+02
  13.718  0.1264E+01  0.3532E+02
  13.728  0.1265E+01  0.3534E+02
  13.738  0.1265E+01  0.3535E+02
  13.748  0.1266E+01  0.3536E+02
  13.758  0.1267E+01  0.3537E+02
  13.768  0.1268E+01  0.3539E+02
  13.778  0.1269E+01  0.3540E+02
  13.788  0.1270E+01  0.3541E+02
  13.798  0.1271E+01  0.3542E+02
  13.808  0.1272E+01  0.3544E+02
  13.818  0.1273E+01  0.3545E+02
  13.828  0.1274E+01  0.3546E+02
  13.838  0.1275E+01  0.3548E+02
  13.848  0.1277E+01  0.3549E+02
  13.858  0.1278E+01  0.3550E+02
  13.868  0.1279E+01  0.3551E+02
  13.878  0.1281E+01  0.3553E+02
  13.888  0.1282E+01  0.3554E+02
  13.898  0.1283E+01  0.3555E+02
  13.908  0.1285E+01  0.3556E+02
  13.918  0.1286E+01  0.3558E+02
  13.928  0.1288E+01  0.3559E+02
  13.938  0.1290E+01  0.3560E+02
  13.948  0.1291E+01  0.3562E+02
  13.958  0.1293E+01  0.3563E+02
  13.968  0.1295E+01  0.3564E+02
  13.978  0.1297E+01  0.3566E+02
  13.988  0.1299E+01  0.3567E+02
  13.998  0.1301E+01  0.3568E+02
  14.008  0.1303E+01  0.3569E+02
  14.018  0.1305E+01  0.3571E+02
  14.028  0.1307E+01  0.3572E+02
  14.038  0.1309E+01  0.3573E+02
  14.048  0.1311E+01  0.3575E+02
  14.058  0.1313E+01  0.3576E+02
  14.068  0.1316E+01  0.3577E+02
  14.078  0.1318E+01  0.3579E+02
  14.088  0.1321E+01  0.3580E+02
  14.098  0.1323E+01  0.3581E+02
  14.108  0.1326E+01  0.3583E+02
  14.118  0.1328E+01  0.3584E+02
  14.128  0.1331E+01  0.3585E+02
  14.138  0.1334E+01  0.3587E+02
  14.148  0.1336E+01  0.3588E+02
  14.158  0.1339E+01  0.3589E+02
  14.168  0.1342E+01  0.3591E+02
  14.178  0.1345E+01  0.3592E+02
  14.188  0.1348E+01  0.3593E+02
  14.198  0.1351E+01  0.3595E+02
  14.208  0.1354E+01  0.3596E+02
  14.218  0.1358E+01  0.3597E+02
  14.228  0.1361E+01  0.3599E+02
  14.238  0.1364E+01  0.3600E+02
  14.248  0.1367E+01  0.3601E+02
  14.258  0.1371E+01  0.3603E+02
  14.268  0.1374E+01  0.3604E+02
  14.278  0.1378E+01  0.3606E+02
  14.288  0.1381E+01  0.3607E+02
  14.298  0.1385E+01  0.3608E+02
  14.308  0.1388E+01  0.3610E+02
  14.318  0.1392E+01  0.3611E+02
  14.328  0.1396E+01  0.3612E+02
  14.338  0.1399E+01  0.3614E+02
  14.348  0.1403E+01  0.3615E+02
  14.358  0.1407E+01  0.3617E+02
  14.368  0.1411E+01  0.3618E+02
  14.378  0.1415E+01  0.3620E+02
  14.388  0.1419E+01  0.3621E+02
  14.398  0.1423E+01  0.3622E+02
  14.408  0.1427E+01  0.3624E+02
  14.418  0.1431E+01  0.3625E+02
  14.428  0.1435E+01  0.3627E+02
  14.438  0.1439E+01  0.3628E+02
  14.448  0.1443E+01  0.3630E+02
  14.458  0.1447E+01  0.3631E+02
  14.468  0.1451E+01  0.3632E+02
  14.478  0.1455E+01  0.3634E+02
  14.488  0.1459E+01  0.3635E+02
  14.498  0.1463E+01  0.3637E+02
  14.508  0.1467E+01  0.3638E+02
  14.518  0.1471E+01  0.3640E+02
  14.528  0.1475E+01  0.3641E+02
  14.538  0.1480E+01  0.3643E+02
  14.548  0.1484E+01  0.3644E+02
  14.558  0.1488E+01  0.3646E+02
  14.568  0.1492E+01  0.3647E+02
  14.578  0.1496E+01  0.3649E+02
  14.588  0.1500E+01  0.3650E+02
  14.598  0.1504E+01  0.3652E+02
  14.608  0.1509E+01  0.3653E+02
  14.618  0.1513E+01  0.3655E+02
  14.628  0.1517E+01  0.3656E+02
  14.638  0.1521E+01  0.3658E+02
  14.648  0.1525E+01  0.3659E+02
  14.658  0.1529E+01  0.3661E+02
  14.668  0.1533E+01  0.3662E+02
  14.678  0.1537E+01  0.3664E+02
  14.688  0.1541E+01  0.3665E+02
  14.698  0.1545E+01  0.3667E+02
  14.708  0.1549E+01  0.3668E+02
  14.718  0.1553E+01  0.3670E+02
  14.728  0.1557E+01  0.3672E+02
  14.738  0.1561E+01  0.3673E+02
  14.748  0.1565E+01  0.3675E+02
  14.758  0.1569E+01  0.3676E+02
  14.768  0.1573E+01  0.3678E+02
  14.778  0.1577E+01  0.3679E+02
  14.788  0.1580E+01  0.3681E+02
  14.798  0.1584E+01  0.3683E+02
  14.808  0.1588E+01  0.3684E+02
  14.818  0.1592E+01  0.3686E+02
  14.828  0.1595E+01  0.3687E+02
  14.838  0.1599E+01  0.3689E+02
  14.848  0.1603E+01  0.3691E+02
  14.858  0.1606E+01  0.3692E+02
  14.868  0.1610E+01  0.3694E+02
  14.878  0.1614E+01  0.3695E+02
  14.888  0.1617E+01  0.3697E+02
  14.898  0.1621E+01  0.3699E+02
  14.908  0.1624E+01  0.3700E+02
  14.918  0.1628E+01  0.3702E+02
  14.928  0.1631E+01  0.3704E+02
  14.938  0.1634E+01  0.3705E+02
  14.948  0.1638E+01  0.3707E+02
  14.958  0.1641E+01  0.3708E+02
  14.968  0.1644E+01  0.3710E+02
  14.978  0.1647E+01  0.3712E+02
  14.988  0.1651E+01  0.3713E+02
  14.998  0.1654E+01  0.3715E+02
  15.008  0.1657E+01  0.3717E+02
  15.018  0.1660E+01  0.3718E+02
  15.028  0.1663E+01  0.3720E+02
  15.038  0.1666E+01  0.3722E+02
  15.048  0.1669E+01  0.3723E+02
  15.058  0.1672E+01  0.3725E+02
  15.068  0.1675E+01  0.3727E+02
  15.078  0.1677E+01  0.3728E+02
  15.088  0.1680E+01  0.3730E+02
  15.098  0.1683E+01  0.3732E+02
  15.108  0.1686E+01  0.3733E+02
  15.118  0.1688E+01  0.3735E+02
  15.128  0.1691E+01  0.3737E+02
  15.138  0.1693E+01  0.3738E+02
  15.148  0.1696E+01  0.3740E+02
  15.158  0.1698E+01  0.3742E+02
  15.168  0.1700E+01  0.3744E+02
  15.178  0.1703E+01  0.3745E+02
  15.188  0.1705E+01  0.3747E+02
  15.198  0.1707E+01  0.3749E+02
  15.208  0.1709E+01  0.3750E+02
  15.218  0.1711E+01  0.3752E+02
  15.228  0.1713E+01  0.3754E+02
  15.238  0.1715E+01  0.3756E+02
  15.248  0.1717E+01  0.3757E+02
  15.258  0.1719E+01  0.3759E+02
  15.268  0.1721E+01  0.3761E+02
  15.278  0.1722E+01  0.3762E+02
  15.288  0.1724E+01  0.3764E+02
  15.298  0.1725E+01  0.3766E+02
  15.308  0.1727E+01  0.3768E+02
  15.318  0.1728E+01  0.3769E+02
  15.328  0.1730E+01  0.3771E+02
  15.338  0.1731E+01  0.3773E+02
  15.348  0.1732E+01  0.3775E+02
  15.358  0.1733E+01  0.3776E+02
  15.368  0.1734E+01  0.3778E+02
  15.378  0.1735E+01  0.3780E+02
  15.388  0.1736E+01  0.3781E+02
  15.398  0.1737E+01  0.3783E+02
  15.408  0.1738E+01  0.3785E+02
  15.418  0.1739E+01  0.3787E+02
  15.428  0.1739E+01  0.3788E+02
  15.438  0.1740E+01  0.3790E+02
  15.448  0.1741E+01  0.3792E+02
  15.458  0.1741E+01  0.3794E+02
  15.468  0.1741E+01  0.3795E+02
  15.478  0.1742E+01  0.3797E+02
  15.488  0.1742E+01  0.3799E+02
  15.498  0.1742E+01  0.3801E+02
  15.508  0.1743E+01  0.3802E+02
  15.518  0.1743E+01  0.3804E+02
  15.528  0.1743E+01  0.3806E+02
  15.538  0.1743E+01  0.3808E+02
  15.548  0.1743E+01  0.3809E+02
  15.558  0.1743E+01  0.3811E+02
  15.568  0.1743E+01  0.3813E+02
  15.578  0.1743E+01  0.3815E+02
  15.588  0.1742E+01  0.3816E+02
  15.598  0.1742E+01  0.3818E+02
  15.608  0.1742E+01  0.3820E+02
  15.618  0.1742E+01  0.3822E+02
  15.628  0.1741E+01  0.3823E+02
  15.638  0.1741E+01  0.3825E+02
  15.648  0.1741E+01  0.3827E+02
  15.658  0.1740E+01  0.3828E+02
  15.668  0.1740E+01  0.3830E+02
  15.678  0.1740E+01  0.3832E+02
  15.688  0.1739E+01  0.3834E+02
  15.698  0.1739E+01  0.3835E+02
  15.708  0.1738E+01  0.3837E+02
  15.718  0.1738E+01  0.3839E+02
  15.728  0.1737E+01  0.3841E+02
  15.738  0.1737E+01  0.3842E+02
  15.748  0.1736E+01  0.3844E+02
  15.758  0.1736E+01  0.3846E+02
  15.768  0.1735E+01  0.3848E+02
  15.778  0.1735E+01  0.3849E+02
  15.788  0.1735E+01  0.3851E+02
  15.798  0.1734E+01  0.3853E+02
  15.808  0.1734E+01  0.3855E+02
  15.818  0.1733E+01  0.3856E+02
  15.828  0.1733E+01  0.3858E+02
  15.838  0.1733E+01  0.3860E+02
  15.848  0.1732E+01  0.3861E+02
  15.858  0.1732E+01  0.3863E+02
  15.868  0.1732E+01  0.3865E+02
  15.878  0.1732E+01  0.3867E+02
  15.888  0.1731E+01  0.3868E+02
  15.898  0.1731E+01  0.3870E+02
  15.908  0.1731E+01  0.3872E+02
  15.918  0.1731E+01  0.3874E+02
  15.928  0.1731E+01  0.3875E+02
  15.938  0.1731E+01  0.3877E+02
  15.948  0.1731E+01  0.3879E+02
  15.958  0.1731E+01  0.3881E+02
  15.968  0.1731E+01  0.3882E+02
  15.978  0.1732E+01  0.3884E+02
  15.988  0.1732E+01  0.3886E+02
  15.998  0.1732E+01  0.3887E+02
  16.008  0.1733E+01  0.3889E+02
  16.018  0.1733E+01  0.3891E+02
  16.028  0.1733E+01  0.3893E+02
  16.038  0.1734E+01  0.3894E+02
  16.048  0.1735E+01  0.3896E+02
  16.058  0.1735E+01  0.3898E+02
  16.068  0.1736E+01  0.3900E+02
  16.078  0.1737E+01  0.3901E+02
  16.088  0.1737E+01  0.3903E+02
  16.098  0.1738E+01  0.3905E+02
  16.108  0.1739E+01  0.3907E+02
  16.118  0.1740E+01  0.3908E+02
  16.128  0.1741E+01  0.3910E+02
  16.138  0.1742E+01  0.3912E+02
  16.148  0.1743E+01  0.3913E+02
  16.158  0.1745E+01  0.3915E+02
  16.168  0.1746E+01  0.3917E+02
  16.178  0.1747E+01  0.3919E+02
  16.188  0.1749E+01  0.3920E+02
  16.198  0.1750E+01  0.3922E+02
  16.208  0.1751E+01  0.3924E+02
  16.218  0.1753E+01  0.3926E+02
  16.228  0.1754E+01  0.3927E+02
  16.238  0.1756E+01  0.3929E+02
  16.248  0.1758E+01  0.3931E+02
  16.258  0.1759E+01  0.3933E+02
  16.268  0.1761E+01  0.3935E+02
  16.278  0.1763E+01  0.3936E+02
  16.288  0.1765E+01  0.3938E+02
  16.298  0.1767E+01  0.3940E+02
  16.308  0.1769E+01  0.3942E+02
  16.318  0.1771E+01  0.3943E+02
  16.328  0.1773E+01  0.3945E+02
  16.338  0.1775E+01  0.3947E+02
  16.348  0.1777E+01  0.3949E+02
  16.358  0.1779E+01  0.3950E+02
  16.368  0.1781E+01  0.3952E+02
  16.378  0.1783E+01  0.3954E+02
  16.388  0.1785E+01  0.3956E+02
  16.398  0.1788E+01  0.3958E+02
  16.408  0.1790E+01  0.3959E+02
  16.418  0.1792E+01  0.3961E+02
  16.428  0.1794E+01  0.3963E+02
  16.438  0.1797E+01  0.3965E+02
  16.448  0.1799E+01  0.3967E+02
  16.458  0.1802E+01  0.3968E+02
  16.468  0.1804E+01  0.3970E+02
  16.478  0.1806E+01  0.3972E+02
  16.488  0.1809E+01  0.3974E+02
  16.498  0.1811E+01  0.3976E+02
  16.508  0.1814E+01  0.3977E+02
  16.518  0.1816E+01  0.3979E+02
  16.528  0.1819E+01  0.3981E+02
  16.538  0.1821E+01  0.3983E+02
  16.548  0.1824E+01  0.3985E+02
  16.558  0.1826E+01  0.3987E+02
  16.568  0.1829E+01  0.3988E+02
  16.578  0.1831E+01  0.3990E+02
  16.588  0.1834E+01  0.3992E+02
  16.598  0.1836E+01  0.3994E+02
  16.608  0.1839E+01  0.3996E+02
  16.618  0.1842E+01  0.3998E+02
  16.628  0.1844E+01  0.3999E+02
  16.638  0.1847E+01  0.4001E+02
  16.648  0.1849E+01  0.4003E+02
  16.658  0.1852E+01  0.4005E+02
  16.668  0.1854E+01  0.4007E+02
  16.678  0.1857E+01  0.4009E+02
  16.688  0.1859E+01  0.4011E+02
  16.698  0.1862E+01  0.4012E+02
  16.708  0.1864E+01  0.4014E+02
  16.718  0.1867E+01  0.4016E+02
  16.728  0.1869E+01  0.4018E+02
  16.738  0.1872E+01  0.4020E+02
  16.748  0.1874E+01  0.4022E+02
  16.758  0.1877E+01  0.4024E+02
  16.768  0.1879E+01  0.4025E+02
  16.778  0.1882E+01  0.4027E+02
  16.788  0.1884E+01  0.4029E+02
  16.798  0.1887E+01  0.4031E+02
  16.808  0.1889E+01  0.4033E+02
  16.818  0.1891E+01  0.4035E+02
  16.828  0.1894E+01  0.4037E+02
  16.838  0.1896E+01  0.4039E+02
  16.848  0.1898E+01  0.4041E+02
  16.858  0.1900E+01  0.4042E+02
  16.868  0.1903E+01  0.4044E+02
  16.878  0.1905E+01  0.4046E+02
  16.888  0.1907E+01  0.4048E+02
  16.898  0.1909E+01  0.4050E+02
  16.908  0.1911E+01  0.4052E+02
  16.918  0.1914E+01  0.4054E+02
  16.928  0.1916E+01  0.4056E+02
  16.938  0.1918E+01  0.4058E+02
  16.948  0.1920E+01  0.4060E+02
  16.958  0.1922E+01  0.4062E+02
  16.968  0.1924E+01  0.4064E+02
  16.978  0.1926E+01  0.4065E+02
  16.988  0.1928E+01  0.4067E+02
  16.998  0.1930E+01  0.4069E+02
  17.008  0.1932E+01  0.4071E+02
  17.018  0.1933E+01  0.4073E+02
  17.028  0.1935E+01  0.4075E+02
  17.038  0.1937E+01  0.4077E+02
  17.048  0.1939E+01  0.4079E+02
  17.058  0.1940E+01  0.4081E+02
  17.068  0.1942E+01  0.4083E+02
  17.078  0.1944E+01  0.4085E+02
  17.088  0.1945E+01  0.4087E+02
  17.098  0.1947E+01  0.4089E+02
  17.108  0.1949E+01  0.4091E+02
  17.118  0.1950E+01  0.4093E+02
  17.128  0.1952E+01  0.4095E+02
  17.138  0.1953E+01  0.4097E+02
  17.148  0.1955E+01  0.4098E+02
  17.158  0.1956E+01  0.4100E+02
  17.168  0.1957E+01  0.4102E+02
  17.178  0.1959E+01  0.4104E+02
  17.188  0.1960E+01  0.4106E+02
  17.198  0.1961E+01  0.4108E+02
  17.208  0.1963E+01  0.4110E+02
  17.218  0.1964E+01  0.4112E+02
  17.228  0.1965E+01  0.4114E+02
  17.238  0.1966E+01  0.4116E+02
  17.248  0.1967E+01  0.4118E+02
  17.258  0.1968E+01  0.4120E+02
  17.268  0.1970E+01  0.4122E+02
  17.278  0.1971E+01  0.4124E+02
  17.288  0.1972E+01  0.4126E+02
  17.298  0.1973E+01  0.4128E+02
  17.308  0.1974E+01  0.4130E+02
  17.318  0.1974E+01  0.4132E+02
  17.328  0.1975E+01  0.4134E+02
  17.338  0.1976E+01  0.4136E+02
  17.348  0.1977E+01  0.4138E+02
  17.358  0.1978E+01  0.4140E+02
  17.368  0.1979E+01  0.4142E+02
  17.378  0.1979E+01  0.4144E+02
  17.388  0.1980E+01  0.4146E+02
  17.398  0.1981E+01  0.4148E+02
  17.408  0.1981E+01  0.4150E+02
  17.418  0.1982E+01  0.4152E+02
  17.428  0.1982E+01  0.4154E+02
  17.438  0.1983E+01  0.4156E+02
  17.448  0.1983E+01  0.4158E+02
  17.458  0.1984E+01  0.4160E+02
  17.468  0.1984E+01  0.4162E+02
  17.478  0.1985E+01  0.4164E+02
  17.488  0.1985E+01  0.4166E+02
  17.498  0.1985E+01  0.4168E+02
  17.508  0.1986E+01  0.4170E+02
  17.518  0.1986E+01  0.4172E+02
  17.528  0.1986E+01  0.4174E+02
  17.538  0.1986E+01  0.4175E+02
  17.548  0.1986E+01  0.4177E+02
  17.558  0.1986E+01  0.4179E+02
  17.568  0.1986E+01  0.4181E+02
  17.578  0.1986E+01  0.4183E+02
  17.588  0.1986E+01  0.4185E+02
  17.598  0.1986E+01  0.4187E+02
  17.608  0.1986E+01  0.4189E+02
  17.618  0.1986E+01  0.4191E+02
  17.628  0.1986E+01  0.4193E+02
  17.638  0.1986E+01  0.4195E+02
  17.648  0.1985E+01  0.4197E+02
  17.658  0.1985E+01  0.4199E+02
  17.668  0.1985E+01  0.4201E+02
  17.678  0.1984E+01  0.4203E+02
  17.688  0.1984E+01  0.4205E+02
  17.698  0.1983E+01  0.4207E+02
  17.708  0.1983E+01  0.4209E+02
  17.718  0.1982E+01  0.4211E+02
  17.728  0.1981E+01  0.4213E+02
  17.738  0.1981E+01  0.4215E+02
  17.748  0.1980E+01  0.4217E+02
  17.758  0.1979E+01  0.4219E+02
  17.768  0.1978E+01  0.4221E+02
  17.778  0.1978E+01  0.4223E+02
  17.788  0.1977E+01  0.4225E+02
  17.798  0.1976E+01  0.4227E+02
  17.808  0.1975E+01  0.4229E+02
  17.818  0.1974E+01  0.4231E+02
  17.828  0.1973E+01  0.4233E+02
  17.838  0.1972E+01  0.4235E+02
  17.848  0.1970E+01  0.4237E+02
  17.858  0.1969E+01  0.4239E+02
  17.868  0.1968E+01  0.4241E+02
  17.878  0.1967E+01  0.4243E+02
  17.888  0.1965E+01  0.4245E+02
  17.898  0.1964E+01  0.4247E+02
  17.908  0.1962E+01  0.4249E+02
  17.918  0.1961E+01  0.4251E+02
  17.928  0.1960E+01  0.4253E+02
  17.938  0.1958E+01  0.4255E+02
  17.948  0.1956E+01  0.4257E+02
  17.958  0.1955E+01  0.4259E+02
  17.968  0.1953E+01  0.4260E+02
  17.978  0.1952E+01  0.4262E+02
  17.988  0.1950E+01  0.4264E+02
  17.998  0.1948E+01  0.4266E+02
  18.008  0.1946E+01  0.4268E+02
  18.018  0.1945E+01  0.4270E+02
  18.028  0.1943E+01  0.4272E+02
  18.038  0.1941E+01  0.4274E+02
  18.048  0.1939E+01  0.4276E+02
  18.058  0.1937E+01  0.4278E+02
  18.068  0.1935E+01  0.4280E+02
  18.078  0.1933E+01  0.4282E+02
  18.088  0.1931E+01  0.4284E+02
  18.098  0.1929E+01  0.4286E+02
  18.108  0.1927E+01  0.4288E+02
  18.118  0.1925E+01  0.4290E+02
  18.128  0.1923E+01  0.4291E+02
  18.138  0.1921E+01  0.4293E+02
  18.148  0.1919E+01  0.4295E+02
  18.158  0.1917E+01  0.4297E+02
  18.168  0.1915E+01  0.4299E+02
  18.178  0.1913E+01  0.4301E+02
