#  E (eV)   dos(E)     Int dos(E) EFermi =   7.983 eV
 -14.866  0.5816E-03  0.5816E-05
 -14.856  0.6972E-03  0.1279E-04
 -14.846  0.8345E-03  0.2113E-04
 -14.836  0.9971E-03  0.3110E-04
 -14.826  0.1189E-02  0.4300E-04
 -14.816  0.1416E-02  0.5716E-04
 -14.806  0.1684E-02  0.7400E-04
 -14.796  0.1998E-02  0.9398E-04
 -14.786  0.2368E-02  0.1177E-03
 -14.776  0.2801E-02  0.1457E-03
 -14.766  0.3308E-02  0.1788E-03
 -14.756  0.3900E-02  0.2177E-03
 -14.746  0.4590E-02  0.2636E-03
 -14.736  0.5393E-02  0.3176E-03
 -14.726  0.6327E-02  0.3809E-03
 -14.716  0.7410E-02  0.4549E-03
 -14.706  0.8663E-02  0.5416E-03
 -14.696  0.1011E-01  0.6427E-03
 -14.686  0.1178E-01  0.7605E-03
 -14.676  0.1371E-01  0.8976E-03
 -14.666  0.1592E-01  0.1057E-02
 -14.656  0.1846E-01  0.1241E-02
 -14.646  0.2137E-01  0.1455E-02
 -14.636  0.2470E-01  0.1702E-02
 -14.626  0.2850E-01  0.1987E-02
 -14.616  0.3283E-01  0.2315E-02
 -14.606  0.3775E-01  0.2693E-02
 -14.596  0.4335E-01  0.3127E-02
 -14.586  0.4969E-01  0.3623E-02
 -14.576  0.5686E-01  0.4192E-02
 -14.566  0.6497E-01  0.4842E-02
 -14.556  0.7410E-01  0.5583E-02
 -14.546  0.8439E-01  0.6427E-02
 -14.536  0.9594E-01  0.7386E-02
 -14.526  0.1089E+00  0.8475E-02
 -14.516  0.1234E+00  0.9709E-02
 -14.506  0.1396E+00  0.1111E-01
 -14.496  0.1577E+00  0.1268E-01
 -14.486  0.1779E+00  0.1446E-01
 -14.476  0.2003E+00  0.1647E-01
 -14.466  0.2252E+00  0.1872E-01
 -14.456  0.2527E+00  0.2124E-01
 -14.446  0.2832E+00  0.2408E-01
 -14.436  0.3168E+00  0.2724E-01
 -14.426  0.3539E+00  0.3078E-01
 -14.416  0.3947E+00  0.3473E-01
 -14.406  0.4395E+00  0.3913E-01
 -14.396  0.4886E+00  0.4401E-01
 -14.386  0.5423E+00  0.4944E-01
 -14.376  0.6010E+00  0.5545E-01
 -14.366  0.6650E+00  0.6210E-01
 -14.356  0.7347E+00  0.6944E-01
 -14.346  0.8104E+00  0.7755E-01
 -14.336  0.8925E+00  0.8647E-01
 -14.326  0.9814E+00  0.9628E-01
 -14.316  0.1077E+01  0.1071E+00
 -14.306  0.1181E+01  0.1189E+00
 -14.296  0.1293E+01  0.1318E+00
 -14.286  0.1413E+01  0.1459E+00
 -14.276  0.1542E+01  0.1613E+00
 -14.266  0.1680E+01  0.1781E+00
 -14.256  0.1828E+01  0.1964E+00
 -14.246  0.1985E+01  0.2163E+00
 -14.236  0.2154E+01  0.2378E+00
 -14.226  0.2332E+01  0.2611E+00
 -14.216  0.2522E+01  0.2864E+00
 -14.206  0.2724E+01  0.3136E+00
 -14.196  0.2937E+01  0.3430E+00
 -14.186  0.3162E+01  0.3746E+00
 -14.176  0.3400E+01  0.4086E+00
 -14.166  0.3650E+01  0.4451E+00
 -14.156  0.3913E+01  0.4842E+00
 -14.146  0.4188E+01  0.5261E+00
 -14.136  0.4477E+01  0.5709E+00
 -14.126  0.4779E+01  0.6187E+00
 -14.116  0.5094E+01  0.6696E+00
 -14.106  0.5423E+01  0.7238E+00
 -14.096  0.5764E+01  0.7815E+00
 -14.086  0.6119E+01  0.8426E+00
 -14.076  0.6486E+01  0.9075E+00
 -14.066  0.6866E+01  0.9762E+00
 -14.056  0.7259E+01  0.1049E+01
 -14.046  0.7663E+01  0.1125E+01
 -14.036  0.8080E+01  0.1206E+01
 -14.026  0.8507E+01  0.1291E+01
 -14.016  0.8946E+01  0.1381E+01
 -14.006  0.9395E+01  0.1475E+01
 -13.996  0.9854E+01  0.1573E+01
 -13.986  0.1032E+02  0.1676E+01
 -13.976  0.1080E+02  0.1784E+01
 -13.966  0.1128E+02  0.1897E+01
 -13.956  0.1177E+02  0.2015E+01
 -13.946  0.1227E+02  0.2138E+01
 -13.936  0.1277E+02  0.2265E+01
 -13.926  0.1328E+02  0.2398E+01
 -13.916  0.1379E+02  0.2536E+01
 -13.906  0.1430E+02  0.2679E+01
 -13.896  0.1482E+02  0.2827E+01
 -13.886  0.1533E+02  0.2981E+01
 -13.876  0.1585E+02  0.3139E+01
 -13.866  0.1636E+02  0.3303E+01
 -13.856  0.1687E+02  0.3472E+01
 -13.846  0.1738E+02  0.3645E+01
 -13.836  0.1788E+02  0.3824E+01
 -13.826  0.1837E+02  0.4008E+01
 -13.816  0.1886E+02  0.4196E+01
 -13.806  0.1934E+02  0.4390E+01
 -13.796  0.1981E+02  0.4588E+01
 -13.786  0.2028E+02  0.4791E+01
 -13.776  0.2073E+02  0.4998E+01
 -13.766  0.2116E+02  0.5210E+01
 -13.756  0.2159E+02  0.5426E+01
 -13.746  0.2200E+02  0.5645E+01
 -13.736  0.2239E+02  0.5869E+01
 -13.726  0.2277E+02  0.6097E+01
 -13.716  0.2313E+02  0.6328E+01
 -13.706  0.2347E+02  0.6563E+01
 -13.696  0.2380E+02  0.6801E+01
 -13.686  0.2410E+02  0.7042E+01
 -13.676  0.2439E+02  0.7286E+01
 -13.666  0.2465E+02  0.7532E+01
 -13.656  0.2489E+02  0.7781E+01
 -13.646  0.2511E+02  0.8032E+01
 -13.636  0.2531E+02  0.8286E+01
 -13.626  0.2548E+02  0.8540E+01
 -13.616  0.2563E+02  0.8797E+01
 -13.606  0.2576E+02  0.9054E+01
 -13.596  0.2586E+02  0.9313E+01
 -13.586  0.2593E+02  0.9572E+01
 -13.576  0.2598E+02  0.9832E+01
 -13.566  0.2601E+02  0.1009E+02
 -13.556  0.2601E+02  0.1035E+02
 -13.546  0.2599E+02  0.1061E+02
 -13.536  0.2594E+02  0.1087E+02
 -13.526  0.2586E+02  0.1113E+02
 -13.516  0.2576E+02  0.1139E+02
 -13.506  0.2563E+02  0.1164E+02
 -13.496  0.2548E+02  0.1190E+02
 -13.486  0.2531E+02  0.1215E+02
 -13.476  0.2511E+02  0.1240E+02
 -13.466  0.2489E+02  0.1265E+02
 -13.456  0.2464E+02  0.1290E+02
 -13.446  0.2437E+02  0.1314E+02
 -13.436  0.2408E+02  0.1338E+02
 -13.426  0.2377E+02  0.1362E+02
 -13.416  0.2343E+02  0.1385E+02
 -13.406  0.2308E+02  0.1409E+02
 -13.396  0.2271E+02  0.1431E+02
 -13.386  0.2232E+02  0.1454E+02
 -13.376  0.2191E+02  0.1476E+02
 -13.366  0.2149E+02  0.1497E+02
 -13.356  0.2105E+02  0.1518E+02
 -13.346  0.2060E+02  0.1539E+02
 -13.336  0.2014E+02  0.1559E+02
 -13.326  0.1966E+02  0.1578E+02
 -13.316  0.1917E+02  0.1598E+02
 -13.306  0.1867E+02  0.1616E+02
 -13.296  0.1817E+02  0.1634E+02
 -13.286  0.1766E+02  0.1652E+02
 -13.276  0.1714E+02  0.1669E+02
 -13.266  0.1662E+02  0.1686E+02
 -13.256  0.1609E+02  0.1702E+02
 -13.246  0.1556E+02  0.1718E+02
 -13.236  0.1503E+02  0.1733E+02
 -13.226  0.1450E+02  0.1747E+02
 -13.216  0.1397E+02  0.1761E+02
 -13.206  0.1345E+02  0.1774E+02
 -13.196  0.1293E+02  0.1787E+02
 -13.186  0.1241E+02  0.1800E+02
 -13.176  0.1189E+02  0.1812E+02
 -13.166  0.1139E+02  0.1823E+02
 -13.156  0.1089E+02  0.1834E+02
 -13.146  0.1040E+02  0.1844E+02
 -13.136  0.9917E+01  0.1854E+02
 -13.126  0.9445E+01  0.1864E+02
 -13.116  0.8984E+01  0.1873E+02
 -13.106  0.8533E+01  0.1881E+02
 -13.096  0.8094E+01  0.1889E+02
 -13.086  0.7668E+01  0.1897E+02
 -13.076  0.7253E+01  0.1904E+02
 -13.066  0.6852E+01  0.1911E+02
 -13.056  0.6464E+01  0.1918E+02
 -13.046  0.6089E+01  0.1924E+02
 -13.036  0.5728E+01  0.1929E+02
 -13.026  0.5381E+01  0.1935E+02
 -13.016  0.5048E+01  0.1940E+02
 -13.006  0.4728E+01  0.1945E+02
 -12.996  0.4422E+01  0.1949E+02
 -12.986  0.4131E+01  0.1953E+02
 -12.976  0.3853E+01  0.1957E+02
 -12.966  0.3588E+01  0.1961E+02
 -12.956  0.3337E+01  0.1964E+02
 -12.946  0.3098E+01  0.1967E+02
 -12.936  0.2873E+01  0.1970E+02
 -12.926  0.2660E+01  0.1973E+02
 -12.916  0.2459E+01  0.1975E+02
 -12.906  0.2270E+01  0.1977E+02
 -12.896  0.2092E+01  0.1979E+02
 -12.886  0.1925E+01  0.1981E+02
 -12.876  0.1769E+01  0.1983E+02
 -12.866  0.1624E+01  0.1985E+02
 -12.856  0.1487E+01  0.1986E+02
 -12.846  0.1361E+01  0.1988E+02
 -12.836  0.1243E+01  0.1989E+02
 -12.826  0.1133E+01  0.1990E+02
 -12.816  0.1032E+01  0.1991E+02
 -12.806  0.9383E+00  0.1992E+02
 -12.796  0.8517E+00  0.1993E+02
 -12.786  0.7720E+00  0.1993E+02
 -12.776  0.6986E+00  0.1994E+02
 -12.766  0.6312E+00  0.1995E+02
 -12.756  0.5694E+00  0.1995E+02
 -12.746  0.5129E+00  0.1996E+02
 -12.736  0.4613E+00  0.1996E+02
 -12.726  0.4142E+00  0.1997E+02
 -12.716  0.3713E+00  0.1997E+02
 -12.706  0.3323E+00  0.1997E+02
 -12.696  0.2970E+00  0.1998E+02
 -12.686  0.2650E+00  0.1998E+02
 -12.676  0.2360E+00  0.1998E+02
 -12.666  0.2099E+00  0.1998E+02
 -12.656  0.1864E+00  0.1999E+02
 -12.646  0.1653E+00  0.1999E+02
 -12.636  0.1463E+00  0.1999E+02
 -12.626  0.1293E+00  0.1999E+02
 -12.616  0.1140E+00  0.1999E+02
 -12.606  0.1005E+00  0.1999E+02
 -12.596  0.8834E-01  0.1999E+02
 -12.586  0.7757E-01  0.1999E+02
 -12.576  0.6799E-01  0.2000E+02
 -12.566  0.5951E-01  0.2000E+02
 -12.556  0.5199E-01  0.2000E+02
 -12.546  0.4536E-01  0.2000E+02
 -12.536  0.3950E-01  0.2000E+02
 -12.526  0.3435E-01  0.2000E+02
 -12.516  0.2982E-01  0.2000E+02
 -12.506  0.2584E-01  0.2000E+02
 -12.496  0.2236E-01  0.2000E+02
 -12.486  0.1931E-01  0.2000E+02
 -12.476  0.1666E-01  0.2000E+02
 -12.466  0.1434E-01  0.2000E+02
 -12.456  0.1233E-01  0.2000E+02
 -12.446  0.1058E-01  0.2000E+02
 -12.436  0.9063E-02  0.2000E+02
 -12.426  0.7752E-02  0.2000E+02
 -12.416  0.6620E-02  0.2000E+02
 -12.406  0.5643E-02  0.2000E+02
 -12.396  0.4803E-02  0.2000E+02
 -12.386  0.4081E-02  0.2000E+02
 -12.376  0.3462E-02  0.2000E+02
 -12.366  0.2932E-02  0.2000E+02
 -12.356  0.2479E-02  0.2000E+02
 -12.346  0.2092E-02  0.2000E+02
 -12.336  0.1763E-02  0.2000E+02
 -12.326  0.1483E-02  0.2000E+02
 -12.316  0.1246E-02  0.2000E+02
 -12.306  0.1044E-02  0.2000E+02
 -12.296  0.8743E-03  0.2000E+02
 -12.286  0.7306E-03  0.2000E+02
 -12.276  0.6095E-03  0.2000E+02
 -12.266  0.5076E-03  0.2000E+02
 -12.256  0.4221E-03  0.2000E+02
 -12.246  0.3504E-03  0.2000E+02
 -12.236  0.2904E-03  0.2000E+02
 -12.226  0.2402E-03  0.2000E+02
 -12.216  0.1984E-03  0.2000E+02
 -12.206  0.1636E-03  0.2000E+02
 -12.196  0.1347E-03  0.2000E+02
 -12.186  0.1107E-03  0.2000E+02
 -12.176  0.9078E-04  0.2000E+02
 -12.166  0.7435E-04  0.2000E+02
 -12.156  0.6079E-04  0.2000E+02
 -12.146  0.4962E-04  0.2000E+02
 -12.136  0.4044E-04  0.2000E+02
 -12.126  0.3290E-04  0.2000E+02
 -12.116  0.2672E-04  0.2000E+02
 -12.106  0.2166E-04  0.2000E+02
 -12.096  0.1753E-04  0.2000E+02
 -12.086  0.1417E-04  0.2000E+02
 -12.076  0.1143E-04  0.2000E+02
 -12.066  0.9202E-05  0.2000E+02
 -12.056  0.7398E-05  0.2000E+02
 -12.046  0.5938E-05  0.2000E+02
 -12.036  0.4757E-05  0.2000E+02
 -12.026  0.3805E-05  0.2000E+02
 -12.016  0.3039E-05  0.2000E+02
 -12.006  0.2422E-05  0.2000E+02
 -11.996  0.1928E-05  0.2000E+02
 -11.986  0.1532E-05  0.2000E+02
 -11.976  0.1215E-05  0.2000E+02
 -11.966  0.9617E-06  0.2000E+02
 -11.956  0.7602E-06  0.2000E+02
 -11.946  0.5999E-06  0.2000E+02
 -11.936  0.4725E-06  0.2000E+02
 -11.926  0.3716E-06  0.2000E+02
 -11.916  0.2917E-06  0.2000E+02
 -11.906  0.2287E-06  0.2000E+02
 -11.896  0.1789E-06  0.2000E+02
 -11.886  0.1397E-06  0.2000E+02
 -11.876  0.1090E-06  0.2000E+02
 -11.866  0.8482E-07  0.2000E+02
 -11.856  0.6591E-07  0.2000E+02
 -11.846  0.5113E-07  0.2000E+02
 -11.836  0.3960E-07  0.2000E+02
 -11.826  0.3062E-07  0.2000E+02
 -11.816  0.2363E-07  0.2000E+02
 -11.806  0.1821E-07  0.2000E+02
 -11.796  0.1401E-07  0.2000E+02
 -11.786  0.1075E-07  0.2000E+02
 -11.776  0.8244E-08  0.2000E+02
 -11.766  0.6309E-08  0.2000E+02
 -11.756  0.4820E-08  0.2000E+02
 -11.746  0.3676E-08  0.2000E+02
 -11.736  0.2799E-08  0.2000E+02
 -11.726  0.2127E-08  0.2000E+02
 -11.716  0.1614E-08  0.2000E+02
 -11.706  0.1223E-08  0.2000E+02
 -11.696  0.9245E-09  0.2000E+02
 -11.686  0.6979E-09  0.2000E+02
 -11.676  0.5260E-09  0.2000E+02
 -11.666  0.3957E-09  0.2000E+02
 -11.656  0.2972E-09  0.2000E+02
 -11.646  0.2228E-09  0.2000E+02
 -11.636  0.1668E-09  0.2000E+02
 -11.626  0.1246E-09  0.2000E+02
 -11.616  0.9294E-10  0.2000E+02
 -11.606  0.6921E-10  0.2000E+02
 -11.596  0.5144E-10  0.2000E+02
 -11.586  0.3818E-10  0.2000E+02
 -11.576  0.2828E-10  0.2000E+02
 -11.566  0.2092E-10  0.2000E+02
 -11.556  0.1544E-10  0.2000E+02
 -11.546  0.1138E-10  0.2000E+02
 -11.536  0.8374E-11  0.2000E+02
 -11.526  0.6151E-11  0.2000E+02
 -11.516  0.4510E-11  0.2000E+02
 -11.506  0.3301E-11  0.2000E+02
 -11.496  0.2412E-11  0.2000E+02
 -11.486  0.1760E-11  0.2000E+02
 -11.476  0.1282E-11  0.2000E+02
 -11.466  0.9317E-12  0.2000E+02
 -11.456  0.6761E-12  0.2000E+02
 -11.446  0.4899E-12  0.2000E+02
 -11.436  0.3543E-12  0.2000E+02
 -11.426  0.2558E-12  0.2000E+02
 -11.416  0.1844E-12  0.2000E+02
 -11.406  0.1327E-12  0.2000E+02
 -11.396  0.9530E-13  0.2000E+02
 -11.386  0.6834E-13  0.2000E+02
 -11.376  0.4892E-13  0.2000E+02
 -11.366  0.3496E-13  0.2000E+02
 -11.356  0.2494E-13  0.2000E+02
 -11.346  0.1776E-13  0.2000E+02
 -11.336  0.1263E-13  0.2000E+02
 -11.326  0.8963E-14  0.2000E+02
 -11.316  0.6351E-14  0.2000E+02
 -11.306  0.4492E-14  0.2000E+02
 -11.296  0.3172E-14  0.2000E+02
 -11.286  0.2236E-14  0.2000E+02
 -11.276  0.1573E-14  0.2000E+02
 -11.266  0.1105E-14  0.2000E+02
 -11.256  0.7750E-15  0.2000E+02
 -11.246  0.5425E-15  0.2000E+02
 -11.236  0.3792E-15  0.2000E+02
 -11.226  0.2645E-15  0.2000E+02
 -11.216  0.1842E-15  0.2000E+02
 -11.206  0.1281E-15  0.2000E+02
 -11.196  0.8891E-16  0.2000E+02
 -11.186  0.6160E-16  0.2000E+02
 -11.176  0.4261E-16  0.2000E+02
 -11.166  0.2942E-16  0.2000E+02
 -11.156  0.2028E-16  0.2000E+02
 -11.146  0.1396E-16  0.2000E+02
 -11.136  0.9587E-17  0.2000E+02
 -11.126  0.6575E-17  0.2000E+02
 -11.116  0.4501E-17  0.2000E+02
 -11.106  0.3076E-17  0.2000E+02
 -11.096  0.2099E-17  0.2000E+02
 -11.086  0.1429E-17  0.2000E+02
 -11.076  0.9719E-18  0.2000E+02
 -11.066  0.6596E-18  0.2000E+02
 -11.056  0.4470E-18  0.2000E+02
 -11.046  0.3023E-18  0.2000E+02
 -11.036  0.2041E-18  0.2000E+02
 -11.026  0.1376E-18  0.2000E+02
 -11.016  0.9260E-19  0.2000E+02
 -11.006  0.6221E-19  0.2000E+02
 -10.996  0.4172E-19  0.2000E+02
 -10.986  0.2793E-19  0.2000E+02
 -10.976  0.1867E-19  0.2000E+02
 -10.966  0.1245E-19  0.2000E+02
 -10.956  0.8294E-20  0.2000E+02
 -10.946  0.5515E-20  0.2000E+02
 -10.936  0.3660E-20  0.2000E+02
 -10.926  0.2425E-20  0.2000E+02
 -10.916  0.1604E-20  0.2000E+02
 -10.906  0.1059E-20  0.2000E+02
 -10.896  0.6983E-21  0.2000E+02
 -10.886  0.4595E-21  0.2000E+02
 -10.876  0.3018E-21  0.2000E+02
 -10.866  0.1980E-21  0.2000E+02
 -10.856  0.1296E-21  0.2000E+02
 -10.846  0.8469E-22  0.2000E+02
 -10.836  0.5526E-22  0.2000E+02
 -10.826  0.3599E-22  0.2000E+02
 -10.816  0.2340E-22  0.2000E+02
 -10.806  0.1519E-22  0.2000E+02
 -10.796  0.9840E-23  0.2000E+02
 -10.786  0.6365E-23  0.2000E+02
 -10.776  0.4110E-23  0.2000E+02
 -10.766  0.2649E-23  0.2000E+02
 -10.756  0.1705E-23  0.2000E+02
 -10.746  0.1095E-23  0.2000E+02
 -10.736  0.7023E-24  0.2000E+02
 -10.726  0.4496E-24  0.2000E+02
 -10.716  0.2873E-24  0.2000E+02
 -10.706  0.1833E-24  0.2000E+02
 -10.696  0.1167E-24  0.2000E+02
 -10.686  0.7422E-25  0.2000E+02
 -10.676  0.4711E-25  0.2000E+02
 -10.666  0.2985E-25  0.2000E+02
 -10.656  0.1888E-25  0.2000E+02
 -10.646  0.1192E-25  0.2000E+02
 -10.636  0.7514E-26  0.2000E+02
 -10.626  0.4729E-26  0.2000E+02
 -10.616  0.2970E-26  0.2000E+02
 -10.606  0.1863E-26  0.2000E+02
 -10.596  0.1166E-26  0.2000E+02
 -10.586  0.7287E-27  0.2000E+02
 -10.576  0.4546E-27  0.2000E+02
 -10.566  0.2831E-27  0.2000E+02
 -10.556  0.1760E-27  0.2000E+02
 -10.546  0.1092E-27  0.2000E+02
 -10.536  0.6769E-28  0.2000E+02
 -10.526  0.4187E-28  0.2000E+02
 -10.516  0.2585E-28  0.2000E+02
 -10.506  0.1593E-28  0.2000E+02
 -10.496  0.9804E-29  0.2000E+02
 -10.486  0.6023E-29  0.2000E+02
 -10.476  0.3693E-29  0.2000E+02
 -10.466  0.2261E-29  0.2000E+02
 -10.456  0.1382E-29  0.2000E+02
 -10.446  0.8428E-30  0.2000E+02
 -10.436  0.5133E-30  0.2000E+02
 -10.426  0.3120E-30  0.2000E+02
 -10.416  0.1894E-30  0.2000E+02
 -10.406  0.1147E-30  0.2000E+02
 -10.396  0.6940E-31  0.2000E+02
 -10.386  0.4190E-31  0.2000E+02
 -10.376  0.2525E-31  0.2000E+02
 -10.366  0.1520E-31  0.2000E+02
 -10.356  0.9128E-32  0.2000E+02
 -10.346  0.5473E-32  0.2000E+02
 -10.336  0.3276E-32  0.2000E+02
 -10.326  0.1958E-32  0.2000E+02
 -10.316  0.1168E-32  0.2000E+02
 -10.306  0.6955E-33  0.2000E+02
 -10.296  0.4135E-33  0.2000E+02
 -10.286  0.2454E-33  0.2000E+02
 -10.276  0.1454E-33  0.2000E+02
 -10.266  0.8598E-34  0.2000E+02
 -10.256  0.5076E-34  0.2000E+02
 -10.246  0.2992E-34  0.2000E+02
 -10.236  0.1760E-34  0.2000E+02
 -10.226  0.1034E-34  0.2000E+02
 -10.216  0.6063E-35  0.2000E+02
 -10.206  0.3549E-35  0.2000E+02
 -10.196  0.2074E-35  0.2000E+02
 -10.186  0.1210E-35  0.2000E+02
 -10.176  0.7044E-36  0.2000E+02
 -10.166  0.4095E-36  0.2000E+02
 -10.156  0.2376E-36  0.2000E+02
 -10.146  0.1377E-36  0.2000E+02
 -10.136  0.7961E-37  0.2000E+02
 -10.126  0.4596E-37  0.2000E+02
 -10.116  0.2649E-37  0.2000E+02
 -10.106  0.1524E-37  0.2000E+02
 -10.096  0.8754E-38  0.2000E+02
 -10.086  0.5019E-38  0.2000E+02
 -10.076  0.2873E-38  0.2000E+02
 -10.066  0.1641E-38  0.2000E+02
 -10.056  0.9363E-39  0.2000E+02
 -10.046  0.5332E-39  0.2000E+02
 -10.036  0.3031E-39  0.2000E+02
 -10.026  0.1720E-39  0.2000E+02
 -10.016  0.9743E-40  0.2000E+02
 -10.006  0.5510E-40  0.2000E+02
  -9.996  0.3110E-40  0.2000E+02
  -9.986  0.1753E-40  0.2000E+02
  -9.976  0.9862E-41  0.2000E+02
  -9.966  0.5539E-41  0.2000E+02
  -9.956  0.3105E-41  0.2000E+02
  -9.946  0.1738E-41  0.2000E+02
  -9.936  0.9711E-42  0.2000E+02
  -9.926  0.5416E-42  0.2000E+02
  -9.916  0.3016E-42  0.2000E+02
  -9.906  0.1676E-42  0.2000E+02
  -9.896  0.9302E-43  0.2000E+02
  -9.886  0.5153E-43  0.2000E+02
  -9.876  0.2849E-43  0.2000E+02
  -9.866  0.1573E-43  0.2000E+02
  -9.856  0.8668E-44  0.2000E+02
  -9.846  0.4769E-44  0.2000E+02
  -9.836  0.2619E-44  0.2000E+02
  -9.826  0.1436E-44  0.2000E+02
  -9.816  0.7858E-45  0.2000E+02
  -9.806  0.4293E-45  0.2000E+02
  -9.796  0.2342E-45  0.2000E+02
  -9.786  0.1275E-45  0.2000E+02
  -9.776  0.6930E-46  0.2000E+02
  -9.766  0.3760E-46  0.2000E+02
  -9.756  0.2037E-46  0.2000E+02
  -9.746  0.1101E-46  0.2000E+02
  -9.736  0.5945E-47  0.2000E+02
  -9.726  0.3203E-47  0.2000E+02
  -9.716  0.1723E-47  0.2000E+02
  -9.706  0.9254E-48  0.2000E+02
  -9.696  0.4961E-48  0.2000E+02
  -9.686  0.2655E-48  0.2000E+02
  -9.676  0.1418E-48  0.2000E+02
  -9.666  0.7564E-49  0.2000E+02
  -9.656  0.4027E-49  0.2000E+02
  -9.646  0.2140E-49  0.2000E+02
  -9.636  0.1136E-49  0.2000E+02
  -9.626  0.6015E-50  0.2000E+02
  -9.616  0.3181E-50  0.2000E+02
  -9.606  0.1679E-50  0.2000E+02
  -9.596  0.8846E-51  0.2000E+02
  -9.586  0.4653E-51  0.2000E+02
  -9.576  0.2443E-51  0.2000E+02
  -9.566  0.1281E-51  0.2000E+02
  -9.556  0.6703E-52  0.2000E+02
  -9.546  0.3502E-52  0.2000E+02
  -9.536  0.1826E-52  0.2000E+02
  -9.526  0.9507E-53  0.2000E+02
  -9.516  0.4941E-53  0.2000E+02
  -9.506  0.2563E-53  0.2000E+02
  -9.496  0.1328E-53  0.2000E+02
  -9.486  0.6864E-54  0.2000E+02
  -9.476  0.3543E-54  0.2000E+02
  -9.466  0.1825E-54  0.2000E+02
  -9.456  0.9389E-55  0.2000E+02
  -9.446  0.4821E-55  0.2000E+02
  -9.436  0.2471E-55  0.2000E+02
  -9.426  0.1265E-55  0.2000E+02
  -9.416  0.6460E-56  0.2000E+02
  -9.406  0.3294E-56  0.2000E+02
  -9.396  0.1677E-56  0.2000E+02
  -9.386  0.8522E-57  0.2000E+02
  -9.376  0.4323E-57  0.2000E+02
  -9.366  0.2189E-57  0.2000E+02
  -9.356  0.1107E-57  0.2000E+02
  -9.346  0.5587E-58  0.2000E+02
  -9.336  0.2815E-58  0.2000E+02
  -9.326  0.1416E-58  0.2000E+02
  -9.316  0.7108E-59  0.2000E+02
  -9.306  0.3563E-59  0.2000E+02
  -9.296  0.1783E-59  0.2000E+02
  -9.286  0.8904E-60  0.2000E+02
  -9.276  0.4440E-60  0.2000E+02
  -9.266  0.2210E-60  0.2000E+02
  -9.256  0.1098E-60  0.2000E+02
  -9.246  0.5448E-61  0.2000E+02
  -9.236  0.2698E-61  0.2000E+02
  -9.226  0.1334E-61  0.2000E+02
  -9.216  0.6582E-62  0.2000E+02
  -9.206  0.3243E-62  0.2000E+02
  -9.196  0.1595E-62  0.2000E+02
  -9.186  0.7830E-63  0.2000E+02
  -9.176  0.3838E-63  0.2000E+02
  -9.166  0.1878E-63  0.2000E+02
  -9.156  0.9171E-64  0.2000E+02
  -9.146  0.4472E-64  0.2000E+02
  -9.136  0.2177E-64  0.2000E+02
  -9.126  0.1058E-64  0.2000E+02
  -9.116  0.5130E-65  0.2000E+02
  -9.106  0.2484E-65  0.2000E+02
  -9.096  0.1201E-65  0.2000E+02
  -9.086  0.5795E-66  0.2000E+02
  -9.076  0.2792E-66  0.2000E+02
  -9.066  0.1342E-66  0.2000E+02
  -9.056  0.6445E-67  0.2000E+02
  -9.046  0.3089E-67  0.2000E+02
  -9.036  0.1478E-67  0.2000E+02
  -9.026  0.7058E-68  0.2000E+02
  -9.016  0.3365E-68  0.2000E+02
  -9.006  0.1602E-68  0.2000E+02
  -8.996  0.7609E-69  0.2000E+02
  -8.986  0.3609E-69  0.2000E+02
  -8.976  0.1709E-69  0.2000E+02
  -8.966  0.8078E-70  0.2000E+02
  -8.956  0.3812E-70  0.2000E+02
  -8.946  0.1796E-70  0.2000E+02
  -8.936  0.8444E-71  0.2000E+02
  -8.926  0.3964E-71  0.2000E+02
  -8.916  0.1857E-71  0.2000E+02
  -8.906  0.8690E-72  0.2000E+02
  -8.896  0.4058E-72  0.2000E+02
  -8.886  0.1892E-72  0.2000E+02
  -8.876  0.8805E-73  0.2000E+02
  -8.866  0.4091E-73  0.2000E+02
  -8.856  0.1897E-73  0.2000E+02
  -8.846  0.8784E-74  0.2000E+02
  -8.836  0.4060E-74  0.2000E+02
  -8.826  0.1873E-74  0.2000E+02
  -8.816  0.8629E-75  0.2000E+02
  -8.806  0.3968E-75  0.2000E+02
  -8.796  0.1821E-75  0.2000E+02
  -8.786  0.8346E-76  0.2000E+02
  -8.776  0.3818E-76  0.2000E+02
  -8.766  0.1743E-76  0.2000E+02
  -8.756  0.7947E-77  0.2000E+02
  -8.746  0.3617E-77  0.2000E+02
  -8.736  0.1643E-77  0.2000E+02
  -8.726  0.7452E-78  0.2000E+02
  -8.716  0.3374E-78  0.2000E+02
  -8.706  0.1525E-78  0.2000E+02
  -8.696  0.6879E-79  0.2000E+02
  -8.686  0.3098E-79  0.2000E+02
  -8.676  0.1393E-79  0.2000E+02
  -8.666  0.6253E-80  0.2000E+02
  -8.656  0.2802E-80  0.2000E+02
  -8.646  0.1253E-80  0.2000E+02
  -8.636  0.5597E-81  0.2000E+02
  -8.626  0.2495E-81  0.2000E+02
  -8.616  0.1111E-81  0.2000E+02
  -8.606  0.4941E-82  0.2000E+02
  -8.596  0.2196E-82  0.2000E+02
  -8.586  0.9780E-83  0.2000E+02
  -8.576  0.4378E-83  0.2000E+02
  -8.566  0.1988E-83  0.2000E+02
  -8.556  0.9320E-84  0.2000E+02
  -8.546  0.4665E-84  0.2000E+02
  -8.536  0.2618E-84  0.2000E+02
  -8.526  0.1723E-84  0.2000E+02
  -8.516  0.1336E-84  0.2000E+02
  -8.506  0.1177E-84  0.2000E+02
  -8.496  0.1119E-84  0.2000E+02
  -8.486  0.1103E-84  0.2000E+02
  -8.476  0.1102E-84  0.2000E+02
  -8.466  0.1102E-84  0.2000E+02
  -8.456  0.1102E-84  0.2000E+02
  -8.446  0.1102E-84  0.2000E+02
  -8.436  0.1102E-84  0.2000E+02
  -8.426  0.1102E-84  0.2000E+02
  -8.416  0.1102E-84  0.2000E+02
  -8.406  0.1102E-84  0.2000E+02
  -8.396  0.1102E-84  0.2000E+02
  -8.386  0.1102E-84  0.2000E+02
  -8.376  0.1102E-84  0.2000E+02
  -8.366  0.1102E-84  0.2000E+02
  -8.356  0.1102E-84  0.2000E+02
  -8.346  0.1102E-84  0.2000E+02
  -8.336  0.1102E-84  0.2000E+02
  -8.326  0.1102E-84  0.2000E+02
  -8.316  0.1102E-84  0.2000E+02
  -8.306  0.1102E-84  0.2000E+02
  -8.296  0.1102E-84  0.2000E+02
  -8.286  0.1102E-84  0.2000E+02
  -8.276  0.1102E-84  0.2000E+02
  -8.266  0.1102E-84  0.2000E+02
  -8.256  0.1102E-84  0.2000E+02
  -8.246  0.1102E-84  0.2000E+02
  -8.236  0.1102E-84  0.2000E+02
  -8.226  0.1102E-84  0.2000E+02
  -8.216  0.1102E-84  0.2000E+02
  -8.206  0.1102E-84  0.2000E+02
  -8.196  0.1102E-84  0.2000E+02
  -8.186  0.1102E-84  0.2000E+02
  -8.176  0.1102E-84  0.2000E+02
  -8.166  0.1102E-84  0.2000E+02
  -8.156  0.1102E-84  0.2000E+02
  -8.146  0.1102E-84  0.2000E+02
  -8.136  0.1102E-84  0.2000E+02
  -8.126  0.1102E-84  0.2000E+02
  -8.116  0.1102E-84  0.2000E+02
  -8.106  0.1102E-84  0.2000E+02
  -8.096  0.1102E-84  0.2000E+02
  -8.086  0.1102E-84  0.2000E+02
  -8.076  0.1102E-84  0.2000E+02
  -8.066  0.1102E-84  0.2000E+02
  -8.056  0.1102E-84  0.2000E+02
  -8.046  0.1102E-84  0.2000E+02
  -8.036  0.1102E-84  0.2000E+02
  -8.026  0.1102E-84  0.2000E+02
  -8.016  0.1102E-84  0.2000E+02
  -8.006  0.1102E-84  0.2000E+02
  -7.996  0.1102E-84  0.2000E+02
  -7.986  0.1102E-84  0.2000E+02
  -7.976  0.1102E-84  0.2000E+02
  -7.966  0.1102E-84  0.2000E+02
  -7.956  0.1102E-84  0.2000E+02
  -7.946  0.1102E-84  0.2000E+02
  -7.936  0.1102E-84  0.2000E+02
  -7.926  0.1102E-84  0.2000E+02
  -7.916  0.1102E-84  0.2000E+02
  -7.906  0.1102E-84  0.2000E+02
  -7.896  0.1102E-84  0.2000E+02
  -7.886  0.1102E-84  0.2000E+02
  -7.876  0.1102E-84  0.2000E+02
  -7.866  0.1102E-84  0.2000E+02
  -7.856  0.1102E-84  0.2000E+02
  -7.846  0.1102E-84  0.2000E+02
  -7.836  0.1102E-84  0.2000E+02
  -7.826  0.1102E-84  0.2000E+02
  -7.816  0.1102E-84  0.2000E+02
  -7.806  0.1102E-84  0.2000E+02
  -7.796  0.1102E-84  0.2000E+02
  -7.786  0.1102E-84  0.2000E+02
  -7.776  0.1102E-84  0.2000E+02
  -7.766  0.1102E-84  0.2000E+02
  -7.756  0.1102E-84  0.2000E+02
  -7.746  0.1102E-84  0.2000E+02
  -7.736  0.1102E-84  0.2000E+02
  -7.726  0.1102E-84  0.2000E+02
  -7.716  0.1102E-84  0.2000E+02
  -7.706  0.1102E-84  0.2000E+02
  -7.696  0.1102E-84  0.2000E+02
  -7.686  0.1102E-84  0.2000E+02
  -7.676  0.1102E-84  0.2000E+02
  -7.666  0.1102E-84  0.2000E+02
  -7.656  0.1102E-84  0.2000E+02
  -7.646  0.1102E-84  0.2000E+02
  -7.636  0.1102E-84  0.2000E+02
  -7.626  0.1102E-84  0.2000E+02
  -7.616  0.1102E-84  0.2000E+02
  -7.606  0.1102E-84  0.2000E+02
  -7.596  0.1102E-84  0.2000E+02
  -7.586  0.1102E-84  0.2000E+02
  -7.576  0.1102E-84  0.2000E+02
  -7.566  0.1102E-84  0.2000E+02
  -7.556  0.1102E-84  0.2000E+02
  -7.546  0.1102E-84  0.2000E+02
  -7.536  0.1102E-84  0.2000E+02
  -7.526  0.1102E-84  0.2000E+02
  -7.516  0.1102E-84  0.2000E+02
  -7.506  0.1103E-84  0.2000E+02
  -7.496  0.1104E-84  0.2000E+02
  -7.486  0.1107E-84  0.2000E+02
  -7.476  0.1115E-84  0.2000E+02
  -7.466  0.1131E-84  0.2000E+02
  -7.456  0.1168E-84  0.2000E+02
  -7.446  0.1252E-84  0.2000E+02
  -7.436  0.1441E-84  0.2000E+02
  -7.426  0.1866E-84  0.2000E+02
  -7.416  0.2820E-84  0.2000E+02
  -7.406  0.4958E-84  0.2000E+02
  -7.396  0.9740E-84  0.2000E+02
  -7.386  0.2042E-83  0.2000E+02
  -7.376  0.4421E-83  0.2000E+02
  -7.366  0.9716E-83  0.2000E+02
  -7.356  0.2148E-82  0.2000E+02
  -7.346  0.4755E-82  0.2000E+02
  -7.336  0.1053E-81  0.2000E+02
  -7.326  0.2328E-81  0.2000E+02
  -7.316  0.5142E-81  0.2000E+02
  -7.306  0.1134E-80  0.2000E+02
  -7.296  0.2496E-80  0.2000E+02
  -7.286  0.5484E-80  0.2000E+02
  -7.276  0.1203E-79  0.2000E+02
  -7.266  0.2635E-79  0.2000E+02
  -7.256  0.5760E-79  0.2000E+02
  -7.246  0.1257E-78  0.2000E+02
  -7.236  0.2739E-78  0.2000E+02
  -7.226  0.5957E-78  0.2000E+02
  -7.216  0.1293E-77  0.2000E+02
  -7.206  0.2803E-77  0.2000E+02
  -7.196  0.6066E-77  0.2000E+02
  -7.186  0.1310E-76  0.2000E+02
  -7.176  0.2825E-76  0.2000E+02
  -7.166  0.6081E-76  0.2000E+02
  -7.156  0.1307E-75  0.2000E+02
  -7.146  0.2803E-75  0.2000E+02
  -7.136  0.6003E-75  0.2000E+02
  -7.126  0.1283E-74  0.2000E+02
  -7.116  0.2739E-74  0.2000E+02
  -7.106  0.5834E-74  0.2000E+02
  -7.096  0.1241E-73  0.2000E+02
  -7.086  0.2634E-73  0.2000E+02
  -7.076  0.5583E-73  0.2000E+02
  -7.066  0.1181E-72  0.2000E+02
  -7.056  0.2495E-72  0.2000E+02
  -7.046  0.5260E-72  0.2000E+02
  -7.036  0.1107E-71  0.2000E+02
  -7.026  0.2326E-71  0.2000E+02
  -7.016  0.4880E-71  0.2000E+02
  -7.006  0.1022E-70  0.2000E+02
  -6.996  0.2136E-70  0.2000E+02
  -6.986  0.4457E-70  0.2000E+02
  -6.976  0.9285E-70  0.2000E+02
  -6.966  0.1931E-69  0.2000E+02
  -6.956  0.4009E-69  0.2000E+02
  -6.946  0.8308E-69  0.2000E+02
  -6.936  0.1719E-68  0.2000E+02
  -6.926  0.3550E-68  0.2000E+02
  -6.916  0.7318E-68  0.2000E+02
  -6.906  0.1506E-67  0.2000E+02
  -6.896  0.3095E-67  0.2000E+02
  -6.886  0.6348E-67  0.2000E+02
  -6.876  0.1300E-66  0.2000E+02
  -6.866  0.2657E-66  0.2000E+02
  -6.856  0.5421E-66  0.2000E+02
  -6.846  0.1104E-65  0.2000E+02
  -6.836  0.2245E-65  0.2000E+02
  -6.826  0.4558E-65  0.2000E+02
  -6.816  0.9237E-65  0.2000E+02
  -6.806  0.1869E-64  0.2000E+02
  -6.796  0.3774E-64  0.2000E+02
  -6.786  0.7608E-64  0.2000E+02
  -6.776  0.1531E-63  0.2000E+02
  -6.766  0.3076E-63  0.2000E+02
  -6.756  0.6170E-63  0.2000E+02
  -6.746  0.1235E-62  0.2000E+02
  -6.736  0.2469E-62  0.2000E+02
  -6.726  0.4927E-62  0.2000E+02
  -6.716  0.9814E-62  0.2000E+02
  -6.706  0.1951E-61  0.2000E+02
  -6.696  0.3874E-61  0.2000E+02
  -6.686  0.7676E-61  0.2000E+02
  -6.676  0.1518E-60  0.2000E+02
  -6.666  0.2999E-60  0.2000E+02
  -6.656  0.5912E-60  0.2000E+02
  -6.646  0.1163E-59  0.2000E+02
  -6.636  0.2286E-59  0.2000E+02
  -6.626  0.4483E-59  0.2000E+02
  -6.616  0.8777E-59  0.2000E+02
  -6.606  0.1715E-58  0.2000E+02
  -6.596  0.3347E-58  0.2000E+02
  -6.586  0.6519E-58  0.2000E+02
  -6.576  0.1268E-57  0.2000E+02
  -6.566  0.2461E-57  0.2000E+02
  -6.556  0.4768E-57  0.2000E+02
  -6.546  0.9224E-57  0.2000E+02
  -6.536  0.1781E-56  0.2000E+02
  -6.526  0.3434E-56  0.2000E+02
  -6.516  0.6608E-56  0.2000E+02
  -6.506  0.1270E-55  0.2000E+02
  -6.496  0.2435E-55  0.2000E+02
  -6.486  0.4662E-55  0.2000E+02
  -6.476  0.8910E-55  0.2000E+02
  -6.466  0.1700E-54  0.2000E+02
  -6.456  0.3238E-54  0.2000E+02
  -6.446  0.6157E-54  0.2000E+02
  -6.436  0.1169E-53  0.2000E+02
  -6.426  0.2214E-53  0.2000E+02
  -6.416  0.4189E-53  0.2000E+02
  -6.406  0.7911E-53  0.2000E+02
  -6.396  0.1491E-52  0.2000E+02
  -6.386  0.2807E-52  0.2000E+02
  -6.376  0.5273E-52  0.2000E+02
  -6.366  0.9889E-52  0.2000E+02
  -6.356  0.1851E-51  0.2000E+02
  -6.346  0.3460E-51  0.2000E+02
  -6.336  0.6456E-51  0.2000E+02
  -6.326  0.1203E-50  0.2000E+02
  -6.316  0.2236E-50  0.2000E+02
  -6.306  0.4151E-50  0.2000E+02
  -6.296  0.7692E-50  0.2000E+02
  -6.286  0.1423E-49  0.2000E+02
  -6.276  0.2628E-49  0.2000E+02
  -6.266  0.4844E-49  0.2000E+02
  -6.256  0.8915E-49  0.2000E+02
  -6.246  0.1638E-48  0.2000E+02
  -6.236  0.3004E-48  0.2000E+02
  -6.226  0.5500E-48  0.2000E+02
  -6.216  0.1005E-47  0.2000E+02
  -6.206  0.1834E-47  0.2000E+02
  -6.196  0.3341E-47  0.2000E+02
  -6.186  0.6076E-47  0.2000E+02
  -6.176  0.1103E-46  0.2000E+02
  -6.166  0.1999E-46  0.2000E+02
  -6.156  0.3616E-46  0.2000E+02
  -6.146  0.6530E-46  0.2000E+02
  -6.136  0.1177E-45  0.2000E+02
  -6.126  0.2119E-45  0.2000E+02
  -6.116  0.3807E-45  0.2000E+02
  -6.106  0.6828E-45  0.2000E+02
  -6.096  0.1223E-44  0.2000E+02
  -6.086  0.2185E-44  0.2000E+02
  -6.076  0.3900E-44  0.2000E+02
  -6.066  0.6947E-44  0.2000E+02
  -6.056  0.1235E-43  0.2000E+02
  -6.046  0.2193E-43  0.2000E+02
  -6.036  0.3887E-43  0.2000E+02
  -6.026  0.6876E-43  0.2000E+02
  -6.016  0.1214E-42  0.2000E+02
  -6.006  0.2141E-42  0.2000E+02
  -5.996  0.3769E-42  0.2000E+02
  -5.986  0.6622E-42  0.2000E+02
  -5.976  0.1162E-41  0.2000E+02
  -5.966  0.2034E-41  0.2000E+02
  -5.956  0.3556E-41  0.2000E+02
  -5.946  0.6206E-41  0.2000E+02
  -5.936  0.1081E-40  0.2000E+02
  -5.926  0.1880E-40  0.2000E+02
  -5.916  0.3265E-40  0.2000E+02
  -5.906  0.5658E-40  0.2000E+02
  -5.896  0.9790E-40  0.2000E+02
  -5.886  0.1691E-39  0.2000E+02
  -5.876  0.2916E-39  0.2000E+02
  -5.866  0.5020E-39  0.2000E+02
  -5.856  0.8627E-39  0.2000E+02
  -5.846  0.1480E-38  0.2000E+02
  -5.836  0.2535E-38  0.2000E+02
  -5.826  0.4333E-38  0.2000E+02
  -5.816  0.7396E-38  0.2000E+02
  -5.806  0.1260E-37  0.2000E+02
  -5.796  0.2144E-37  0.2000E+02
  -5.786  0.3640E-37  0.2000E+02
  -5.776  0.6170E-37  0.2000E+02
  -5.766  0.1044E-36  0.2000E+02
  -5.756  0.1764E-36  0.2000E+02
  -5.746  0.2975E-36  0.2000E+02
  -5.736  0.5009E-36  0.2000E+02
  -5.726  0.8419E-36  0.2000E+02
  -5.716  0.1413E-35  0.2000E+02
  -5.706  0.2366E-35  0.2000E+02
  -5.696  0.3957E-35  0.2000E+02
  -5.686  0.6605E-35  0.2000E+02
  -5.676  0.1101E-34  0.2000E+02
  -5.666  0.1831E-34  0.2000E+02
  -5.656  0.3042E-34  0.2000E+02
  -5.646  0.5043E-34  0.2000E+02
  -5.636  0.8347E-34  0.2000E+02
  -5.626  0.1379E-33  0.2000E+02
  -5.616  0.2275E-33  0.2000E+02
  -5.606  0.3747E-33  0.2000E+02
  -5.596  0.6159E-33  0.2000E+02
  -5.586  0.1011E-32  0.2000E+02
  -5.576  0.1656E-32  0.2000E+02
  -5.566  0.2709E-32  0.2000E+02
  -5.556  0.4423E-32  0.2000E+02
  -5.546  0.7209E-32  0.2000E+02
  -5.536  0.1173E-31  0.2000E+02
  -5.526  0.1906E-31  0.2000E+02
  -5.516  0.3091E-31  0.2000E+02
  -5.506  0.5004E-31  0.2000E+02
  -5.496  0.8087E-31  0.2000E+02
  -5.486  0.1305E-30  0.2000E+02
  -5.476  0.2102E-30  0.2000E+02
  -5.466  0.3380E-30  0.2000E+02
  -5.456  0.5426E-30  0.2000E+02
  -5.446  0.8695E-30  0.2000E+02
  -5.436  0.1391E-29  0.2000E+02
  -5.426  0.2222E-29  0.2000E+02
  -5.416  0.3542E-29  0.2000E+02
  -5.406  0.5639E-29  0.2000E+02
  -5.396  0.8960E-29  0.2000E+02
  -5.386  0.1421E-28  0.2000E+02
  -5.376  0.2251E-28  0.2000E+02
  -5.366  0.3559E-28  0.2000E+02
  -5.356  0.5617E-28  0.2000E+02
  -5.346  0.8850E-28  0.2000E+02
  -5.336  0.1392E-27  0.2000E+02
  -5.326  0.2186E-27  0.2000E+02
  -5.316  0.3427E-27  0.2000E+02
  -5.306  0.5363E-27  0.2000E+02
  -5.296  0.8379E-27  0.2000E+02
  -5.286  0.1307E-26  0.2000E+02
  -5.276  0.2035E-26  0.2000E+02
  -5.266  0.3163E-26  0.2000E+02
  -5.256  0.4909E-26  0.2000E+02
  -5.246  0.7605E-26  0.2000E+02
  -5.236  0.1176E-25  0.2000E+02
  -5.226  0.1816E-25  0.2000E+02
  -5.216  0.2799E-25  0.2000E+02
  -5.206  0.4307E-25  0.2000E+02
  -5.196  0.6616E-25  0.2000E+02
  -5.186  0.1015E-24  0.2000E+02
  -5.176  0.1553E-24  0.2000E+02
  -5.166  0.2374E-24  0.2000E+02
  -5.156  0.3623E-24  0.2000E+02
  -5.146  0.5518E-24  0.2000E+02
  -5.136  0.8392E-24  0.2000E+02
  -5.126  0.1274E-23  0.2000E+02
  -5.116  0.1931E-23  0.2000E+02
  -5.106  0.2921E-23  0.2000E+02
  -5.096  0.4413E-23  0.2000E+02
  -5.086  0.6654E-23  0.2000E+02
  -5.076  0.1002E-22  0.2000E+02
  -5.066  0.1506E-22  0.2000E+02
  -5.056  0.2259E-22  0.2000E+02
  -5.046  0.3383E-22  0.2000E+02
  -5.036  0.5059E-22  0.2000E+02
  -5.026  0.7552E-22  0.2000E+02
  -5.016  0.1125E-21  0.2000E+02
  -5.006  0.1674E-21  0.2000E+02
  -4.996  0.2487E-21  0.2000E+02
  -4.986  0.3688E-21  0.2000E+02
  -4.976  0.5459E-21  0.2000E+02
  -4.966  0.8067E-21  0.2000E+02
  -4.956  0.1190E-20  0.2000E+02
  -4.946  0.1753E-20  0.2000E+02
  -4.936  0.2578E-20  0.2000E+02
  -4.926  0.3784E-20  0.2000E+02
  -4.916  0.5545E-20  0.2000E+02
  -4.906  0.8112E-20  0.2000E+02
  -4.896  0.1185E-19  0.2000E+02
  -4.886  0.1728E-19  0.2000E+02
  -4.876  0.2515E-19  0.2000E+02
  -4.866  0.3654E-19  0.2000E+02
  -4.856  0.5302E-19  0.2000E+02
  -4.846  0.7679E-19  0.2000E+02
  -4.836  0.1110E-18  0.2000E+02
  -4.826  0.1603E-18  0.2000E+02
  -4.816  0.2310E-18  0.2000E+02
  -4.806  0.3323E-18  0.2000E+02
  -4.796  0.4773E-18  0.2000E+02
  -4.786  0.6844E-18  0.2000E+02
  -4.776  0.9797E-18  0.2000E+02
  -4.766  0.1400E-17  0.2000E+02
  -4.756  0.1997E-17  0.2000E+02
  -4.746  0.2845E-17  0.2000E+02
  -4.736  0.4046E-17  0.2000E+02
  -4.726  0.5743E-17  0.2000E+02
  -4.716  0.8139E-17  0.2000E+02
  -4.706  0.1152E-16  0.2000E+02
  -4.696  0.1626E-16  0.2000E+02
  -4.686  0.2294E-16  0.2000E+02
  -4.676  0.3229E-16  0.2000E+02
  -4.666  0.4538E-16  0.2000E+02
  -4.656  0.6367E-16  0.2000E+02
  -4.646  0.8918E-16  0.2000E+02
  -4.636  0.1247E-15  0.2000E+02
  -4.626  0.1741E-15  0.2000E+02
  -4.616  0.2427E-15  0.2000E+02
  -4.606  0.3376E-15  0.2000E+02
  -4.596  0.4690E-15  0.2000E+02
  -4.586  0.6504E-15  0.2000E+02
  -4.576  0.9005E-15  0.2000E+02
  -4.566  0.1245E-14  0.2000E+02
  -4.556  0.1717E-14  0.2000E+02
  -4.546  0.2366E-14  0.2000E+02
  -4.536  0.3254E-14  0.2000E+02
  -4.526  0.4468E-14  0.2000E+02
  -4.516  0.6124E-14  0.2000E+02
  -4.506  0.8380E-14  0.2000E+02
  -4.496  0.1145E-13  0.2000E+02
  -4.486  0.1562E-13  0.2000E+02
  -4.476  0.2126E-13  0.2000E+02
  -4.466  0.2890E-13  0.2000E+02
  -4.456  0.3922E-13  0.2000E+02
  -4.446  0.5314E-13  0.2000E+02
  -4.436  0.7188E-13  0.2000E+02
  -4.426  0.9707E-13  0.2000E+02
  -4.416  0.1309E-12  0.2000E+02
  -4.406  0.1761E-12  0.2000E+02
  -4.396  0.2366E-12  0.2000E+02
  -4.386  0.3174E-12  0.2000E+02
  -4.376  0.4251E-12  0.2000E+02
  -4.366  0.5684E-12  0.2000E+02
  -4.356  0.7586E-12  0.2000E+02
  -4.346  0.1011E-11  0.2000E+02
  -4.336  0.1345E-11  0.2000E+02
  -4.326  0.1786E-11  0.2000E+02
  -4.316  0.2368E-11  0.2000E+02
  -4.306  0.3135E-11  0.2000E+02
  -4.296  0.4143E-11  0.2000E+02
  -4.286  0.5466E-11  0.2000E+02
  -4.276  0.7200E-11  0.2000E+02
  -4.266  0.9468E-11  0.2000E+02
  -4.256  0.1243E-10  0.2000E+02
  -4.246  0.1629E-10  0.2000E+02
  -4.236  0.2132E-10  0.2000E+02
  -4.226  0.2785E-10  0.2000E+02
  -4.216  0.3632E-10  0.2000E+02
  -4.206  0.4729E-10  0.2000E+02
  -4.196  0.6147E-10  0.2000E+02
  -4.186  0.7977E-10  0.2000E+02
  -4.176  0.1033E-09  0.2000E+02
  -4.166  0.1337E-09  0.2000E+02
  -4.156  0.1726E-09  0.2000E+02
  -4.146  0.2225E-09  0.2000E+02
  -4.136  0.2864E-09  0.2000E+02
  -4.126  0.3680E-09  0.2000E+02
  -4.116  0.4721E-09  0.2000E+02
  -4.106  0.6046E-09  0.2000E+02
  -4.096  0.7730E-09  0.2000E+02
  -4.086  0.9867E-09  0.2000E+02
  -4.076  0.1257E-08  0.2000E+02
  -4.066  0.1600E-08  0.2000E+02
  -4.056  0.2032E-08  0.2000E+02
  -4.046  0.2577E-08  0.2000E+02
  -4.036  0.3262E-08  0.2000E+02
  -4.026  0.4123E-08  0.2000E+02
  -4.016  0.5203E-08  0.2000E+02
  -4.006  0.6554E-08  0.2000E+02
  -3.996  0.8244E-08  0.2000E+02
  -3.986  0.1035E-07  0.2000E+02
  -3.976  0.1298E-07  0.2000E+02
  -3.966  0.1624E-07  0.2000E+02
  -3.956  0.2029E-07  0.2000E+02
  -3.946  0.2531E-07  0.2000E+02
  -3.936  0.3152E-07  0.2000E+02
  -3.926  0.3919E-07  0.2000E+02
  -3.916  0.4865E-07  0.2000E+02
  -3.906  0.6029E-07  0.2000E+02
  -3.896  0.7460E-07  0.2000E+02
  -3.886  0.9215E-07  0.2000E+02
  -3.876  0.1136E-06  0.2000E+02
  -3.866  0.1399E-06  0.2000E+02
  -3.856  0.1720E-06  0.2000E+02
  -3.846  0.2110E-06  0.2000E+02
  -3.836  0.2586E-06  0.2000E+02
  -3.826  0.3163E-06  0.2000E+02
  -3.816  0.3863E-06  0.2000E+02
  -3.806  0.4709E-06  0.2000E+02
  -3.796  0.5732E-06  0.2000E+02
  -3.786  0.6966E-06  0.2000E+02
  -3.776  0.8452E-06  0.2000E+02
  -3.766  0.1024E-05  0.2000E+02
  -3.756  0.1238E-05  0.2000E+02
  -3.746  0.1495E-05  0.2000E+02
  -3.736  0.1802E-05  0.2000E+02
  -3.726  0.2169E-05  0.2000E+02
  -3.716  0.2606E-05  0.2000E+02
  -3.706  0.3126E-05  0.2000E+02
  -3.696  0.3744E-05  0.2000E+02
  -3.686  0.4477E-05  0.2000E+02
  -3.676  0.5345E-05  0.2000E+02
  -3.666  0.6371E-05  0.2000E+02
  -3.656  0.7581E-05  0.2000E+02
  -3.646  0.9007E-05  0.2000E+02
  -3.636  0.1068E-04  0.2000E+02
  -3.626  0.1265E-04  0.2000E+02
  -3.616  0.1496E-04  0.2000E+02
  -3.606  0.1766E-04  0.2000E+02
  -3.596  0.2082E-04  0.2000E+02
  -3.586  0.2450E-04  0.2000E+02
  -3.576  0.2878E-04  0.2000E+02
  -3.566  0.3376E-04  0.2000E+02
  -3.556  0.3954E-04  0.2000E+02
  -3.546  0.4623E-04  0.2000E+02
  -3.536  0.5397E-04  0.2000E+02
  -3.526  0.6291E-04  0.2000E+02
  -3.516  0.7321E-04  0.2000E+02
  -3.506  0.8506E-04  0.2000E+02
  -3.496  0.9868E-04  0.2000E+02
  -3.486  0.1143E-03  0.2000E+02
  -3.476  0.1322E-03  0.2000E+02
  -3.466  0.1526E-03  0.2000E+02
  -3.456  0.1760E-03  0.2000E+02
  -3.446  0.2025E-03  0.2000E+02
  -3.436  0.2328E-03  0.2000E+02
  -3.426  0.2671E-03  0.2000E+02
  -3.416  0.3060E-03  0.2000E+02
  -3.406  0.3501E-03  0.2000E+02
  -3.396  0.3998E-03  0.2000E+02
  -3.386  0.4560E-03  0.2000E+02
  -3.376  0.5192E-03  0.2000E+02
  -3.366  0.5903E-03  0.2000E+02
  -3.356  0.6701E-03  0.2000E+02
  -3.346  0.7595E-03  0.2000E+02
  -3.336  0.8596E-03  0.2000E+02
  -3.326  0.9713E-03  0.2000E+02
  -3.316  0.1096E-02  0.2000E+02
  -3.306  0.1235E-02  0.2000E+02
  -3.296  0.1389E-02  0.2000E+02
  -3.286  0.1560E-02  0.2000E+02
  -3.276  0.1750E-02  0.2000E+02
  -3.266  0.1959E-02  0.2000E+02
  -3.256  0.2191E-02  0.2000E+02
  -3.246  0.2446E-02  0.2000E+02
  -3.236  0.2727E-02  0.2000E+02
  -3.226  0.3036E-02  0.2000E+02
  -3.216  0.3375E-02  0.2000E+02
  -3.206  0.3746E-02  0.2000E+02
  -3.196  0.4152E-02  0.2000E+02
  -3.186  0.4595E-02  0.2000E+02
  -3.176  0.5079E-02  0.2000E+02
  -3.166  0.5605E-02  0.2000E+02
  -3.156  0.6176E-02  0.2000E+02
  -3.146  0.6797E-02  0.2000E+02
  -3.136  0.7468E-02  0.2000E+02
  -3.126  0.8195E-02  0.2000E+02
  -3.116  0.8980E-02  0.2000E+02
  -3.106  0.9826E-02  0.2000E+02
  -3.096  0.1074E-01  0.2000E+02
  -3.086  0.1171E-01  0.2000E+02
  -3.076  0.1277E-01  0.2000E+02
  -3.066  0.1389E-01  0.2000E+02
  -3.056  0.1509E-01  0.2000E+02
  -3.046  0.1638E-01  0.2000E+02
  -3.036  0.1775E-01  0.2000E+02
  -3.026  0.1921E-01  0.2000E+02
  -3.016  0.2076E-01  0.2000E+02
  -3.006  0.2241E-01  0.2000E+02
  -2.996  0.2416E-01  0.2000E+02
  -2.986  0.2601E-01  0.2000E+02
  -2.976  0.2796E-01  0.2000E+02
  -2.966  0.3002E-01  0.2000E+02
  -2.956  0.3219E-01  0.2000E+02
  -2.946  0.3448E-01  0.2000E+02
  -2.936  0.3688E-01  0.2000E+02
  -2.926  0.3940E-01  0.2001E+02
  -2.916  0.4203E-01  0.2001E+02
  -2.906  0.4479E-01  0.2001E+02
  -2.896  0.4767E-01  0.2001E+02
  -2.886  0.5068E-01  0.2001E+02
  -2.876  0.5380E-01  0.2001E+02
  -2.866  0.5706E-01  0.2001E+02
  -2.856  0.6044E-01  0.2001E+02
  -2.846  0.6394E-01  0.2001E+02
  -2.836  0.6757E-01  0.2001E+02
  -2.826  0.7132E-01  0.2001E+02
  -2.816  0.7519E-01  0.2001E+02
  -2.806  0.7919E-01  0.2001E+02
  -2.796  0.8330E-01  0.2001E+02
  -2.786  0.8753E-01  0.2001E+02
  -2.776  0.9188E-01  0.2001E+02
  -2.766  0.9634E-01  0.2002E+02
  -2.756  0.1009E+00  0.2002E+02
  -2.746  0.1056E+00  0.2002E+02
  -2.736  0.1104E+00  0.2002E+02
  -2.726  0.1152E+00  0.2002E+02
  -2.716  0.1202E+00  0.2002E+02
  -2.706  0.1253E+00  0.2002E+02
  -2.696  0.1304E+00  0.2002E+02
  -2.686  0.1357E+00  0.2003E+02
  -2.676  0.1410E+00  0.2003E+02
  -2.666  0.1464E+00  0.2003E+02
  -2.656  0.1518E+00  0.2003E+02
  -2.646  0.1573E+00  0.2003E+02
  -2.636  0.1629E+00  0.2003E+02
  -2.626  0.1685E+00  0.2003E+02
  -2.616  0.1742E+00  0.2004E+02
  -2.606  0.1799E+00  0.2004E+02
  -2.596  0.1857E+00  0.2004E+02
  -2.586  0.1915E+00  0.2004E+02
  -2.576  0.1973E+00  0.2004E+02
  -2.566  0.2031E+00  0.2005E+02
  -2.556  0.2090E+00  0.2005E+02
  -2.546  0.2148E+00  0.2005E+02
  -2.536  0.2207E+00  0.2005E+02
  -2.526  0.2266E+00  0.2005E+02
  -2.516  0.2325E+00  0.2006E+02
  -2.506  0.2383E+00  0.2006E+02
  -2.496  0.2442E+00  0.2006E+02
  -2.486  0.2501E+00  0.2006E+02
  -2.476  0.2559E+00  0.2007E+02
  -2.466  0.2617E+00  0.2007E+02
  -2.456  0.2675E+00  0.2007E+02
  -2.446  0.2733E+00  0.2007E+02
  -2.436  0.2790E+00  0.2008E+02
  -2.426  0.2847E+00  0.2008E+02
  -2.416  0.2904E+00  0.2008E+02
  -2.406  0.2960E+00  0.2009E+02
  -2.396  0.3016E+00  0.2009E+02
  -2.386  0.3072E+00  0.2009E+02
  -2.376  0.3127E+00  0.2010E+02
  -2.366  0.3182E+00  0.2010E+02
  -2.356  0.3236E+00  0.2010E+02
  -2.346  0.3290E+00  0.2011E+02
  -2.336  0.3344E+00  0.2011E+02
  -2.326  0.3397E+00  0.2011E+02
  -2.316  0.3449E+00  0.2012E+02
  -2.306  0.3502E+00  0.2012E+02
  -2.296  0.3553E+00  0.2012E+02
  -2.286  0.3605E+00  0.2013E+02
  -2.276  0.3656E+00  0.2013E+02
  -2.266  0.3706E+00  0.2013E+02
  -2.256  0.3756E+00  0.2014E+02
  -2.246  0.3806E+00  0.2014E+02
  -2.236  0.3856E+00  0.2014E+02
  -2.226  0.3905E+00  0.2015E+02
  -2.216  0.3953E+00  0.2015E+02
  -2.206  0.4002E+00  0.2016E+02
  -2.196  0.4050E+00  0.2016E+02
  -2.186  0.4098E+00  0.2016E+02
  -2.176  0.4145E+00  0.2017E+02
  -2.166  0.4192E+00  0.2017E+02
  -2.156  0.4239E+00  0.2018E+02
  -2.146  0.4286E+00  0.2018E+02
  -2.136  0.4333E+00  0.2019E+02
  -2.126  0.4379E+00  0.2019E+02
  -2.116  0.4426E+00  0.2019E+02
  -2.106  0.4472E+00  0.2020E+02
  -2.096  0.4518E+00  0.2020E+02
  -2.086  0.4564E+00  0.2021E+02
  -2.076  0.4609E+00  0.2021E+02
  -2.066  0.4655E+00  0.2022E+02
  -2.056  0.4701E+00  0.2022E+02
  -2.046  0.4746E+00  0.2023E+02
  -2.036  0.4792E+00  0.2023E+02
  -2.026  0.4837E+00  0.2024E+02
  -2.016  0.4883E+00  0.2024E+02
  -2.006  0.4928E+00  0.2025E+02
  -1.996  0.4974E+00  0.2025E+02
  -1.986  0.5019E+00  0.2026E+02
  -1.976  0.5064E+00  0.2026E+02
  -1.966  0.5110E+00  0.2027E+02
  -1.956  0.5155E+00  0.2027E+02
  -1.946  0.5200E+00  0.2028E+02
  -1.936  0.5245E+00  0.2028E+02
  -1.926  0.5290E+00  0.2029E+02
  -1.916  0.5336E+00  0.2029E+02
  -1.906  0.5381E+00  0.2030E+02
  -1.896  0.5426E+00  0.2030E+02
  -1.886  0.5471E+00  0.2031E+02
  -1.876  0.5517E+00  0.2031E+02
  -1.866  0.5562E+00  0.2032E+02
  -1.856  0.5607E+00  0.2033E+02
  -1.846  0.5653E+00  0.2033E+02
  -1.836  0.5698E+00  0.2034E+02
  -1.826  0.5744E+00  0.2034E+02
  -1.816  0.5789E+00  0.2035E+02
  -1.806  0.5835E+00  0.2035E+02
  -1.796  0.5882E+00  0.2036E+02
  -1.786  0.5928E+00  0.2037E+02
  -1.776  0.5975E+00  0.2037E+02
  -1.766  0.6022E+00  0.2038E+02
  -1.756  0.6069E+00  0.2038E+02
  -1.746  0.6117E+00  0.2039E+02
  -1.736  0.6165E+00  0.2040E+02
  -1.726  0.6214E+00  0.2040E+02
  -1.716  0.6263E+00  0.2041E+02
  -1.706  0.6313E+00  0.2042E+02
  -1.696  0.6364E+00  0.2042E+02
  -1.686  0.6415E+00  0.2043E+02
  -1.676  0.6467E+00  0.2043E+02
  -1.666  0.6519E+00  0.2044E+02
  -1.656  0.6573E+00  0.2045E+02
  -1.646  0.6627E+00  0.2045E+02
  -1.636  0.6682E+00  0.2046E+02
  -1.626  0.6737E+00  0.2047E+02
  -1.616  0.6794E+00  0.2047E+02
  -1.606  0.6852E+00  0.2048E+02
  -1.596  0.6910E+00  0.2049E+02
  -1.586  0.6969E+00  0.2050E+02
  -1.576  0.7029E+00  0.2050E+02
  -1.566  0.7090E+00  0.2051E+02
  -1.556  0.7151E+00  0.2052E+02
  -1.546  0.7214E+00  0.2052E+02
  -1.536  0.7277E+00  0.2053E+02
  -1.526  0.7341E+00  0.2054E+02
  -1.516  0.7406E+00  0.2055E+02
  -1.506  0.7471E+00  0.2055E+02
  -1.496  0.7537E+00  0.2056E+02
  -1.486  0.7604E+00  0.2057E+02
  -1.476  0.7671E+00  0.2058E+02
  -1.466  0.7739E+00  0.2058E+02
  -1.456  0.7807E+00  0.2059E+02
  -1.446  0.7876E+00  0.2060E+02
  -1.436  0.7945E+00  0.2061E+02
  -1.426  0.8014E+00  0.2062E+02
  -1.416  0.8083E+00  0.2062E+02
  -1.406  0.8153E+00  0.2063E+02
  -1.396  0.8223E+00  0.2064E+02
  -1.386  0.8293E+00  0.2065E+02
  -1.376  0.8363E+00  0.2066E+02
  -1.366  0.8432E+00  0.2067E+02
  -1.356  0.8502E+00  0.2067E+02
  -1.346  0.8572E+00  0.2068E+02
  -1.336  0.8642E+00  0.2069E+02
  -1.326  0.8711E+00  0.2070E+02
  -1.316  0.8780E+00  0.2071E+02
  -1.306  0.8849E+00  0.2072E+02
  -1.296  0.8917E+00  0.2073E+02
  -1.286  0.8985E+00  0.2074E+02
  -1.276  0.9053E+00  0.2074E+02
  -1.266  0.9120E+00  0.2075E+02
  -1.256  0.9186E+00  0.2076E+02
  -1.246  0.9252E+00  0.2077E+02
  -1.236  0.9317E+00  0.2078E+02
  -1.226  0.9381E+00  0.2079E+02
  -1.216  0.9444E+00  0.2080E+02
  -1.206  0.9507E+00  0.2081E+02
  -1.196  0.9568E+00  0.2082E+02
  -1.186  0.9628E+00  0.2083E+02
  -1.176  0.9687E+00  0.2084E+02
  -1.166  0.9745E+00  0.2085E+02
  -1.156  0.9801E+00  0.2086E+02
  -1.146  0.9856E+00  0.2087E+02
  -1.136  0.9909E+00  0.2088E+02
  -1.126  0.9961E+00  0.2089E+02
  -1.116  0.1001E+01  0.2090E+02
  -1.106  0.1006E+01  0.2091E+02
  -1.096  0.1010E+01  0.2092E+02
  -1.086  0.1015E+01  0.2093E+02
  -1.076  0.1019E+01  0.2094E+02
  -1.066  0.1023E+01  0.2095E+02
  -1.056  0.1026E+01  0.2096E+02
  -1.046  0.1030E+01  0.2097E+02
  -1.036  0.1033E+01  0.2098E+02
  -1.026  0.1036E+01  0.2099E+02
  -1.016  0.1038E+01  0.2100E+02
  -1.006  0.1041E+01  0.2101E+02
  -0.996  0.1043E+01  0.2102E+02
  -0.986  0.1044E+01  0.2103E+02
  -0.976  0.1046E+01  0.2104E+02
  -0.966  0.1047E+01  0.2105E+02
  -0.956  0.1047E+01  0.2106E+02
  -0.946  0.1048E+01  0.2107E+02
  -0.936  0.1048E+01  0.2108E+02
  -0.926  0.1048E+01  0.2109E+02
  -0.916  0.1047E+01  0.2110E+02
  -0.906  0.1047E+01  0.2112E+02
  -0.896  0.1046E+01  0.2113E+02
  -0.886  0.1044E+01  0.2114E+02
  -0.876  0.1043E+01  0.2115E+02
  -0.866  0.1041E+01  0.2116E+02
  -0.856  0.1039E+01  0.2117E+02
  -0.846  0.1036E+01  0.2118E+02
  -0.836  0.1034E+01  0.2119E+02
  -0.826  0.1031E+01  0.2120E+02
  -0.816  0.1028E+01  0.2121E+02
  -0.806  0.1024E+01  0.2122E+02
  -0.796  0.1021E+01  0.2123E+02
  -0.786  0.1017E+01  0.2124E+02
  -0.776  0.1013E+01  0.2125E+02
  -0.766  0.1009E+01  0.2126E+02
  -0.756  0.1005E+01  0.2127E+02
  -0.746  0.1001E+01  0.2128E+02
  -0.736  0.9962E+00  0.2129E+02
  -0.726  0.9916E+00  0.2130E+02
  -0.716  0.9869E+00  0.2131E+02
  -0.706  0.9820E+00  0.2132E+02
  -0.696  0.9771E+00  0.2133E+02
  -0.686  0.9721E+00  0.2134E+02
  -0.676  0.9670E+00  0.2135E+02
  -0.666  0.9617E+00  0.2136E+02
  -0.656  0.9565E+00  0.2137E+02
  -0.646  0.9511E+00  0.2138E+02
  -0.636  0.9457E+00  0.2139E+02
  -0.626  0.9402E+00  0.2140E+02
  -0.616  0.9346E+00  0.2140E+02
  -0.606  0.9290E+00  0.2141E+02
  -0.596  0.9232E+00  0.2142E+02
  -0.586  0.9175E+00  0.2143E+02
  -0.576  0.9117E+00  0.2144E+02
  -0.566  0.9058E+00  0.2145E+02
  -0.556  0.8998E+00  0.2146E+02
  -0.546  0.8938E+00  0.2147E+02
  -0.536  0.8877E+00  0.2148E+02
  -0.526  0.8816E+00  0.2149E+02
  -0.516  0.8754E+00  0.2150E+02
  -0.506  0.8692E+00  0.2150E+02
  -0.496  0.8629E+00  0.2151E+02
  -0.486  0.8565E+00  0.2152E+02
  -0.476  0.8501E+00  0.2153E+02
  -0.466  0.8437E+00  0.2154E+02
  -0.456  0.8372E+00  0.2155E+02
  -0.446  0.8306E+00  0.2155E+02
  -0.436  0.8240E+00  0.2156E+02
  -0.426  0.8173E+00  0.2157E+02
  -0.416  0.8107E+00  0.2158E+02
  -0.406  0.8039E+00  0.2159E+02
  -0.396  0.7971E+00  0.2160E+02
  -0.386  0.7903E+00  0.2160E+02
  -0.376  0.7835E+00  0.2161E+02
  -0.366  0.7766E+00  0.2162E+02
  -0.356  0.7697E+00  0.2163E+02
  -0.346  0.7627E+00  0.2163E+02
  -0.336  0.7558E+00  0.2164E+02
  -0.326  0.7488E+00  0.2165E+02
  -0.316  0.7417E+00  0.2166E+02
  -0.306  0.7347E+00  0.2166E+02
  -0.296  0.7276E+00  0.2167E+02
  -0.286  0.7205E+00  0.2168E+02
  -0.276  0.7133E+00  0.2169E+02
  -0.266  0.7061E+00  0.2169E+02
  -0.256  0.6989E+00  0.2170E+02
  -0.246  0.6917E+00  0.2171E+02
  -0.236  0.6844E+00  0.2171E+02
  -0.226  0.6771E+00  0.2172E+02
  -0.216  0.6698E+00  0.2173E+02
  -0.206  0.6624E+00  0.2173E+02
  -0.196  0.6550E+00  0.2174E+02
  -0.186  0.6475E+00  0.2175E+02
  -0.176  0.6400E+00  0.2175E+02
  -0.166  0.6324E+00  0.2176E+02
  -0.156  0.6248E+00  0.2177E+02
  -0.146  0.6172E+00  0.2177E+02
  -0.136  0.6095E+00  0.2178E+02
  -0.126  0.6017E+00  0.2178E+02
  -0.116  0.5939E+00  0.2179E+02
  -0.106  0.5861E+00  0.2180E+02
  -0.096  0.5782E+00  0.2180E+02
  -0.086  0.5703E+00  0.2181E+02
  -0.076  0.5623E+00  0.2181E+02
  -0.066  0.5543E+00  0.2182E+02
  -0.056  0.5463E+00  0.2182E+02
  -0.046  0.5382E+00  0.2183E+02
  -0.036  0.5301E+00  0.2183E+02
  -0.026  0.5220E+00  0.2184E+02
  -0.016  0.5139E+00  0.2184E+02
  -0.006  0.5058E+00  0.2185E+02
   0.004  0.4976E+00  0.2185E+02
   0.014  0.4895E+00  0.2186E+02
   0.024  0.4814E+00  0.2186E+02
   0.034  0.4733E+00  0.2187E+02
   0.044  0.4653E+00  0.2187E+02
   0.054  0.4573E+00  0.2188E+02
   0.064  0.4493E+00  0.2188E+02
   0.074  0.4415E+00  0.2189E+02
   0.084  0.4336E+00  0.2189E+02
   0.094  0.4259E+00  0.2190E+02
   0.104  0.4182E+00  0.2190E+02
   0.114  0.4107E+00  0.2190E+02
   0.124  0.4032E+00  0.2191E+02
   0.134  0.3959E+00  0.2191E+02
   0.144  0.3887E+00  0.2192E+02
   0.154  0.3817E+00  0.2192E+02
   0.164  0.3747E+00  0.2192E+02
   0.174  0.3680E+00  0.2193E+02
   0.184  0.3614E+00  0.2193E+02
   0.194  0.3550E+00  0.2193E+02
   0.204  0.3487E+00  0.2194E+02
   0.214  0.3427E+00  0.2194E+02
   0.224  0.3368E+00  0.2194E+02
   0.234  0.3311E+00  0.2195E+02
   0.244  0.3257E+00  0.2195E+02
   0.254  0.3205E+00  0.2195E+02
   0.264  0.3155E+00  0.2196E+02
   0.274  0.3107E+00  0.2196E+02
   0.284  0.3062E+00  0.2196E+02
   0.294  0.3019E+00  0.2197E+02
   0.304  0.2979E+00  0.2197E+02
   0.314  0.2941E+00  0.2197E+02
   0.324  0.2906E+00  0.2198E+02
   0.334  0.2873E+00  0.2198E+02
   0.344  0.2844E+00  0.2198E+02
   0.354  0.2817E+00  0.2198E+02
   0.364  0.2792E+00  0.2199E+02
   0.374  0.2771E+00  0.2199E+02
   0.384  0.2752E+00  0.2199E+02
   0.394  0.2737E+00  0.2200E+02
   0.404  0.2724E+00  0.2200E+02
   0.414  0.2715E+00  0.2200E+02
   0.424  0.2708E+00  0.2200E+02
   0.434  0.2704E+00  0.2201E+02
   0.444  0.2704E+00  0.2201E+02
   0.454  0.2706E+00  0.2201E+02
   0.464  0.2712E+00  0.2201E+02
   0.474  0.2720E+00  0.2202E+02
   0.484  0.2732E+00  0.2202E+02
   0.494  0.2747E+00  0.2202E+02
   0.504  0.2765E+00  0.2203E+02
   0.514  0.2786E+00  0.2203E+02
   0.524  0.2810E+00  0.2203E+02
   0.534  0.2837E+00  0.2203E+02
   0.544  0.2867E+00  0.2204E+02
   0.554  0.2900E+00  0.2204E+02
   0.564  0.2936E+00  0.2204E+02
   0.574  0.2974E+00  0.2205E+02
   0.584  0.3016E+00  0.2205E+02
   0.594  0.3060E+00  0.2205E+02
   0.604  0.3107E+00  0.2205E+02
   0.614  0.3156E+00  0.2206E+02
   0.624  0.3208E+00  0.2206E+02
   0.634  0.3263E+00  0.2206E+02
   0.644  0.3319E+00  0.2207E+02
   0.654  0.3378E+00  0.2207E+02
   0.664  0.3439E+00  0.2207E+02
   0.674  0.3502E+00  0.2208E+02
   0.684  0.3566E+00  0.2208E+02
   0.694  0.3633E+00  0.2208E+02
   0.704  0.3701E+00  0.2209E+02
   0.714  0.3770E+00  0.2209E+02
   0.724  0.3841E+00  0.2210E+02
   0.734  0.3913E+00  0.2210E+02
   0.744  0.3986E+00  0.2210E+02
   0.754  0.4060E+00  0.2211E+02
   0.764  0.4135E+00  0.2211E+02
   0.774  0.4211E+00  0.2212E+02
   0.784  0.4287E+00  0.2212E+02
   0.794  0.4364E+00  0.2213E+02
   0.804  0.4441E+00  0.2213E+02
   0.814  0.4519E+00  0.2213E+02
   0.824  0.4596E+00  0.2214E+02
   0.834  0.4674E+00  0.2214E+02
   0.844  0.4752E+00  0.2215E+02
   0.854  0.4830E+00  0.2215E+02
   0.864  0.4907E+00  0.2216E+02
   0.874  0.4985E+00  0.2216E+02
   0.884  0.5063E+00  0.2217E+02
   0.894  0.5140E+00  0.2217E+02
   0.904  0.5217E+00  0.2218E+02
   0.914  0.5295E+00  0.2218E+02
   0.924  0.5372E+00  0.2219E+02
   0.934  0.5449E+00  0.2219E+02
   0.944  0.5525E+00  0.2220E+02
   0.954  0.5602E+00  0.2221E+02
   0.964  0.5679E+00  0.2221E+02
   0.974  0.5756E+00  0.2222E+02
   0.984  0.5833E+00  0.2222E+02
   0.994  0.5911E+00  0.2223E+02
   1.004  0.5988E+00  0.2223E+02
   1.014  0.6066E+00  0.2224E+02
   1.024  0.6145E+00  0.2225E+02
   1.034  0.6224E+00  0.2225E+02
   1.044  0.6304E+00  0.2226E+02
   1.054  0.6384E+00  0.2227E+02
   1.064  0.6466E+00  0.2227E+02
   1.074  0.6548E+00  0.2228E+02
   1.084  0.6631E+00  0.2229E+02
   1.094  0.6715E+00  0.2229E+02
   1.104  0.6800E+00  0.2230E+02
   1.114  0.6886E+00  0.2231E+02
   1.124  0.6973E+00  0.2231E+02
   1.134  0.7061E+00  0.2232E+02
   1.144  0.7150E+00  0.2233E+02
   1.154  0.7240E+00  0.2233E+02
   1.164  0.7331E+00  0.2234E+02
   1.174  0.7423E+00  0.2235E+02
   1.184  0.7516E+00  0.2236E+02
   1.194  0.7610E+00  0.2236E+02
   1.204  0.7704E+00  0.2237E+02
   1.214  0.7799E+00  0.2238E+02
   1.224  0.7894E+00  0.2239E+02
   1.234  0.7989E+00  0.2240E+02
   1.244  0.8084E+00  0.2240E+02
   1.254  0.8180E+00  0.2241E+02
   1.264  0.8274E+00  0.2242E+02
   1.274  0.8369E+00  0.2243E+02
   1.284  0.8463E+00  0.2244E+02
   1.294  0.8556E+00  0.2245E+02
   1.304  0.8647E+00  0.2245E+02
   1.314  0.8738E+00  0.2246E+02
   1.324  0.8827E+00  0.2247E+02
   1.334  0.8914E+00  0.2248E+02
   1.344  0.8999E+00  0.2249E+02
   1.354  0.9082E+00  0.2250E+02
   1.364  0.9163E+00  0.2251E+02
   1.374  0.9241E+00  0.2252E+02
   1.384  0.9316E+00  0.2253E+02
   1.394  0.9389E+00  0.2254E+02
   1.404  0.9458E+00  0.2255E+02
   1.414  0.9524E+00  0.2255E+02
   1.424  0.9586E+00  0.2256E+02
   1.434  0.9645E+00  0.2257E+02
   1.444  0.9700E+00  0.2258E+02
   1.454  0.9751E+00  0.2259E+02
   1.464  0.9799E+00  0.2260E+02
   1.474  0.9842E+00  0.2261E+02
   1.484  0.9881E+00  0.2262E+02
   1.494  0.9916E+00  0.2263E+02
   1.504  0.9947E+00  0.2264E+02
   1.514  0.9974E+00  0.2265E+02
   1.524  0.9997E+00  0.2266E+02
   1.534  0.1001E+01  0.2267E+02
   1.544  0.1003E+01  0.2268E+02
   1.554  0.1004E+01  0.2269E+02
   1.564  0.1004E+01  0.2270E+02
   1.574  0.1005E+01  0.2271E+02
   1.584  0.1004E+01  0.2272E+02
   1.594  0.1004E+01  0.2273E+02
   1.604  0.1003E+01  0.2274E+02
   1.614  0.1001E+01  0.2275E+02
   1.624  0.9993E+00  0.2276E+02
   1.634  0.9971E+00  0.2277E+02
   1.644  0.9945E+00  0.2278E+02
   1.654  0.9916E+00  0.2279E+02
   1.664  0.9883E+00  0.2280E+02
   1.674  0.9847E+00  0.2281E+02
   1.684  0.9807E+00  0.2282E+02
   1.694  0.9764E+00  0.2283E+02
   1.704  0.9718E+00  0.2284E+02
   1.714  0.9668E+00  0.2285E+02
   1.724  0.9616E+00  0.2286E+02
   1.734  0.9561E+00  0.2287E+02
   1.744  0.9503E+00  0.2288E+02
   1.754  0.9443E+00  0.2289E+02
   1.764  0.9380E+00  0.2290E+02
   1.774  0.9314E+00  0.2291E+02
   1.784  0.9246E+00  0.2292E+02
   1.794  0.9175E+00  0.2293E+02
   1.804  0.9103E+00  0.2294E+02
   1.814  0.9028E+00  0.2295E+02
   1.824  0.8951E+00  0.2295E+02
   1.834  0.8873E+00  0.2296E+02
   1.844  0.8792E+00  0.2297E+02
   1.854  0.8710E+00  0.2298E+02
   1.864  0.8627E+00  0.2299E+02
   1.874  0.8542E+00  0.2300E+02
   1.884  0.8455E+00  0.2301E+02
   1.894  0.8368E+00  0.2301E+02
   1.904  0.8279E+00  0.2302E+02
   1.914  0.8190E+00  0.2303E+02
   1.924  0.8100E+00  0.2304E+02
   1.934  0.8009E+00  0.2305E+02
   1.944  0.7917E+00  0.2305E+02
   1.954  0.7826E+00  0.2306E+02
   1.964  0.7734E+00  0.2307E+02
   1.974  0.7642E+00  0.2308E+02
   1.984  0.7551E+00  0.2309E+02
   1.994  0.7460E+00  0.2309E+02
   2.004  0.7369E+00  0.2310E+02
   2.014  0.7279E+00  0.2311E+02
   2.024  0.7189E+00  0.2311E+02
   2.034  0.7101E+00  0.2312E+02
   2.044  0.7013E+00  0.2313E+02
   2.054  0.6927E+00  0.2314E+02
   2.064  0.6842E+00  0.2314E+02
   2.074  0.6758E+00  0.2315E+02
   2.084  0.6676E+00  0.2316E+02
   2.094  0.6596E+00  0.2316E+02
   2.104  0.6517E+00  0.2317E+02
   2.114  0.6441E+00  0.2318E+02
   2.124  0.6366E+00  0.2318E+02
   2.134  0.6293E+00  0.2319E+02
   2.144  0.6223E+00  0.2319E+02
   2.154  0.6154E+00  0.2320E+02
   2.164  0.6088E+00  0.2321E+02
   2.174  0.6023E+00  0.2321E+02
   2.184  0.5961E+00  0.2322E+02
   2.194  0.5901E+00  0.2322E+02
   2.204  0.5844E+00  0.2323E+02
   2.214  0.5788E+00  0.2324E+02
   2.224  0.5735E+00  0.2324E+02
   2.234  0.5683E+00  0.2325E+02
   2.244  0.5634E+00  0.2325E+02
   2.254  0.5586E+00  0.2326E+02
   2.264  0.5541E+00  0.2326E+02
   2.274  0.5497E+00  0.2327E+02
   2.284  0.5455E+00  0.2328E+02
   2.294  0.5414E+00  0.2328E+02
   2.304  0.5375E+00  0.2329E+02
   2.314  0.5338E+00  0.2329E+02
   2.324  0.5301E+00  0.2330E+02
   2.334  0.5266E+00  0.2330E+02
   2.344  0.5232E+00  0.2331E+02
   2.354  0.5199E+00  0.2331E+02
   2.364  0.5166E+00  0.2332E+02
   2.374  0.5135E+00  0.2332E+02
   2.384  0.5104E+00  0.2333E+02
   2.394  0.5073E+00  0.2333E+02
   2.404  0.5043E+00  0.2334E+02
   2.414  0.5013E+00  0.2334E+02
   2.424  0.4983E+00  0.2335E+02
   2.434  0.4954E+00  0.2335E+02
   2.444  0.4924E+00  0.2336E+02
   2.454  0.4894E+00  0.2336E+02
   2.464  0.4864E+00  0.2337E+02
   2.474  0.4834E+00  0.2337E+02
   2.484  0.4804E+00  0.2338E+02
   2.494  0.4773E+00  0.2338E+02
   2.504  0.4741E+00  0.2339E+02
   2.514  0.4709E+00  0.2339E+02
   2.524  0.4677E+00  0.2340E+02
   2.534  0.4644E+00  0.2340E+02
   2.544  0.4610E+00  0.2341E+02
   2.554  0.4576E+00  0.2341E+02
   2.564  0.4541E+00  0.2341E+02
   2.574  0.4506E+00  0.2342E+02
   2.584  0.4470E+00  0.2342E+02
   2.594  0.4433E+00  0.2343E+02
   2.604  0.4395E+00  0.2343E+02
   2.614  0.4357E+00  0.2344E+02
   2.624  0.4318E+00  0.2344E+02
   2.634  0.4279E+00  0.2345E+02
   2.644  0.4239E+00  0.2345E+02
   2.654  0.4198E+00  0.2345E+02
   2.664  0.4158E+00  0.2346E+02
   2.674  0.4116E+00  0.2346E+02
   2.684  0.4075E+00  0.2347E+02
   2.694  0.4033E+00  0.2347E+02
   2.704  0.3991E+00  0.2347E+02
   2.714  0.3949E+00  0.2348E+02
   2.724  0.3907E+00  0.2348E+02
   2.734  0.3865E+00  0.2349E+02
   2.744  0.3823E+00  0.2349E+02
   2.754  0.3781E+00  0.2349E+02
   2.764  0.3740E+00  0.2350E+02
   2.774  0.3699E+00  0.2350E+02
   2.784  0.3659E+00  0.2350E+02
   2.794  0.3620E+00  0.2351E+02
   2.804  0.3581E+00  0.2351E+02
   2.814  0.3543E+00  0.2352E+02
   2.824  0.3506E+00  0.2352E+02
   2.834  0.3469E+00  0.2352E+02
   2.844  0.3434E+00  0.2353E+02
   2.854  0.3401E+00  0.2353E+02
   2.864  0.3368E+00  0.2353E+02
   2.874  0.3337E+00  0.2354E+02
   2.884  0.3307E+00  0.2354E+02
   2.894  0.3279E+00  0.2354E+02
   2.904  0.3252E+00  0.2355E+02
   2.914  0.3227E+00  0.2355E+02
   2.924  0.3203E+00  0.2355E+02
   2.934  0.3181E+00  0.2356E+02
   2.944  0.3160E+00  0.2356E+02
   2.954  0.3141E+00  0.2356E+02
   2.964  0.3124E+00  0.2356E+02
   2.974  0.3108E+00  0.2357E+02
   2.984  0.3094E+00  0.2357E+02
   2.994  0.3081E+00  0.2357E+02
   3.004  0.3070E+00  0.2358E+02
   3.014  0.3060E+00  0.2358E+02
   3.024  0.3051E+00  0.2358E+02
   3.034  0.3044E+00  0.2359E+02
   3.044  0.3038E+00  0.2359E+02
   3.054  0.3032E+00  0.2359E+02
   3.064  0.3028E+00  0.2360E+02
   3.074  0.3025E+00  0.2360E+02
   3.084  0.3022E+00  0.2360E+02
   3.094  0.3020E+00  0.2360E+02
   3.104  0.3018E+00  0.2361E+02
   3.114  0.3017E+00  0.2361E+02
   3.124  0.3016E+00  0.2361E+02
   3.134  0.3015E+00  0.2362E+02
   3.144  0.3014E+00  0.2362E+02
   3.154  0.3013E+00  0.2362E+02
   3.164  0.3011E+00  0.2363E+02
   3.174  0.3009E+00  0.2363E+02
   3.184  0.3006E+00  0.2363E+02
   3.194  0.3003E+00  0.2363E+02
   3.204  0.2999E+00  0.2364E+02
   3.214  0.2993E+00  0.2364E+02
   3.224  0.2987E+00  0.2364E+02
   3.234  0.2980E+00  0.2365E+02
   3.244  0.2971E+00  0.2365E+02
   3.254  0.2962E+00  0.2365E+02
   3.264  0.2950E+00  0.2366E+02
   3.274  0.2938E+00  0.2366E+02
   3.284  0.2924E+00  0.2366E+02
   3.294  0.2909E+00  0.2366E+02
   3.304  0.2892E+00  0.2367E+02
   3.314  0.2873E+00  0.2367E+02
   3.324  0.2853E+00  0.2367E+02
   3.334  0.2832E+00  0.2368E+02
   3.344  0.2809E+00  0.2368E+02
   3.354  0.2785E+00  0.2368E+02
   3.364  0.2759E+00  0.2368E+02
   3.374  0.2733E+00  0.2369E+02
   3.384  0.2705E+00  0.2369E+02
   3.394  0.2675E+00  0.2369E+02
   3.404  0.2645E+00  0.2369E+02
   3.414  0.2614E+00  0.2370E+02
   3.424  0.2582E+00  0.2370E+02
   3.434  0.2549E+00  0.2370E+02
   3.444  0.2516E+00  0.2371E+02
   3.454  0.2482E+00  0.2371E+02
   3.464  0.2448E+00  0.2371E+02
   3.474  0.2414E+00  0.2371E+02
   3.484  0.2379E+00  0.2371E+02
   3.494  0.2345E+00  0.2372E+02
   3.504  0.2311E+00  0.2372E+02
   3.514  0.2276E+00  0.2372E+02
   3.524  0.2243E+00  0.2372E+02
   3.534  0.2210E+00  0.2373E+02
   3.544  0.2177E+00  0.2373E+02
   3.554  0.2145E+00  0.2373E+02
   3.564  0.2114E+00  0.2373E+02
   3.574  0.2084E+00  0.2373E+02
   3.584  0.2055E+00  0.2374E+02
   3.594  0.2027E+00  0.2374E+02
   3.604  0.2001E+00  0.2374E+02
   3.614  0.1975E+00  0.2374E+02
   3.624  0.1951E+00  0.2374E+02
   3.634  0.1928E+00  0.2375E+02
   3.644  0.1907E+00  0.2375E+02
   3.654  0.1887E+00  0.2375E+02
   3.664  0.1868E+00  0.2375E+02
   3.674  0.1851E+00  0.2375E+02
   3.684  0.1835E+00  0.2376E+02
   3.694  0.1821E+00  0.2376E+02
   3.704  0.1808E+00  0.2376E+02
   3.714  0.1796E+00  0.2376E+02
   3.724  0.1786E+00  0.2376E+02
   3.734  0.1777E+00  0.2376E+02
   3.744  0.1770E+00  0.2377E+02
   3.754  0.1764E+00  0.2377E+02
   3.764  0.1759E+00  0.2377E+02
   3.774  0.1755E+00  0.2377E+02
   3.784  0.1752E+00  0.2377E+02
   3.794  0.1751E+00  0.2378E+02
   3.804  0.1751E+00  0.2378E+02
   3.814  0.1751E+00  0.2378E+02
   3.824  0.1753E+00  0.2378E+02
   3.834  0.1756E+00  0.2378E+02
   3.844  0.1760E+00  0.2378E+02
   3.854  0.1764E+00  0.2379E+02
   3.864  0.1770E+00  0.2379E+02
   3.874  0.1777E+00  0.2379E+02
   3.884  0.1784E+00  0.2379E+02
   3.894  0.1793E+00  0.2379E+02
   3.904  0.1803E+00  0.2379E+02
   3.914  0.1814E+00  0.2380E+02
   3.924  0.1826E+00  0.2380E+02
   3.934  0.1840E+00  0.2380E+02
   3.944  0.1855E+00  0.2380E+02
   3.954  0.1871E+00  0.2380E+02
   3.964  0.1889E+00  0.2381E+02
   3.974  0.1908E+00  0.2381E+02
   3.984  0.1929E+00  0.2381E+02
   3.994  0.1952E+00  0.2381E+02
   4.004  0.1977E+00  0.2381E+02
   4.014  0.2005E+00  0.2382E+02
   4.024  0.2034E+00  0.2382E+02
   4.034  0.2066E+00  0.2382E+02
   4.044  0.2101E+00  0.2382E+02
   4.054  0.2138E+00  0.2382E+02
   4.064  0.2179E+00  0.2383E+02
   4.074  0.2222E+00  0.2383E+02
   4.084  0.2269E+00  0.2383E+02
   4.094  0.2319E+00  0.2383E+02
   4.104  0.2373E+00  0.2384E+02
   4.114  0.2431E+00  0.2384E+02
   4.124  0.2492E+00  0.2384E+02
   4.134  0.2558E+00  0.2384E+02
   4.144  0.2628E+00  0.2385E+02
   4.154  0.2702E+00  0.2385E+02
   4.164  0.2781E+00  0.2385E+02
   4.174  0.2864E+00  0.2385E+02
   4.184  0.2952E+00  0.2386E+02
   4.194  0.3045E+00  0.2386E+02
   4.204  0.3143E+00  0.2386E+02
   4.214  0.3246E+00  0.2387E+02
   4.224  0.3354E+00  0.2387E+02
   4.234  0.3467E+00  0.2387E+02
   4.244  0.3585E+00  0.2388E+02
   4.254  0.3708E+00  0.2388E+02
   4.264  0.3836E+00  0.2388E+02
   4.274  0.3970E+00  0.2389E+02
   4.284  0.4109E+00  0.2389E+02
   4.294  0.4252E+00  0.2390E+02
   4.304  0.4401E+00  0.2390E+02
   4.314  0.4555E+00  0.2391E+02
   4.324  0.4713E+00  0.2391E+02
   4.334  0.4877E+00  0.2392E+02
   4.344  0.5044E+00  0.2392E+02
   4.354  0.5217E+00  0.2393E+02
   4.364  0.5393E+00  0.2393E+02
   4.374  0.5574E+00  0.2394E+02
   4.384  0.5759E+00  0.2394E+02
   4.394  0.5947E+00  0.2395E+02
   4.404  0.6139E+00  0.2395E+02
   4.414  0.6334E+00  0.2396E+02
   4.424  0.6532E+00  0.2397E+02
   4.434  0.6733E+00  0.2397E+02
   4.444  0.6936E+00  0.2398E+02
   4.454  0.7142E+00  0.2399E+02
   4.464  0.7349E+00  0.2400E+02
   4.474  0.7557E+00  0.2400E+02
   4.484  0.7767E+00  0.2401E+02
   4.494  0.7978E+00  0.2402E+02
   4.504  0.8189E+00  0.2403E+02
   4.514  0.8400E+00  0.2404E+02
   4.524  0.8611E+00  0.2404E+02
   4.534  0.8822E+00  0.2405E+02
   4.544  0.9031E+00  0.2406E+02
   4.554  0.9239E+00  0.2407E+02
   4.564  0.9446E+00  0.2408E+02
   4.574  0.9650E+00  0.2409E+02
   4.584  0.9852E+00  0.2410E+02
   4.594  0.1005E+01  0.2411E+02
   4.604  0.1025E+01  0.2412E+02
   4.614  0.1044E+01  0.2413E+02
   4.624  0.1063E+01  0.2414E+02
   4.634  0.1081E+01  0.2415E+02
   4.644  0.1099E+01  0.2416E+02
   4.654  0.1117E+01  0.2417E+02
   4.664  0.1134E+01  0.2419E+02
   4.674  0.1151E+01  0.2420E+02
   4.684  0.1167E+01  0.2421E+02
   4.694  0.1182E+01  0.2422E+02
   4.704  0.1197E+01  0.2423E+02
   4.714  0.1212E+01  0.2424E+02
   4.724  0.1225E+01  0.2426E+02
   4.734  0.1239E+01  0.2427E+02
   4.744  0.1251E+01  0.2428E+02
   4.754  0.1263E+01  0.2429E+02
   4.764  0.1275E+01  0.2431E+02
   4.774  0.1286E+01  0.2432E+02
   4.784  0.1296E+01  0.2433E+02
   4.794  0.1306E+01  0.2435E+02
   4.804  0.1315E+01  0.2436E+02
   4.814  0.1323E+01  0.2437E+02
   4.824  0.1332E+01  0.2439E+02
   4.834  0.1339E+01  0.2440E+02
   4.844  0.1346E+01  0.2441E+02
   4.854  0.1353E+01  0.2443E+02
   4.864  0.1359E+01  0.2444E+02
   4.874  0.1365E+01  0.2445E+02
   4.884  0.1371E+01  0.2447E+02
   4.894  0.1376E+01  0.2448E+02
   4.904  0.1381E+01  0.2449E+02
   4.914  0.1386E+01  0.2451E+02
   4.924  0.1390E+01  0.2452E+02
   4.934  0.1394E+01  0.2454E+02
   4.944  0.1399E+01  0.2455E+02
   4.954  0.1403E+01  0.2456E+02
   4.964  0.1406E+01  0.2458E+02
   4.974  0.1410E+01  0.2459E+02
   4.984  0.1414E+01  0.2461E+02
   4.994  0.1418E+01  0.2462E+02
   5.004  0.1422E+01  0.2464E+02
   5.014  0.1426E+01  0.2465E+02
   5.024  0.1430E+01  0.2466E+02
   5.034  0.1434E+01  0.2468E+02
   5.044  0.1438E+01  0.2469E+02
   5.054  0.1443E+01  0.2471E+02
   5.064  0.1447E+01  0.2472E+02
   5.074  0.1452E+01  0.2474E+02
   5.084  0.1457E+01  0.2475E+02
   5.094  0.1462E+01  0.2476E+02
   5.104  0.1467E+01  0.2478E+02
   5.114  0.1473E+01  0.2479E+02
   5.124  0.1479E+01  0.2481E+02
   5.134  0.1484E+01  0.2482E+02
   5.144  0.1491E+01  0.2484E+02
   5.154  0.1497E+01  0.2485E+02
   5.164  0.1503E+01  0.2487E+02
   5.174  0.1510E+01  0.2488E+02
   5.184  0.1517E+01  0.2490E+02
   5.194  0.1523E+01  0.2491E+02
   5.204  0.1530E+01  0.2493E+02
   5.214  0.1537E+01  0.2495E+02
   5.224  0.1545E+01  0.2496E+02
   5.234  0.1552E+01  0.2498E+02
   5.244  0.1559E+01  0.2499E+02
   5.254  0.1566E+01  0.2501E+02
   5.264  0.1574E+01  0.2502E+02
   5.274  0.1581E+01  0.2504E+02
   5.284  0.1588E+01  0.2505E+02
   5.294  0.1595E+01  0.2507E+02
   5.304  0.1603E+01  0.2509E+02
   5.314  0.1609E+01  0.2510E+02
   5.324  0.1616E+01  0.2512E+02
   5.334  0.1623E+01  0.2514E+02
   5.344  0.1630E+01  0.2515E+02
   5.354  0.1636E+01  0.2517E+02
   5.364  0.1642E+01  0.2518E+02
   5.374  0.1648E+01  0.2520E+02
   5.384  0.1654E+01  0.2522E+02
   5.394  0.1659E+01  0.2523E+02
   5.404  0.1665E+01  0.2525E+02
   5.414  0.1670E+01  0.2527E+02
   5.424  0.1674E+01  0.2528E+02
   5.434  0.1679E+01  0.2530E+02
   5.444  0.1683E+01  0.2532E+02
   5.454  0.1687E+01  0.2533E+02
   5.464  0.1690E+01  0.2535E+02
   5.474  0.1694E+01  0.2537E+02
   5.484  0.1697E+01  0.2539E+02
   5.494  0.1699E+01  0.2540E+02
   5.504  0.1702E+01  0.2542E+02
   5.514  0.1704E+01  0.2544E+02
   5.524  0.1706E+01  0.2545E+02
   5.534  0.1707E+01  0.2547E+02
   5.544  0.1708E+01  0.2549E+02
   5.554  0.1709E+01  0.2550E+02
   5.564  0.1710E+01  0.2552E+02
   5.574  0.1711E+01  0.2554E+02
   5.584  0.1711E+01  0.2556E+02
   5.594  0.1711E+01  0.2557E+02
   5.604  0.1711E+01  0.2559E+02
   5.614  0.1711E+01  0.2561E+02
   5.624  0.1710E+01  0.2562E+02
   5.634  0.1709E+01  0.2564E+02
   5.644  0.1708E+01  0.2566E+02
   5.654  0.1707E+01  0.2568E+02
   5.664  0.1706E+01  0.2569E+02
   5.674  0.1705E+01  0.2571E+02
   5.684  0.1703E+01  0.2573E+02
   5.694  0.1702E+01  0.2574E+02
   5.704  0.1700E+01  0.2576E+02
   5.714  0.1699E+01  0.2578E+02
   5.724  0.1697E+01  0.2579E+02
   5.734  0.1695E+01  0.2581E+02
   5.744  0.1694E+01  0.2583E+02
   5.754  0.1692E+01  0.2585E+02
   5.764  0.1690E+01  0.2586E+02
   5.774  0.1688E+01  0.2588E+02
   5.784  0.1686E+01  0.2590E+02
   5.794  0.1684E+01  0.2591E+02
   5.804  0.1683E+01  0.2593E+02
   5.814  0.1681E+01  0.2595E+02
   5.824  0.1679E+01  0.2596E+02
   5.834  0.1677E+01  0.2598E+02
   5.844  0.1675E+01  0.2600E+02
   5.854  0.1674E+01  0.2601E+02
   5.864  0.1672E+01  0.2603E+02
   5.874  0.1670E+01  0.2605E+02
   5.884  0.1668E+01  0.2606E+02
   5.894  0.1667E+01  0.2608E+02
   5.904  0.1665E+01  0.2610E+02
   5.914  0.1663E+01  0.2611E+02
   5.924  0.1662E+01  0.2613E+02
   5.934  0.1660E+01  0.2615E+02
   5.944  0.1658E+01  0.2616E+02
   5.954  0.1657E+01  0.2618E+02
   5.964  0.1655E+01  0.2620E+02
   5.974  0.1653E+01  0.2621E+02
   5.984  0.1651E+01  0.2623E+02
   5.994  0.1650E+01  0.2625E+02
   6.004  0.1648E+01  0.2626E+02
   6.014  0.1646E+01  0.2628E+02
   6.024  0.1644E+01  0.2630E+02
   6.034  0.1642E+01  0.2631E+02
   6.044  0.1640E+01  0.2633E+02
   6.054  0.1638E+01  0.2634E+02
   6.064  0.1636E+01  0.2636E+02
   6.074  0.1634E+01  0.2638E+02
   6.084  0.1631E+01  0.2639E+02
   6.094  0.1629E+01  0.2641E+02
   6.104  0.1627E+01  0.2643E+02
   6.114  0.1624E+01  0.2644E+02
   6.124  0.1621E+01  0.2646E+02
   6.134  0.1619E+01  0.2648E+02
   6.144  0.1616E+01  0.2649E+02
   6.154  0.1613E+01  0.2651E+02
   6.164  0.1610E+01  0.2652E+02
   6.174  0.1607E+01  0.2654E+02
   6.184  0.1604E+01  0.2656E+02
   6.194  0.1600E+01  0.2657E+02
   6.204  0.1597E+01  0.2659E+02
   6.214  0.1593E+01  0.2660E+02
   6.224  0.1589E+01  0.2662E+02
   6.234  0.1586E+01  0.2664E+02
   6.244  0.1581E+01  0.2665E+02
   6.254  0.1577E+01  0.2667E+02
   6.264  0.1573E+01  0.2668E+02
   6.274  0.1568E+01  0.2670E+02
   6.284  0.1564E+01  0.2671E+02
   6.294  0.1559E+01  0.2673E+02
   6.304  0.1554E+01  0.2674E+02
   6.314  0.1549E+01  0.2676E+02
   6.324  0.1544E+01  0.2678E+02
   6.334  0.1538E+01  0.2679E+02
   6.344  0.1532E+01  0.2681E+02
   6.354  0.1527E+01  0.2682E+02
   6.364  0.1520E+01  0.2684E+02
   6.374  0.1514E+01  0.2685E+02
   6.384  0.1508E+01  0.2687E+02
   6.394  0.1501E+01  0.2688E+02
   6.404  0.1494E+01  0.2690E+02
   6.414  0.1487E+01  0.2691E+02
   6.424  0.1480E+01  0.2693E+02
   6.434  0.1473E+01  0.2694E+02
   6.444  0.1465E+01  0.2696E+02
   6.454  0.1457E+01  0.2697E+02
   6.464  0.1449E+01  0.2699E+02
   6.474  0.1441E+01  0.2700E+02
   6.484  0.1432E+01  0.2701E+02
   6.494  0.1424E+01  0.2703E+02
   6.504  0.1415E+01  0.2704E+02
   6.514  0.1406E+01  0.2706E+02
   6.524  0.1397E+01  0.2707E+02
   6.534  0.1387E+01  0.2708E+02
   6.544  0.1378E+01  0.2710E+02
   6.554  0.1368E+01  0.2711E+02
   6.564  0.1358E+01  0.2713E+02
   6.574  0.1348E+01  0.2714E+02
   6.584  0.1338E+01  0.2715E+02
   6.594  0.1328E+01  0.2717E+02
   6.604  0.1317E+01  0.2718E+02
   6.614  0.1306E+01  0.2719E+02
   6.624  0.1296E+01  0.2720E+02
   6.634  0.1285E+01  0.2722E+02
   6.644  0.1274E+01  0.2723E+02
   6.654  0.1263E+01  0.2724E+02
   6.664  0.1251E+01  0.2726E+02
   6.674  0.1240E+01  0.2727E+02
   6.684  0.1228E+01  0.2728E+02
   6.694  0.1217E+01  0.2729E+02
   6.704  0.1205E+01  0.2730E+02
   6.714  0.1194E+01  0.2732E+02
   6.724  0.1182E+01  0.2733E+02
   6.734  0.1170E+01  0.2734E+02
   6.744  0.1158E+01  0.2735E+02
   6.754  0.1146E+01  0.2736E+02
   6.764  0.1134E+01  0.2737E+02
   6.774  0.1122E+01  0.2739E+02
   6.784  0.1110E+01  0.2740E+02
   6.794  0.1098E+01  0.2741E+02
   6.804  0.1085E+01  0.2742E+02
   6.814  0.1073E+01  0.2743E+02
   6.824  0.1061E+01  0.2744E+02
   6.834  0.1049E+01  0.2745E+02
   6.844  0.1036E+01  0.2746E+02
   6.854  0.1024E+01  0.2747E+02
   6.864  0.1012E+01  0.2748E+02
   6.874  0.9997E+00  0.2749E+02
   6.884  0.9874E+00  0.2750E+02
   6.894  0.9752E+00  0.2751E+02
   6.904  0.9629E+00  0.2752E+02
   6.914  0.9507E+00  0.2753E+02
   6.924  0.9385E+00  0.2754E+02
   6.934  0.9264E+00  0.2755E+02
   6.944  0.9142E+00  0.2756E+02
   6.954  0.9021E+00  0.2757E+02
   6.964  0.8900E+00  0.2758E+02
   6.974  0.8780E+00  0.2758E+02
   6.984  0.8660E+00  0.2759E+02
   6.994  0.8540E+00  0.2760E+02
   7.004  0.8421E+00  0.2761E+02
   7.014  0.8302E+00  0.2762E+02
   7.024  0.8183E+00  0.2763E+02
   7.034  0.8065E+00  0.2763E+02
   7.044  0.7948E+00  0.2764E+02
   7.054  0.7830E+00  0.2765E+02
   7.064  0.7714E+00  0.2766E+02
   7.074  0.7597E+00  0.2767E+02
   7.084  0.7482E+00  0.2767E+02
   7.094  0.7366E+00  0.2768E+02
   7.104  0.7251E+00  0.2769E+02
   7.114  0.7137E+00  0.2769E+02
   7.124  0.7023E+00  0.2770E+02
   7.134  0.6910E+00  0.2771E+02
   7.144  0.6797E+00  0.2772E+02
   7.154  0.6684E+00  0.2772E+02
   7.164  0.6572E+00  0.2773E+02
   7.174  0.6461E+00  0.2774E+02
   7.184  0.6350E+00  0.2774E+02
   7.194  0.6239E+00  0.2775E+02
   7.204  0.6130E+00  0.2775E+02
   7.214  0.6021E+00  0.2776E+02
   7.224  0.5912E+00  0.2777E+02
   7.234  0.5804E+00  0.2777E+02
   7.244  0.5697E+00  0.2778E+02
   7.254  0.5591E+00  0.2778E+02
   7.264  0.5485E+00  0.2779E+02
   7.274  0.5381E+00  0.2779E+02
   7.284  0.5277E+00  0.2780E+02
   7.294  0.5174E+00  0.2780E+02
   7.304  0.5072E+00  0.2781E+02
   7.314  0.4971E+00  0.2781E+02
   7.324  0.4872E+00  0.2782E+02
   7.334  0.4773E+00  0.2782E+02
   7.344  0.4676E+00  0.2783E+02
   7.354  0.4580E+00  0.2783E+02
   7.364  0.4486E+00  0.2784E+02
   7.374  0.4393E+00  0.2784E+02
   7.384  0.4301E+00  0.2785E+02
   7.394  0.4211E+00  0.2785E+02
   7.404  0.4123E+00  0.2785E+02
   7.414  0.4036E+00  0.2786E+02
   7.424  0.3951E+00  0.2786E+02
   7.434  0.3868E+00  0.2787E+02
   7.444  0.3786E+00  0.2787E+02
   7.454  0.3706E+00  0.2787E+02
   7.464  0.3629E+00  0.2788E+02
   7.474  0.3553E+00  0.2788E+02
   7.484  0.3479E+00  0.2788E+02
   7.494  0.3407E+00  0.2789E+02
   7.504  0.3337E+00  0.2789E+02
   7.514  0.3268E+00  0.2789E+02
   7.524  0.3202E+00  0.2790E+02
   7.534  0.3138E+00  0.2790E+02
   7.544  0.3076E+00  0.2790E+02
   7.554  0.3015E+00  0.2791E+02
   7.564  0.2956E+00  0.2791E+02
   7.574  0.2900E+00  0.2791E+02
   7.584  0.2845E+00  0.2792E+02
   7.594  0.2792E+00  0.2792E+02
   7.604  0.2740E+00  0.2792E+02
   7.614  0.2691E+00  0.2792E+02
   7.624  0.2642E+00  0.2793E+02
   7.634  0.2596E+00  0.2793E+02
   7.644  0.2551E+00  0.2793E+02
   7.654  0.2508E+00  0.2793E+02
   7.664  0.2466E+00  0.2794E+02
   7.674  0.2425E+00  0.2794E+02
   7.684  0.2386E+00  0.2794E+02
   7.694  0.2348E+00  0.2794E+02
   7.704  0.2311E+00  0.2795E+02
   7.714  0.2275E+00  0.2795E+02
   7.724  0.2240E+00  0.2795E+02
   7.734  0.2206E+00  0.2795E+02
   7.744  0.2174E+00  0.2796E+02
   7.754  0.2142E+00  0.2796E+02
   7.764  0.2110E+00  0.2796E+02
   7.774  0.2080E+00  0.2796E+02
   7.784  0.2050E+00  0.2796E+02
   7.794  0.2021E+00  0.2797E+02
   7.804  0.1993E+00  0.2797E+02
   7.814  0.1965E+00  0.2797E+02
   7.824  0.1938E+00  0.2797E+02
   7.834  0.1911E+00  0.2797E+02
   7.844  0.1884E+00  0.2798E+02
   7.854  0.1858E+00  0.2798E+02
   7.864  0.1833E+00  0.2798E+02
   7.874  0.1808E+00  0.2798E+02
   7.884  0.1783E+00  0.2798E+02
   7.894  0.1758E+00  0.2798E+02
   7.904  0.1734E+00  0.2799E+02
   7.914  0.1710E+00  0.2799E+02
   7.924  0.1687E+00  0.2799E+02
   7.934  0.1664E+00  0.2799E+02
   7.944  0.1642E+00  0.2799E+02
   7.954  0.1620E+00  0.2799E+02
   7.964  0.1598E+00  0.2800E+02
   7.974  0.1577E+00  0.2800E+02
   7.984  0.1557E+00  0.2800E+02
   7.994  0.1538E+00  0.2800E+02
   8.004  0.1519E+00  0.2800E+02
   8.014  0.1501E+00  0.2800E+02
   8.024  0.1484E+00  0.2801E+02
   8.034  0.1468E+00  0.2801E+02
   8.044  0.1453E+00  0.2801E+02
   8.054  0.1439E+00  0.2801E+02
   8.064  0.1426E+00  0.2801E+02
   8.074  0.1415E+00  0.2801E+02
   8.084  0.1406E+00  0.2801E+02
   8.094  0.1398E+00  0.2802E+02
   8.104  0.1392E+00  0.2802E+02
   8.114  0.1387E+00  0.2802E+02
   8.124  0.1385E+00  0.2802E+02
   8.134  0.1385E+00  0.2802E+02
   8.144  0.1387E+00  0.2802E+02
   8.154  0.1392E+00  0.2802E+02
   8.164  0.1399E+00  0.2802E+02
   8.174  0.1409E+00  0.2803E+02
   8.184  0.1421E+00  0.2803E+02
   8.194  0.1437E+00  0.2803E+02
   8.204  0.1455E+00  0.2803E+02
   8.214  0.1477E+00  0.2803E+02
   8.224  0.1502E+00  0.2803E+02
   8.234  0.1531E+00  0.2804E+02
   8.244  0.1562E+00  0.2804E+02
   8.254  0.1598E+00  0.2804E+02
   8.264  0.1637E+00  0.2804E+02
   8.274  0.1680E+00  0.2804E+02
   8.284  0.1727E+00  0.2804E+02
   8.294  0.1777E+00  0.2804E+02
   8.304  0.1832E+00  0.2805E+02
   8.314  0.1891E+00  0.2805E+02
   8.324  0.1954E+00  0.2805E+02
   8.334  0.2021E+00  0.2805E+02
   8.344  0.2092E+00  0.2805E+02
   8.354  0.2167E+00  0.2806E+02
   8.364  0.2246E+00  0.2806E+02
   8.374  0.2330E+00  0.2806E+02
   8.384  0.2417E+00  0.2806E+02
   8.394  0.2509E+00  0.2807E+02
   8.404  0.2605E+00  0.2807E+02
   8.414  0.2704E+00  0.2807E+02
   8.424  0.2808E+00  0.2807E+02
   8.434  0.2915E+00  0.2808E+02
   8.444  0.3026E+00  0.2808E+02
   8.454  0.3141E+00  0.2808E+02
   8.464  0.3259E+00  0.2809E+02
   8.474  0.3381E+00  0.2809E+02
   8.484  0.3505E+00  0.2809E+02
   8.494  0.3633E+00  0.2810E+02
   8.504  0.3764E+00  0.2810E+02
   8.514  0.3897E+00  0.2811E+02
   8.524  0.4033E+00  0.2811E+02
   8.534  0.4172E+00  0.2811E+02
   8.544  0.4312E+00  0.2812E+02
   8.554  0.4455E+00  0.2812E+02
   8.564  0.4600E+00  0.2813E+02
   8.574  0.4746E+00  0.2813E+02
   8.584  0.4894E+00  0.2814E+02
   8.594  0.5043E+00  0.2814E+02
   8.604  0.5194E+00  0.2815E+02
   8.614  0.5345E+00  0.2815E+02
   8.624  0.5498E+00  0.2816E+02
   8.634  0.5651E+00  0.2816E+02
   8.644  0.5805E+00  0.2817E+02
   8.654  0.5959E+00  0.2817E+02
   8.664  0.6114E+00  0.2818E+02
   8.674  0.6269E+00  0.2819E+02
   8.684  0.6424E+00  0.2819E+02
   8.694  0.6579E+00  0.2820E+02
   8.704  0.6734E+00  0.2821E+02
   8.714  0.6890E+00  0.2821E+02
   8.724  0.7045E+00  0.2822E+02
   8.734  0.7201E+00  0.2823E+02
   8.744  0.7356E+00  0.2824E+02
   8.754  0.7511E+00  0.2824E+02
   8.764  0.7667E+00  0.2825E+02
   8.774  0.7823E+00  0.2826E+02
   8.784  0.7979E+00  0.2827E+02
   8.794  0.8135E+00  0.2827E+02
   8.804  0.8292E+00  0.2828E+02
   8.814  0.8450E+00  0.2829E+02
   8.824  0.8608E+00  0.2830E+02
   8.834  0.8768E+00  0.2831E+02
   8.844  0.8928E+00  0.2832E+02
   8.854  0.9089E+00  0.2833E+02
   8.864  0.9253E+00  0.2834E+02
   8.874  0.9417E+00  0.2835E+02
   8.884  0.9583E+00  0.2835E+02
   8.894  0.9752E+00  0.2836E+02
   8.904  0.9922E+00  0.2837E+02
   8.914  0.1009E+01  0.2838E+02
   8.924  0.1027E+01  0.2839E+02
   8.934  0.1045E+01  0.2841E+02
   8.944  0.1063E+01  0.2842E+02
   8.954  0.1081E+01  0.2843E+02
   8.964  0.1100E+01  0.2844E+02
   8.974  0.1119E+01  0.2845E+02
   8.984  0.1138E+01  0.2846E+02
   8.994  0.1157E+01  0.2847E+02
   9.004  0.1177E+01  0.2848E+02
   9.014  0.1197E+01  0.2850E+02
   9.024  0.1217E+01  0.2851E+02
   9.034  0.1238E+01  0.2852E+02
   9.044  0.1259E+01  0.2853E+02
   9.054  0.1280E+01  0.2855E+02
   9.064  0.1301E+01  0.2856E+02
   9.074  0.1323E+01  0.2857E+02
   9.084  0.1345E+01  0.2859E+02
   9.094  0.1366E+01  0.2860E+02
   9.104  0.1388E+01  0.2861E+02
   9.114  0.1410E+01  0.2863E+02
   9.124  0.1432E+01  0.2864E+02
   9.134  0.1454E+01  0.2866E+02
   9.144  0.1476E+01  0.2867E+02
   9.154  0.1498E+01  0.2869E+02
   9.164  0.1520E+01  0.2870E+02
   9.174  0.1541E+01  0.2872E+02
   9.184  0.1562E+01  0.2873E+02
   9.194  0.1583E+01  0.2875E+02
   9.204  0.1603E+01  0.2876E+02
   9.214  0.1623E+01  0.2878E+02
   9.224  0.1643E+01  0.2880E+02
   9.234  0.1662E+01  0.2881E+02
   9.244  0.1680E+01  0.2883E+02
   9.254  0.1698E+01  0.2885E+02
   9.264  0.1715E+01  0.2886E+02
   9.274  0.1731E+01  0.2888E+02
   9.284  0.1747E+01  0.2890E+02
   9.294  0.1762E+01  0.2892E+02
   9.304  0.1775E+01  0.2893E+02
   9.314  0.1788E+01  0.2895E+02
   9.324  0.1800E+01  0.2897E+02
   9.334  0.1811E+01  0.2899E+02
   9.344  0.1821E+01  0.2901E+02
   9.354  0.1830E+01  0.2902E+02
   9.364  0.1838E+01  0.2904E+02
   9.374  0.1845E+01  0.2906E+02
   9.384  0.1851E+01  0.2908E+02
   9.394  0.1856E+01  0.2910E+02
   9.404  0.1860E+01  0.2912E+02
   9.414  0.1862E+01  0.2914E+02
   9.424  0.1864E+01  0.2915E+02
   9.434  0.1864E+01  0.2917E+02
   9.444  0.1863E+01  0.2919E+02
   9.454  0.1862E+01  0.2921E+02
   9.464  0.1859E+01  0.2923E+02
   9.474  0.1855E+01  0.2925E+02
   9.484  0.1851E+01  0.2927E+02
   9.494  0.1845E+01  0.2928E+02
   9.504  0.1838E+01  0.2930E+02
   9.514  0.1831E+01  0.2932E+02
   9.524  0.1822E+01  0.2934E+02
   9.534  0.1813E+01  0.2936E+02
   9.544  0.1803E+01  0.2938E+02
   9.554  0.1792E+01  0.2939E+02
   9.564  0.1780E+01  0.2941E+02
   9.574  0.1768E+01  0.2943E+02
   9.584  0.1755E+01  0.2945E+02
   9.594  0.1741E+01  0.2946E+02
   9.604  0.1727E+01  0.2948E+02
   9.614  0.1712E+01  0.2950E+02
   9.624  0.1696E+01  0.2952E+02
   9.634  0.1680E+01  0.2953E+02
   9.644  0.1663E+01  0.2955E+02
   9.654  0.1646E+01  0.2957E+02
   9.664  0.1629E+01  0.2958E+02
   9.674  0.1611E+01  0.2960E+02
   9.684  0.1592E+01  0.2961E+02
   9.694  0.1574E+01  0.2963E+02
   9.704  0.1555E+01  0.2964E+02
   9.714  0.1535E+01  0.2966E+02
   9.724  0.1516E+01  0.2968E+02
   9.734  0.1496E+01  0.2969E+02
   9.744  0.1476E+01  0.2970E+02
   9.754  0.1456E+01  0.2972E+02
   9.764  0.1436E+01  0.2973E+02
   9.774  0.1416E+01  0.2975E+02
   9.784  0.1396E+01  0.2976E+02
   9.794  0.1376E+01  0.2978E+02
   9.804  0.1355E+01  0.2979E+02
   9.814  0.1335E+01  0.2980E+02
   9.824  0.1315E+01  0.2982E+02
   9.834  0.1295E+01  0.2983E+02
   9.844  0.1276E+01  0.2984E+02
   9.854  0.1256E+01  0.2985E+02
   9.864  0.1237E+01  0.2987E+02
   9.874  0.1218E+01  0.2988E+02
   9.884  0.1200E+01  0.2989E+02
   9.894  0.1182E+01  0.2990E+02
   9.904  0.1165E+01  0.2991E+02
   9.914  0.1148E+01  0.2993E+02
   9.924  0.1131E+01  0.2994E+02
   9.934  0.1116E+01  0.2995E+02
   9.944  0.1101E+01  0.2996E+02
   9.954  0.1086E+01  0.2997E+02
   9.964  0.1073E+01  0.2998E+02
   9.974  0.1060E+01  0.2999E+02
   9.984  0.1048E+01  0.3000E+02
   9.994  0.1037E+01  0.3001E+02
  10.004  0.1027E+01  0.3002E+02
  10.014  0.1018E+01  0.3003E+02
  10.024  0.1010E+01  0.3004E+02
  10.034  0.1003E+01  0.3005E+02
  10.044  0.9974E+00  0.3006E+02
  10.054  0.9926E+00  0.3007E+02
  10.064  0.9889E+00  0.3008E+02
  10.074  0.9864E+00  0.3009E+02
  10.084  0.9849E+00  0.3010E+02
  10.094  0.9847E+00  0.3011E+02
  10.104  0.9856E+00  0.3012E+02
  10.114  0.9876E+00  0.3013E+02
  10.124  0.9908E+00  0.3014E+02
  10.134  0.9951E+00  0.3015E+02
  10.144  0.1001E+01  0.3016E+02
  10.154  0.1007E+01  0.3017E+02
  10.164  0.1015E+01  0.3018E+02
  10.174  0.1023E+01  0.3019E+02
  10.184  0.1033E+01  0.3020E+02
  10.194  0.1043E+01  0.3021E+02
  10.204  0.1055E+01  0.3022E+02
  10.214  0.1067E+01  0.3023E+02
  10.224  0.1080E+01  0.3024E+02
  10.234  0.1094E+01  0.3026E+02
  10.244  0.1108E+01  0.3027E+02
  10.254  0.1123E+01  0.3028E+02
  10.264  0.1138E+01  0.3029E+02
  10.274  0.1154E+01  0.3030E+02
  10.284  0.1171E+01  0.3031E+02
  10.294  0.1187E+01  0.3032E+02
  10.304  0.1204E+01  0.3034E+02
  10.314  0.1221E+01  0.3035E+02
  10.324  0.1238E+01  0.3036E+02
  10.334  0.1255E+01  0.3037E+02
  10.344  0.1271E+01  0.3039E+02
  10.354  0.1288E+01  0.3040E+02
  10.364  0.1304E+01  0.3041E+02
  10.374  0.1320E+01  0.3043E+02
  10.384  0.1336E+01  0.3044E+02
  10.394  0.1351E+01  0.3045E+02
  10.404  0.1365E+01  0.3047E+02
  10.414  0.1379E+01  0.3048E+02
  10.424  0.1393E+01  0.3049E+02
  10.434  0.1405E+01  0.3051E+02
  10.444  0.1417E+01  0.3052E+02
  10.454  0.1428E+01  0.3054E+02
  10.464  0.1438E+01  0.3055E+02
  10.474  0.1448E+01  0.3057E+02
  10.484  0.1456E+01  0.3058E+02
  10.494  0.1464E+01  0.3059E+02
  10.504  0.1471E+01  0.3061E+02
  10.514  0.1477E+01  0.3062E+02
  10.524  0.1482E+01  0.3064E+02
  10.534  0.1487E+01  0.3065E+02
  10.544  0.1490E+01  0.3067E+02
  10.554  0.1493E+01  0.3068E+02
  10.564  0.1495E+01  0.3070E+02
  10.574  0.1496E+01  0.3071E+02
  10.584  0.1497E+01  0.3073E+02
  10.594  0.1497E+01  0.3074E+02
  10.604  0.1496E+01  0.3076E+02
  10.614  0.1495E+01  0.3077E+02
  10.624  0.1493E+01  0.3079E+02
  10.634  0.1491E+01  0.3080E+02
  10.644  0.1488E+01  0.3082E+02
  10.654  0.1485E+01  0.3083E+02
  10.664  0.1482E+01  0.3085E+02
  10.674  0.1479E+01  0.3086E+02
  10.684  0.1475E+01  0.3088E+02
  10.694  0.1472E+01  0.3089E+02
  10.704  0.1468E+01  0.3091E+02
  10.714  0.1465E+01  0.3092E+02
  10.724  0.1462E+01  0.3094E+02
  10.734  0.1458E+01  0.3095E+02
  10.744  0.1455E+01  0.3096E+02
  10.754  0.1453E+01  0.3098E+02
  10.764  0.1450E+01  0.3099E+02
  10.774  0.1448E+01  0.3101E+02
  10.784  0.1447E+01  0.3102E+02
  10.794  0.1446E+01  0.3104E+02
  10.804  0.1445E+01  0.3105E+02
  10.814  0.1445E+01  0.3107E+02
  10.824  0.1445E+01  0.3108E+02
  10.834  0.1446E+01  0.3110E+02
  10.844  0.1447E+01  0.3111E+02
  10.854  0.1449E+01  0.3112E+02
  10.864  0.1452E+01  0.3114E+02
  10.874  0.1455E+01  0.3115E+02
  10.884  0.1458E+01  0.3117E+02
  10.894  0.1462E+01  0.3118E+02
  10.904  0.1467E+01  0.3120E+02
  10.914  0.1472E+01  0.3121E+02
  10.924  0.1477E+01  0.3123E+02
  10.934  0.1483E+01  0.3124E+02
  10.944  0.1489E+01  0.3126E+02
  10.954  0.1496E+01  0.3127E+02
  10.964  0.1503E+01  0.3129E+02
  10.974  0.1510E+01  0.3130E+02
  10.984  0.1517E+01  0.3132E+02
  10.994  0.1524E+01  0.3133E+02
  11.004  0.1531E+01  0.3135E+02
  11.014  0.1539E+01  0.3136E+02
  11.024  0.1546E+01  0.3138E+02
  11.034  0.1553E+01  0.3139E+02
  11.044  0.1560E+01  0.3141E+02
  11.054  0.1567E+01  0.3142E+02
  11.064  0.1573E+01  0.3144E+02
  11.074  0.1580E+01  0.3146E+02
  11.084  0.1586E+01  0.3147E+02
  11.094  0.1591E+01  0.3149E+02
  11.104  0.1596E+01  0.3150E+02
  11.114  0.1601E+01  0.3152E+02
  11.124  0.1605E+01  0.3154E+02
  11.134  0.1608E+01  0.3155E+02
  11.144  0.1611E+01  0.3157E+02
  11.154  0.1613E+01  0.3158E+02
  11.164  0.1615E+01  0.3160E+02
  11.174  0.1616E+01  0.3162E+02
  11.184  0.1617E+01  0.3163E+02
  11.194  0.1616E+01  0.3165E+02
  11.204  0.1616E+01  0.3167E+02
  11.214  0.1614E+01  0.3168E+02
  11.224  0.1612E+01  0.3170E+02
  11.234  0.1609E+01  0.3171E+02
  11.244  0.1606E+01  0.3173E+02
  11.254  0.1602E+01  0.3175E+02
  11.264  0.1597E+01  0.3176E+02
  11.274  0.1592E+01  0.3178E+02
  11.284  0.1587E+01  0.3179E+02
  11.294  0.1581E+01  0.3181E+02
  11.304  0.1574E+01  0.3182E+02
  11.314  0.1568E+01  0.3184E+02
  11.324  0.1561E+01  0.3186E+02
  11.334  0.1553E+01  0.3187E+02
  11.344  0.1546E+01  0.3189E+02
  11.354  0.1538E+01  0.3190E+02
  11.364  0.1530E+01  0.3192E+02
  11.374  0.1522E+01  0.3193E+02
  11.384  0.1513E+01  0.3195E+02
  11.394  0.1505E+01  0.3196E+02
  11.404  0.1497E+01  0.3198E+02
  11.414  0.1489E+01  0.3199E+02
  11.424  0.1481E+01  0.3201E+02
  11.434  0.1473E+01  0.3202E+02
  11.444  0.1466E+01  0.3204E+02
  11.454  0.1458E+01  0.3205E+02
  11.464  0.1451E+01  0.3207E+02
  11.474  0.1445E+01  0.3208E+02
  11.484  0.1438E+01  0.3210E+02
  11.494  0.1432E+01  0.3211E+02
  11.504  0.1427E+01  0.3212E+02
  11.514  0.1421E+01  0.3214E+02
  11.524  0.1417E+01  0.3215E+02
  11.534  0.1412E+01  0.3217E+02
  11.544  0.1409E+01  0.3218E+02
  11.554  0.1405E+01  0.3219E+02
  11.564  0.1403E+01  0.3221E+02
  11.574  0.1401E+01  0.3222E+02
  11.584  0.1399E+01  0.3224E+02
  11.594  0.1398E+01  0.3225E+02
  11.604  0.1398E+01  0.3226E+02
  11.614  0.1398E+01  0.3228E+02
  11.624  0.1399E+01  0.3229E+02
  11.634  0.1401E+01  0.3231E+02
  11.644  0.1403E+01  0.3232E+02
  11.654  0.1406E+01  0.3233E+02
  11.664  0.1409E+01  0.3235E+02
  11.674  0.1414E+01  0.3236E+02
  11.684  0.1419E+01  0.3238E+02
  11.694  0.1424E+01  0.3239E+02
  11.704  0.1430E+01  0.3241E+02
  11.714  0.1437E+01  0.3242E+02
  11.724  0.1445E+01  0.3243E+02
  11.734  0.1453E+01  0.3245E+02
  11.744  0.1462E+01  0.3246E+02
  11.754  0.1471E+01  0.3248E+02
  11.764  0.1481E+01  0.3249E+02
  11.774  0.1492E+01  0.3251E+02
  11.784  0.1503E+01  0.3252E+02
  11.794  0.1515E+01  0.3254E+02
  11.804  0.1527E+01  0.3255E+02
  11.814  0.1540E+01  0.3257E+02
  11.824  0.1553E+01  0.3258E+02
  11.834  0.1566E+01  0.3260E+02
  11.844  0.1580E+01  0.3262E+02
  11.854  0.1595E+01  0.3263E+02
  11.864  0.1609E+01  0.3265E+02
  11.874  0.1624E+01  0.3266E+02
  11.884  0.1639E+01  0.3268E+02
  11.894  0.1654E+01  0.3270E+02
  11.904  0.1670E+01  0.3271E+02
  11.914  0.1685E+01  0.3273E+02
  11.924  0.1700E+01  0.3275E+02
  11.934  0.1715E+01  0.3276E+02
  11.944  0.1730E+01  0.3278E+02
  11.954  0.1745E+01  0.3280E+02
  11.964  0.1760E+01  0.3282E+02
  11.974  0.1774E+01  0.3283E+02
  11.984  0.1787E+01  0.3285E+02
  11.994  0.1801E+01  0.3287E+02
  12.004  0.1813E+01  0.3289E+02
  12.014  0.1826E+01  0.3291E+02
  12.024  0.1837E+01  0.3293E+02
  12.034  0.1848E+01  0.3294E+02
  12.044  0.1858E+01  0.3296E+02
  12.054  0.1867E+01  0.3298E+02
  12.064  0.1875E+01  0.3300E+02
  12.074  0.1883E+01  0.3302E+02
  12.084  0.1889E+01  0.3304E+02
  12.094  0.1895E+01  0.3306E+02
  12.104  0.1899E+01  0.3308E+02
  12.114  0.1902E+01  0.3309E+02
  12.124  0.1905E+01  0.3311E+02
  12.134  0.1906E+01  0.3313E+02
  12.144  0.1906E+01  0.3315E+02
  12.154  0.1905E+01  0.3317E+02
  12.164  0.1903E+01  0.3319E+02
  12.174  0.1900E+01  0.3321E+02
  12.184  0.1896E+01  0.3323E+02
  12.194  0.1890E+01  0.3325E+02
  12.204  0.1884E+01  0.3327E+02
  12.214  0.1877E+01  0.3328E+02
  12.224  0.1868E+01  0.3330E+02
  12.234  0.1859E+01  0.3332E+02
  12.244  0.1849E+01  0.3334E+02
  12.254  0.1837E+01  0.3336E+02
  12.264  0.1826E+01  0.3338E+02
  12.274  0.1813E+01  0.3339E+02
  12.284  0.1799E+01  0.3341E+02
  12.294  0.1785E+01  0.3343E+02
  12.304  0.1771E+01  0.3345E+02
  12.314  0.1755E+01  0.3347E+02
  12.324  0.1740E+01  0.3348E+02
  12.334  0.1724E+01  0.3350E+02
  12.344  0.1707E+01  0.3352E+02
  12.354  0.1690E+01  0.3353E+02
  12.364  0.1673E+01  0.3355E+02
  12.374  0.1656E+01  0.3357E+02
  12.384  0.1639E+01  0.3358E+02
  12.394  0.1622E+01  0.3360E+02
  12.404  0.1605E+01  0.3362E+02
  12.414  0.1588E+01  0.3363E+02
  12.424  0.1571E+01  0.3365E+02
  12.434  0.1554E+01  0.3366E+02
  12.444  0.1538E+01  0.3368E+02
  12.454  0.1522E+01  0.3369E+02
  12.464  0.1506E+01  0.3371E+02
  12.474  0.1490E+01  0.3372E+02
  12.484  0.1475E+01  0.3374E+02
  12.494  0.1461E+01  0.3375E+02
  12.504  0.1447E+01  0.3377E+02
  12.514  0.1433E+01  0.3378E+02
  12.524  0.1420E+01  0.3380E+02
  12.534  0.1407E+01  0.3381E+02
  12.544  0.1395E+01  0.3382E+02
  12.554  0.1384E+01  0.3384E+02
  12.564  0.1373E+01  0.3385E+02
  12.574  0.1363E+01  0.3387E+02
  12.584  0.1353E+01  0.3388E+02
  12.594  0.1343E+01  0.3389E+02
  12.604  0.1335E+01  0.3391E+02
  12.614  0.1326E+01  0.3392E+02
  12.624  0.1319E+01  0.3393E+02
  12.634  0.1312E+01  0.3395E+02
  12.644  0.1305E+01  0.3396E+02
  12.654  0.1298E+01  0.3397E+02
  12.664  0.1293E+01  0.3398E+02
  12.674  0.1287E+01  0.3400E+02
  12.684  0.1282E+01  0.3401E+02
  12.694  0.1277E+01  0.3402E+02
  12.704  0.1273E+01  0.3404E+02
  12.714  0.1269E+01  0.3405E+02
  12.724  0.1265E+01  0.3406E+02
  12.734  0.1261E+01  0.3407E+02
  12.744  0.1258E+01  0.3409E+02
  12.754  0.1255E+01  0.3410E+02
  12.764  0.1252E+01  0.3411E+02
  12.774  0.1249E+01  0.3412E+02
  12.784  0.1247E+01  0.3414E+02
  12.794  0.1244E+01  0.3415E+02
  12.804  0.1242E+01  0.3416E+02
  12.814  0.1240E+01  0.3417E+02
  12.824  0.1238E+01  0.3419E+02
  12.834  0.1236E+01  0.3420E+02
  12.844  0.1235E+01  0.3421E+02
  12.854  0.1233E+01  0.3422E+02
  12.864  0.1232E+01  0.3424E+02
  12.874  0.1230E+01  0.3425E+02
  12.884  0.1229E+01  0.3426E+02
  12.894  0.1228E+01  0.3427E+02
  12.904  0.1227E+01  0.3428E+02
  12.914  0.1227E+01  0.3430E+02
  12.924  0.1226E+01  0.3431E+02
  12.934  0.1226E+01  0.3432E+02
  12.944  0.1226E+01  0.3433E+02
  12.954  0.1226E+01  0.3435E+02
  12.964  0.1226E+01  0.3436E+02
  12.974  0.1227E+01  0.3437E+02
  12.984  0.1227E+01  0.3438E+02
  12.994  0.1228E+01  0.3439E+02
  13.004  0.1229E+01  0.3441E+02
  13.014  0.1231E+01  0.3442E+02
  13.024  0.1233E+01  0.3443E+02
  13.034  0.1235E+01  0.3444E+02
  13.044  0.1237E+01  0.3446E+02
  13.054  0.1239E+01  0.3447E+02
  13.064  0.1242E+01  0.3448E+02
  13.074  0.1245E+01  0.3449E+02
  13.084  0.1249E+01  0.3451E+02
  13.094  0.1252E+01  0.3452E+02
  13.104  0.1256E+01  0.3453E+02
  13.114  0.1260E+01  0.3454E+02
  13.124  0.1264E+01  0.3456E+02
  13.134  0.1268E+01  0.3457E+02
  13.144  0.1273E+01  0.3458E+02
  13.154  0.1277E+01  0.3459E+02
  13.164  0.1282E+01  0.3461E+02
  13.174  0.1286E+01  0.3462E+02
  13.184  0.1291E+01  0.3463E+02
  13.194  0.1296E+01  0.3465E+02
  13.204  0.1301E+01  0.3466E+02
  13.214  0.1306E+01  0.3467E+02
  13.224  0.1310E+01  0.3469E+02
  13.234  0.1315E+01  0.3470E+02
  13.244  0.1319E+01  0.3471E+02
  13.254  0.1324E+01  0.3472E+02
  13.264  0.1328E+01  0.3474E+02
  13.274  0.1332E+01  0.3475E+02
  13.284  0.1335E+01  0.3476E+02
  13.294  0.1339E+01  0.3478E+02
  13.304  0.1342E+01  0.3479E+02
  13.314  0.1345E+01  0.3481E+02
  13.324  0.1347E+01  0.3482E+02
  13.334  0.1349E+01  0.3483E+02
  13.344  0.1351E+01  0.3485E+02
  13.354  0.1353E+01  0.3486E+02
  13.364  0.1354E+01  0.3487E+02
  13.374  0.1354E+01  0.3489E+02
  13.384  0.1355E+01  0.3490E+02
  13.394  0.1355E+01  0.3491E+02
  13.404  0.1354E+01  0.3493E+02
  13.414  0.1353E+01  0.3494E+02
  13.424  0.1352E+01  0.3495E+02
  13.434  0.1351E+01  0.3497E+02
  13.444  0.1349E+01  0.3498E+02
  13.454  0.1346E+01  0.3499E+02
  13.464  0.1343E+01  0.3501E+02
  13.474  0.1340E+01  0.3502E+02
  13.484  0.1337E+01  0.3503E+02
  13.494  0.1333E+01  0.3505E+02
  13.504  0.1329E+01  0.3506E+02
  13.514  0.1325E+01  0.3507E+02
  13.524  0.1321E+01  0.3509E+02
  13.534  0.1316E+01  0.3510E+02
  13.544  0.1311E+01  0.3511E+02
  13.554  0.1306E+01  0.3513E+02
  13.564  0.1301E+01  0.3514E+02
  13.574  0.1295E+01  0.3515E+02
  13.584  0.1290E+01  0.3517E+02
  13.594  0.1284E+01  0.3518E+02
  13.604  0.1279E+01  0.3519E+02
  13.614  0.1273E+01  0.3520E+02
  13.624  0.1267E+01  0.3522E+02
  13.634  0.1262E+01  0.3523E+02
  13.644  0.1256E+01  0.3524E+02
  13.654  0.1250E+01  0.3525E+02
  13.664  0.1245E+01  0.3527E+02
  13.674  0.1239E+01  0.3528E+02
  13.684  0.1234E+01  0.3529E+02
  13.694  0.1229E+01  0.3530E+02
  13.704  0.1223E+01  0.3532E+02
  13.714  0.1219E+01  0.3533E+02
  13.724  0.1214E+01  0.3534E+02
  13.734  0.1209E+01  0.3535E+02
  13.744  0.1205E+01  0.3536E+02
  13.754  0.1201E+01  0.3538E+02
  13.764  0.1197E+01  0.3539E+02
  13.774  0.1194E+01  0.3540E+02
  13.784  0.1190E+01  0.3541E+02
  13.794  0.1187E+01  0.3542E+02
  13.804  0.1185E+01  0.3544E+02
  13.814  0.1182E+01  0.3545E+02
  13.824  0.1180E+01  0.3546E+02
  13.834  0.1178E+01  0.3547E+02
  13.844  0.1177E+01  0.3548E+02
  13.854  0.1176E+01  0.3550E+02
  13.864  0.1176E+01  0.3551E+02
  13.874  0.1175E+01  0.3552E+02
  13.884  0.1175E+01  0.3553E+02
  13.894  0.1176E+01  0.3554E+02
  13.904  0.1177E+01  0.3555E+02
  13.914  0.1178E+01  0.3557E+02
  13.924  0.1180E+01  0.3558E+02
  13.934  0.1182E+01  0.3559E+02
  13.944  0.1184E+01  0.3560E+02
  13.954  0.1187E+01  0.3561E+02
  13.964  0.1191E+01  0.3563E+02
  13.974  0.1194E+01  0.3564E+02
  13.984  0.1198E+01  0.3565E+02
  13.994  0.1203E+01  0.3566E+02
  14.004  0.1208E+01  0.3567E+02
  14.014  0.1213E+01  0.3569E+02
  14.024  0.1219E+01  0.3570E+02
  14.034  0.1225E+01  0.3571E+02
  14.044  0.1231E+01  0.3572E+02
  14.054  0.1238E+01  0.3573E+02
  14.064  0.1245E+01  0.3575E+02
  14.074  0.1253E+01  0.3576E+02
  14.084  0.1261E+01  0.3577E+02
  14.094  0.1269E+01  0.3578E+02
  14.104  0.1277E+01  0.3580E+02
  14.114  0.1286E+01  0.3581E+02
  14.124  0.1295E+01  0.3582E+02
  14.134  0.1304E+01  0.3584E+02
  14.144  0.1313E+01  0.3585E+02
  14.154  0.1323E+01  0.3586E+02
  14.164  0.1333E+01  0.3588E+02
  14.174  0.1342E+01  0.3589E+02
  14.184  0.1352E+01  0.3590E+02
  14.194  0.1362E+01  0.3592E+02
  14.204  0.1372E+01  0.3593E+02
  14.214  0.1382E+01  0.3594E+02
  14.224  0.1392E+01  0.3596E+02
  14.234  0.1402E+01  0.3597E+02
  14.244  0.1411E+01  0.3599E+02
  14.254  0.1421E+01  0.3600E+02
  14.264  0.1430E+01  0.3601E+02
  14.274  0.1439E+01  0.3603E+02
  14.284  0.1448E+01  0.3604E+02
  14.294  0.1456E+01  0.3606E+02
  14.304  0.1464E+01  0.3607E+02
  14.314  0.1472E+01  0.3609E+02
  14.324  0.1479E+01  0.3610E+02
  14.334  0.1486E+01  0.3612E+02
  14.344  0.1492E+01  0.3613E+02
  14.354  0.1498E+01  0.3615E+02
  14.364  0.1503E+01  0.3616E+02
  14.374  0.1507E+01  0.3618E+02
  14.384  0.1511E+01  0.3619E+02
  14.394  0.1514E+01  0.3621E+02
  14.404  0.1517E+01  0.3622E+02
  14.414  0.1519E+01  0.3624E+02
  14.424  0.1520E+01  0.3625E+02
  14.434  0.1521E+01  0.3627E+02
  14.444  0.1521E+01  0.3628E+02
  14.454  0.1520E+01  0.3630E+02
  14.464  0.1519E+01  0.3631E+02
  14.474  0.1517E+01  0.3633E+02
  14.484  0.1514E+01  0.3634E+02
  14.494  0.1511E+01  0.3636E+02
  14.504  0.1507E+01  0.3637E+02
  14.514  0.1502E+01  0.3639E+02
  14.524  0.1497E+01  0.3640E+02
  14.534  0.1492E+01  0.3642E+02
  14.544  0.1486E+01  0.3643E+02
  14.554  0.1479E+01  0.3645E+02
  14.564  0.1473E+01  0.3646E+02
  14.574  0.1466E+01  0.3648E+02
  14.584  0.1458E+01  0.3649E+02
  14.594  0.1451E+01  0.3651E+02
  14.604  0.1443E+01  0.3652E+02
  14.614  0.1435E+01  0.3654E+02
  14.624  0.1428E+01  0.3655E+02
  14.634  0.1420E+01  0.3656E+02
  14.644  0.1413E+01  0.3658E+02
  14.654  0.1405E+01  0.3659E+02
  14.664  0.1398E+01  0.3661E+02
  14.674  0.1391E+01  0.3662E+02
  14.684  0.1385E+01  0.3663E+02
  14.694  0.1379E+01  0.3665E+02
  14.704  0.1373E+01  0.3666E+02
  14.714  0.1369E+01  0.3668E+02
  14.724  0.1364E+01  0.3669E+02
  14.734  0.1361E+01  0.3670E+02
  14.744  0.1358E+01  0.3672E+02
  14.754  0.1356E+01  0.3673E+02
  14.764  0.1355E+01  0.3674E+02
  14.774  0.1354E+01  0.3676E+02
  14.784  0.1355E+01  0.3677E+02
  14.794  0.1356E+01  0.3678E+02
  14.804  0.1359E+01  0.3680E+02
  14.814  0.1362E+01  0.3681E+02
  14.824  0.1366E+01  0.3683E+02
  14.834  0.1372E+01  0.3684E+02
  14.844  0.1378E+01  0.3685E+02
  14.854  0.1386E+01  0.3687E+02
  14.864  0.1394E+01  0.3688E+02
  14.874  0.1404E+01  0.3689E+02
  14.884  0.1414E+01  0.3691E+02
  14.894  0.1426E+01  0.3692E+02
  14.904  0.1438E+01  0.3694E+02
  14.914  0.1451E+01  0.3695E+02
  14.924  0.1466E+01  0.3697E+02
  14.934  0.1481E+01  0.3698E+02
  14.944  0.1496E+01  0.3700E+02
  14.954  0.1513E+01  0.3701E+02
  14.964  0.1530E+01  0.3703E+02
  14.974  0.1548E+01  0.3704E+02
  14.984  0.1567E+01  0.3706E+02
  14.994  0.1586E+01  0.3707E+02
  15.004  0.1605E+01  0.3709E+02
  15.014  0.1625E+01  0.3711E+02
  15.024  0.1645E+01  0.3712E+02
  15.034  0.1665E+01  0.3714E+02
  15.044  0.1686E+01  0.3716E+02
  15.054  0.1707E+01  0.3717E+02
  15.064  0.1728E+01  0.3719E+02
  15.074  0.1748E+01  0.3721E+02
  15.084  0.1769E+01  0.3723E+02
  15.094  0.1789E+01  0.3724E+02
  15.104  0.1809E+01  0.3726E+02
  15.114  0.1829E+01  0.3728E+02
  15.124  0.1849E+01  0.3730E+02
  15.134  0.1868E+01  0.3732E+02
  15.144  0.1886E+01  0.3734E+02
  15.154  0.1904E+01  0.3735E+02
  15.164  0.1921E+01  0.3737E+02
  15.174  0.1938E+01  0.3739E+02
  15.184  0.1954E+01  0.3741E+02
  15.194  0.1969E+01  0.3743E+02
  15.204  0.1983E+01  0.3745E+02
  15.214  0.1996E+01  0.3747E+02
  15.224  0.2009E+01  0.3749E+02
  15.234  0.2020E+01  0.3751E+02
  15.244  0.2031E+01  0.3753E+02
  15.254  0.2040E+01  0.3755E+02
  15.264  0.2048E+01  0.3757E+02
  15.274  0.2056E+01  0.3759E+02
  15.284  0.2062E+01  0.3761E+02
  15.294  0.2067E+01  0.3764E+02
  15.304  0.2071E+01  0.3766E+02
  15.314  0.2074E+01  0.3768E+02
  15.324  0.2076E+01  0.3770E+02
  15.334  0.2076E+01  0.3772E+02
  15.344  0.2076E+01  0.3774E+02
  15.354  0.2074E+01  0.3776E+02
  15.364  0.2072E+01  0.3778E+02
  15.374  0.2068E+01  0.3780E+02
  15.384  0.2063E+01  0.3782E+02
  15.394  0.2058E+01  0.3784E+02
  15.404  0.2051E+01  0.3786E+02
  15.414  0.2043E+01  0.3788E+02
  15.424  0.2035E+01  0.3790E+02
  15.434  0.2026E+01  0.3792E+02
  15.444  0.2015E+01  0.3794E+02
  15.454  0.2004E+01  0.3796E+02
  15.464  0.1993E+01  0.3798E+02
  15.474  0.1980E+01  0.3800E+02
  15.484  0.1967E+01  0.3802E+02
  15.494  0.1953E+01  0.3804E+02
  15.504  0.1939E+01  0.3806E+02
  15.514  0.1924E+01  0.3808E+02
  15.524  0.1909E+01  0.3810E+02
  15.534  0.1893E+01  0.3812E+02
  15.544  0.1877E+01  0.3814E+02
  15.554  0.1861E+01  0.3816E+02
  15.564  0.1845E+01  0.3818E+02
  15.574  0.1828E+01  0.3819E+02
  15.584  0.1812E+01  0.3821E+02
  15.594  0.1795E+01  0.3823E+02
  15.604  0.1778E+01  0.3825E+02
  15.614  0.1762E+01  0.3827E+02
  15.624  0.1745E+01  0.3828E+02
  15.634  0.1729E+01  0.3830E+02
  15.644  0.1713E+01  0.3832E+02
  15.654  0.1697E+01  0.3833E+02
  15.664  0.1682E+01  0.3835E+02
  15.674  0.1666E+01  0.3837E+02
  15.684  0.1652E+01  0.3838E+02
  15.694  0.1637E+01  0.3840E+02
  15.704  0.1624E+01  0.3842E+02
  15.714  0.1610E+01  0.3843E+02
  15.724  0.1598E+01  0.3845E+02
  15.734  0.1585E+01  0.3846E+02
  15.744  0.1574E+01  0.3848E+02
  15.754  0.1563E+01  0.3850E+02
  15.764  0.1553E+01  0.3851E+02
  15.774  0.1543E+01  0.3853E+02
  15.784  0.1534E+01  0.3854E+02
  15.794  0.1526E+01  0.3856E+02
  15.804  0.1519E+01  0.3857E+02
  15.814  0.1512E+01  0.3859E+02
  15.824  0.1506E+01  0.3860E+02
  15.834  0.1501E+01  0.3862E+02
  15.844  0.1496E+01  0.3863E+02
  15.854  0.1492E+01  0.3865E+02
  15.864  0.1489E+01  0.3866E+02
  15.874  0.1487E+01  0.3868E+02
  15.884  0.1485E+01  0.3869E+02
  15.894  0.1484E+01  0.3871E+02
  15.904  0.1484E+01  0.3872E+02
  15.914  0.1484E+01  0.3874E+02
  15.924  0.1485E+01  0.3875E+02
  15.934  0.1487E+01  0.3877E+02
  15.944  0.1489E+01  0.3878E+02
  15.954  0.1492E+01  0.3880E+02
  15.964  0.1495E+01  0.3881E+02
  15.974  0.1500E+01  0.3883E+02
  15.984  0.1504E+01  0.3884E+02
  15.994  0.1509E+01  0.3886E+02
  16.004  0.1515E+01  0.3887E+02
  16.014  0.1521E+01  0.3889E+02
  16.024  0.1528E+01  0.3890E+02
  16.034  0.1534E+01  0.3892E+02
  16.044  0.1542E+01  0.3893E+02
  16.054  0.1550E+01  0.3895E+02
  16.064  0.1558E+01  0.3896E+02
  16.074  0.1566E+01  0.3898E+02
  16.084  0.1575E+01  0.3900E+02
  16.094  0.1584E+01  0.3901E+02
  16.104  0.1593E+01  0.3903E+02
  16.114  0.1603E+01  0.3904E+02
  16.124  0.1612E+01  0.3906E+02
  16.134  0.1622E+01  0.3908E+02
  16.144  0.1632E+01  0.3909E+02
  16.154  0.1642E+01  0.3911E+02
  16.164  0.1652E+01  0.3913E+02
  16.174  0.1663E+01  0.3914E+02
  16.184  0.1673E+01  0.3916E+02
  16.194  0.1683E+01  0.3918E+02
  16.204  0.1693E+01  0.3919E+02
  16.214  0.1703E+01  0.3921E+02
  16.224  0.1713E+01  0.3923E+02
  16.234  0.1723E+01  0.3924E+02
  16.244  0.1733E+01  0.3926E+02
  16.254  0.1742E+01  0.3928E+02
  16.264  0.1751E+01  0.3930E+02
  16.274  0.1760E+01  0.3931E+02
  16.284  0.1769E+01  0.3933E+02
  16.294  0.1778E+01  0.3935E+02
  16.304  0.1786E+01  0.3937E+02
  16.314  0.1794E+01  0.3938E+02
  16.324  0.1801E+01  0.3940E+02
  16.334  0.1809E+01  0.3942E+02
  16.344  0.1815E+01  0.3944E+02
  16.354  0.1822E+01  0.3946E+02
  16.364  0.1828E+01  0.3948E+02
  16.374  0.1833E+01  0.3949E+02
  16.384  0.1839E+01  0.3951E+02
  16.394  0.1843E+01  0.3953E+02
  16.404  0.1848E+01  0.3955E+02
  16.414  0.1852E+01  0.3957E+02
  16.424  0.1855E+01  0.3959E+02
  16.434  0.1858E+01  0.3960E+02
  16.444  0.1861E+01  0.3962E+02
  16.454  0.1864E+01  0.3964E+02
  16.464  0.1866E+01  0.3966E+02
  16.474  0.1867E+01  0.3968E+02
  16.484  0.1869E+01  0.3970E+02
  16.494  0.1870E+01  0.3972E+02
  16.504  0.1871E+01  0.3974E+02
  16.514  0.1871E+01  0.3975E+02
  16.524  0.1872E+01  0.3977E+02
  16.534  0.1872E+01  0.3979E+02
  16.544  0.1872E+01  0.3981E+02
  16.554  0.1872E+01  0.3983E+02
  16.564  0.1871E+01  0.3985E+02
  16.574  0.1871E+01  0.3987E+02
  16.584  0.1871E+01  0.3989E+02
  16.594  0.1870E+01  0.3990E+02
  16.604  0.1870E+01  0.3992E+02
  16.614  0.1870E+01  0.3994E+02
  16.624  0.1870E+01  0.3996E+02
  16.634  0.1870E+01  0.3998E+02
  16.644  0.1870E+01  0.4000E+02
  16.654  0.1871E+01  0.4002E+02
  16.664  0.1871E+01  0.4003E+02
  16.674  0.1872E+01  0.4005E+02
  16.684  0.1874E+01  0.4007E+02
  16.694  0.1875E+01  0.4009E+02
  16.704  0.1877E+01  0.4011E+02
  16.714  0.1879E+01  0.4013E+02
  16.724  0.1882E+01  0.4015E+02
  16.734  0.1885E+01  0.4017E+02
  16.744  0.1888E+01  0.4019E+02
  16.754  0.1892E+01  0.4020E+02
  16.764  0.1896E+01  0.4022E+02
  16.774  0.1901E+01  0.4024E+02
  16.784  0.1906E+01  0.4026E+02
  16.794  0.1911E+01  0.4028E+02
  16.804  0.1917E+01  0.4030E+02
  16.814  0.1923E+01  0.4032E+02
  16.824  0.1929E+01  0.4034E+02
  16.834  0.1936E+01  0.4036E+02
  16.844  0.1943E+01  0.4038E+02
  16.854  0.1950E+01  0.4040E+02
  16.864  0.1958E+01  0.4042E+02
  16.874  0.1965E+01  0.4044E+02
  16.884  0.1973E+01  0.4046E+02
  16.894  0.1981E+01  0.4048E+02
  16.904  0.1989E+01  0.4049E+02
  16.914  0.1997E+01  0.4051E+02
  16.924  0.2006E+01  0.4053E+02
  16.934  0.2014E+01  0.4056E+02
  16.944  0.2022E+01  0.4058E+02
  16.954  0.2030E+01  0.4060E+02
  16.964  0.2038E+01  0.4062E+02
  16.974  0.2046E+01  0.4064E+02
  16.984  0.2054E+01  0.4066E+02
  16.994  0.2061E+01  0.4068E+02
  17.004  0.2068E+01  0.4070E+02
  17.014  0.2075E+01  0.4072E+02
  17.024  0.2082E+01  0.4074E+02
  17.034  0.2088E+01  0.4076E+02
  17.044  0.2093E+01  0.4078E+02
  17.054  0.2099E+01  0.4080E+02
  17.064  0.2104E+01  0.4082E+02
  17.074  0.2108E+01  0.4084E+02
  17.084  0.2112E+01  0.4087E+02
  17.094  0.2115E+01  0.4089E+02
  17.104  0.2118E+01  0.4091E+02
  17.114  0.2121E+01  0.4093E+02
  17.124  0.2122E+01  0.4095E+02
  17.134  0.2124E+01  0.4097E+02
  17.144  0.2125E+01  0.4099E+02
  17.154  0.2125E+01  0.4101E+02
  17.164  0.2124E+01  0.4104E+02
  17.174  0.2124E+01  0.4106E+02
  17.184  0.2122E+01  0.4108E+02
  17.194  0.2120E+01  0.4110E+02
  17.204  0.2118E+01  0.4112E+02
  17.214  0.2115E+01  0.4114E+02
  17.224  0.2111E+01  0.4116E+02
  17.234  0.2107E+01  0.4118E+02
  17.244  0.2103E+01  0.4120E+02
  17.254  0.2098E+01  0.4123E+02
  17.264  0.2093E+01  0.4125E+02
  17.274  0.2087E+01  0.4127E+02
  17.284  0.2081E+01  0.4129E+02
  17.294  0.2075E+01  0.4131E+02
  17.304  0.2068E+01  0.4133E+02
  17.314  0.2061E+01  0.4135E+02
  17.324  0.2053E+01  0.4137E+02
  17.334  0.2045E+01  0.4139E+02
  17.344  0.2037E+01  0.4141E+02
  17.354  0.2029E+01  0.4143E+02
