#  E (eV)   dos(E)     Int dos(E) EFermi =   7.984 eV
 -15.070  0.5447E-03  0.5447E-05
 -15.060  0.6337E-03  0.1178E-04
 -15.050  0.7364E-03  0.1915E-04
 -15.040  0.8547E-03  0.2770E-04
 -15.030  0.9909E-03  0.3760E-04
 -15.020  0.1147E-02  0.4908E-04
 -15.010  0.1327E-02  0.6235E-04
 -15.000  0.1533E-02  0.7768E-04
 -14.990  0.1769E-02  0.9538E-04
 -14.980  0.2039E-02  0.1158E-03
 -14.970  0.2348E-02  0.1393E-03
 -14.960  0.2700E-02  0.1663E-03
 -14.950  0.3102E-02  0.1973E-03
 -14.940  0.3558E-02  0.2329E-03
 -14.930  0.4078E-02  0.2736E-03
 -14.920  0.4668E-02  0.3203E-03
 -14.910  0.5337E-02  0.3737E-03
 -14.900  0.6095E-02  0.4346E-03
 -14.890  0.6953E-02  0.5042E-03
 -14.880  0.7923E-02  0.5834E-03
 -14.870  0.9017E-02  0.6736E-03
 -14.860  0.1025E-01  0.7761E-03
 -14.850  0.1164E-01  0.8925E-03
 -14.840  0.1320E-01  0.1024E-02
 -14.830  0.1496E-01  0.1174E-02
 -14.820  0.1693E-01  0.1343E-02
 -14.810  0.1913E-01  0.1535E-02
 -14.800  0.2160E-01  0.1751E-02
 -14.790  0.2436E-01  0.1994E-02
 -14.780  0.2744E-01  0.2269E-02
 -14.770  0.3088E-01  0.2577E-02
 -14.760  0.3471E-01  0.2925E-02
 -14.750  0.3896E-01  0.3314E-02
 -14.740  0.4369E-01  0.3751E-02
 -14.730  0.4894E-01  0.4240E-02
 -14.720  0.5476E-01  0.4788E-02
 -14.710  0.6120E-01  0.5400E-02
 -14.700  0.6832E-01  0.6083E-02
 -14.690  0.7618E-01  0.6845E-02
 -14.680  0.8485E-01  0.7694E-02
 -14.670  0.9441E-01  0.8638E-02
 -14.660  0.1049E+00  0.9687E-02
 -14.650  0.1165E+00  0.1085E-01
 -14.640  0.1292E+00  0.1214E-01
 -14.630  0.1431E+00  0.1357E-01
 -14.620  0.1583E+00  0.1516E-01
 -14.610  0.1749E+00  0.1691E-01
 -14.600  0.1931E+00  0.1884E-01
 -14.590  0.2129E+00  0.2097E-01
 -14.580  0.2346E+00  0.2331E-01
 -14.570  0.2581E+00  0.2589E-01
 -14.560  0.2836E+00  0.2873E-01
 -14.550  0.3114E+00  0.3184E-01
 -14.540  0.3415E+00  0.3526E-01
 -14.530  0.3741E+00  0.3900E-01
 -14.520  0.4094E+00  0.4309E-01
 -14.510  0.4475E+00  0.4757E-01
 -14.500  0.4886E+00  0.5245E-01
 -14.490  0.5329E+00  0.5778E-01
 -14.480  0.5806E+00  0.6359E-01
 -14.470  0.6319E+00  0.6991E-01
 -14.460  0.6870E+00  0.7678E-01
 -14.450  0.7461E+00  0.8424E-01
 -14.440  0.8093E+00  0.9233E-01
 -14.430  0.8771E+00  0.1011E+00
 -14.420  0.9494E+00  0.1106E+00
 -14.410  0.1027E+01  0.1209E+00
 -14.400  0.1109E+01  0.1320E+00
 -14.390  0.1197E+01  0.1439E+00
 -14.380  0.1290E+01  0.1568E+00
 -14.370  0.1389E+01  0.1707E+00
 -14.360  0.1494E+01  0.1856E+00
 -14.350  0.1605E+01  0.2017E+00
 -14.340  0.1723E+01  0.2189E+00
 -14.330  0.1848E+01  0.2374E+00
 -14.320  0.1979E+01  0.2572E+00
 -14.310  0.2118E+01  0.2784E+00
 -14.300  0.2264E+01  0.3010E+00
 -14.290  0.2417E+01  0.3252E+00
 -14.280  0.2579E+01  0.3510E+00
 -14.270  0.2748E+01  0.3785E+00
 -14.260  0.2926E+01  0.4077E+00
 -14.250  0.3111E+01  0.4388E+00
 -14.240  0.3305E+01  0.4719E+00
 -14.230  0.3508E+01  0.5070E+00
 -14.220  0.3720E+01  0.5442E+00
 -14.210  0.3940E+01  0.5836E+00
 -14.200  0.4169E+01  0.6253E+00
 -14.190  0.4407E+01  0.6693E+00
 -14.180  0.4654E+01  0.7159E+00
 -14.170  0.4910E+01  0.7650E+00
 -14.160  0.5175E+01  0.8167E+00
 -14.150  0.5449E+01  0.8712E+00
 -14.140  0.5732E+01  0.9285E+00
 -14.130  0.6024E+01  0.9888E+00
 -14.120  0.6324E+01  0.1052E+01
 -14.110  0.6633E+01  0.1118E+01
 -14.100  0.6950E+01  0.1188E+01
 -14.090  0.7276E+01  0.1261E+01
 -14.080  0.7610E+01  0.1337E+01
 -14.070  0.7951E+01  0.1416E+01
 -14.060  0.8300E+01  0.1499E+01
 -14.050  0.8656E+01  0.1586E+01
 -14.040  0.9019E+01  0.1676E+01
 -14.030  0.9389E+01  0.1770E+01
 -14.020  0.9765E+01  0.1868E+01
 -14.010  0.1015E+02  0.1969E+01
 -14.000  0.1053E+02  0.2074E+01
 -13.990  0.1092E+02  0.2184E+01
 -13.980  0.1132E+02  0.2297E+01
 -13.970  0.1172E+02  0.2414E+01
 -13.960  0.1212E+02  0.2535E+01
 -13.950  0.1253E+02  0.2660E+01
 -13.940  0.1293E+02  0.2790E+01
 -13.930  0.1334E+02  0.2923E+01
 -13.920  0.1375E+02  0.3061E+01
 -13.910  0.1416E+02  0.3202E+01
 -13.900  0.1457E+02  0.3348E+01
 -13.890  0.1497E+02  0.3498E+01
 -13.880  0.1538E+02  0.3651E+01
 -13.870  0.1578E+02  0.3809E+01
 -13.860  0.1618E+02  0.3971E+01
 -13.850  0.1657E+02  0.4137E+01
 -13.840  0.1696E+02  0.4306E+01
 -13.830  0.1735E+02  0.4480E+01
 -13.820  0.1773E+02  0.4657E+01
 -13.810  0.1810E+02  0.4838E+01
 -13.800  0.1846E+02  0.5023E+01
 -13.790  0.1881E+02  0.5211E+01
 -13.780  0.1916E+02  0.5402E+01
 -13.770  0.1950E+02  0.5597E+01
 -13.760  0.1982E+02  0.5796E+01
 -13.750  0.2013E+02  0.5997E+01
 -13.740  0.2043E+02  0.6201E+01
 -13.730  0.2072E+02  0.6408E+01
 -13.720  0.2100E+02  0.6618E+01
 -13.710  0.2126E+02  0.6831E+01
 -13.700  0.2151E+02  0.7046E+01
 -13.690  0.2174E+02  0.7264E+01
 -13.680  0.2196E+02  0.7483E+01
 -13.670  0.2216E+02  0.7705E+01
 -13.660  0.2235E+02  0.7928E+01
 -13.650  0.2251E+02  0.8153E+01
 -13.640  0.2266E+02  0.8380E+01
 -13.630  0.2280E+02  0.8608E+01
 -13.620  0.2291E+02  0.8837E+01
 -13.610  0.2301E+02  0.9067E+01
 -13.600  0.2309E+02  0.9298E+01
 -13.590  0.2315E+02  0.9530E+01
 -13.580  0.2319E+02  0.9762E+01
 -13.570  0.2322E+02  0.9994E+01
 -13.560  0.2322E+02  0.1023E+02
 -13.550  0.2321E+02  0.1046E+02
 -13.540  0.2318E+02  0.1069E+02
 -13.530  0.2312E+02  0.1092E+02
 -13.520  0.2305E+02  0.1115E+02
 -13.510  0.2296E+02  0.1138E+02
 -13.500  0.2286E+02  0.1161E+02
 -13.490  0.2273E+02  0.1184E+02
 -13.480  0.2259E+02  0.1206E+02
 -13.470  0.2243E+02  0.1229E+02
 -13.460  0.2225E+02  0.1251E+02
 -13.450  0.2205E+02  0.1273E+02
 -13.440  0.2184E+02  0.1295E+02
 -13.430  0.2161E+02  0.1316E+02
 -13.420  0.2137E+02  0.1338E+02
 -13.410  0.2111E+02  0.1359E+02
 -13.400  0.2084E+02  0.1380E+02
 -13.390  0.2055E+02  0.1400E+02
 -13.380  0.2026E+02  0.1421E+02
 -13.370  0.1994E+02  0.1441E+02
 -13.360  0.1962E+02  0.1460E+02
 -13.350  0.1928E+02  0.1479E+02
 -13.340  0.1894E+02  0.1498E+02
 -13.330  0.1858E+02  0.1517E+02
 -13.320  0.1822E+02  0.1535E+02
 -13.310  0.1785E+02  0.1553E+02
 -13.300  0.1746E+02  0.1571E+02
 -13.290  0.1708E+02  0.1588E+02
 -13.280  0.1668E+02  0.1604E+02
 -13.270  0.1628E+02  0.1621E+02
 -13.260  0.1588E+02  0.1636E+02
 -13.250  0.1547E+02  0.1652E+02
 -13.240  0.1506E+02  0.1667E+02
 -13.230  0.1465E+02  0.1682E+02
 -13.220  0.1424E+02  0.1696E+02
 -13.210  0.1382E+02  0.1710E+02
 -13.200  0.1341E+02  0.1723E+02
 -13.190  0.1299E+02  0.1736E+02
 -13.180  0.1258E+02  0.1749E+02
 -13.170  0.1217E+02  0.1761E+02
 -13.160  0.1176E+02  0.1773E+02
 -13.150  0.1135E+02  0.1784E+02
 -13.140  0.1095E+02  0.1795E+02
 -13.130  0.1055E+02  0.1805E+02
 -13.120  0.1016E+02  0.1816E+02
 -13.110  0.9772E+01  0.1825E+02
 -13.100  0.9390E+01  0.1835E+02
 -13.090  0.9015E+01  0.1844E+02
 -13.080  0.8647E+01  0.1852E+02
 -13.070  0.8285E+01  0.1861E+02
 -13.060  0.7931E+01  0.1869E+02
 -13.050  0.7585E+01  0.1876E+02
 -13.040  0.7246E+01  0.1883E+02
 -13.030  0.6917E+01  0.1890E+02
 -13.020  0.6595E+01  0.1897E+02
 -13.010  0.6283E+01  0.1903E+02
 -13.000  0.5979E+01  0.1909E+02
 -12.990  0.5684E+01  0.1915E+02
 -12.980  0.5399E+01  0.1920E+02
 -12.970  0.5122E+01  0.1925E+02
 -12.960  0.4855E+01  0.1930E+02
 -12.950  0.4598E+01  0.1935E+02
 -12.940  0.4349E+01  0.1939E+02
 -12.930  0.4110E+01  0.1943E+02
 -12.920  0.3880E+01  0.1947E+02
 -12.910  0.3659E+01  0.1951E+02
 -12.900  0.3448E+01  0.1954E+02
 -12.890  0.3245E+01  0.1958E+02
 -12.880  0.3051E+01  0.1961E+02
 -12.870  0.2865E+01  0.1964E+02
 -12.860  0.2688E+01  0.1966E+02
 -12.850  0.2520E+01  0.1969E+02
 -12.840  0.2359E+01  0.1971E+02
 -12.830  0.2207E+01  0.1973E+02
 -12.820  0.2062E+01  0.1975E+02
 -12.810  0.1924E+01  0.1977E+02
 -12.800  0.1794E+01  0.1979E+02
 -12.790  0.1671E+01  0.1981E+02
 -12.780  0.1555E+01  0.1982E+02
 -12.770  0.1445E+01  0.1984E+02
 -12.760  0.1342E+01  0.1985E+02
 -12.750  0.1245E+01  0.1986E+02
 -12.740  0.1153E+01  0.1987E+02
 -12.730  0.1067E+01  0.1989E+02
 -12.720  0.9866E+00  0.1990E+02
 -12.710  0.9112E+00  0.1990E+02
 -12.700  0.8406E+00  0.1991E+02
 -12.690  0.7746E+00  0.1992E+02
 -12.680  0.7131E+00  0.1993E+02
 -12.670  0.6557E+00  0.1993E+02
 -12.660  0.6023E+00  0.1994E+02
 -12.650  0.5526E+00  0.1995E+02
 -12.640  0.5065E+00  0.1995E+02
 -12.630  0.4637E+00  0.1996E+02
 -12.620  0.4241E+00  0.1996E+02
 -12.610  0.3875E+00  0.1996E+02
 -12.600  0.3536E+00  0.1997E+02
 -12.590  0.3223E+00  0.1997E+02
 -12.580  0.2935E+00  0.1997E+02
 -12.570  0.2669E+00  0.1998E+02
 -12.560  0.2425E+00  0.1998E+02
 -12.550  0.2201E+00  0.1998E+02
 -12.540  0.1995E+00  0.1998E+02
 -12.530  0.1807E+00  0.1998E+02
 -12.520  0.1634E+00  0.1999E+02
 -12.510  0.1477E+00  0.1999E+02
 -12.500  0.1333E+00  0.1999E+02
 -12.490  0.1202E+00  0.1999E+02
 -12.480  0.1082E+00  0.1999E+02
 -12.470  0.9732E-01  0.1999E+02
 -12.460  0.8745E-01  0.1999E+02
 -12.450  0.7848E-01  0.1999E+02
 -12.440  0.7036E-01  0.1999E+02
 -12.430  0.6301E-01  0.2000E+02
 -12.420  0.5636E-01  0.2000E+02
 -12.410  0.5036E-01  0.2000E+02
 -12.400  0.4494E-01  0.2000E+02
 -12.390  0.4006E-01  0.2000E+02
 -12.380  0.3567E-01  0.2000E+02
 -12.370  0.3173E-01  0.2000E+02
 -12.360  0.2819E-01  0.2000E+02
 -12.350  0.2502E-01  0.2000E+02
 -12.340  0.2218E-01  0.2000E+02
 -12.330  0.1964E-01  0.2000E+02
 -12.320  0.1737E-01  0.2000E+02
 -12.310  0.1534E-01  0.2000E+02
 -12.300  0.1354E-01  0.2000E+02
 -12.290  0.1193E-01  0.2000E+02
 -12.280  0.1051E-01  0.2000E+02
 -12.270  0.9239E-02  0.2000E+02
 -12.260  0.8115E-02  0.2000E+02
 -12.250  0.7120E-02  0.2000E+02
 -12.240  0.6240E-02  0.2000E+02
 -12.230  0.5463E-02  0.2000E+02
 -12.220  0.4776E-02  0.2000E+02
 -12.210  0.4172E-02  0.2000E+02
 -12.200  0.3639E-02  0.2000E+02
 -12.190  0.3171E-02  0.2000E+02
 -12.180  0.2760E-02  0.2000E+02
 -12.170  0.2400E-02  0.2000E+02
 -12.160  0.2084E-02  0.2000E+02
 -12.150  0.1807E-02  0.2000E+02
 -12.140  0.1566E-02  0.2000E+02
 -12.130  0.1355E-02  0.2000E+02
 -12.120  0.1171E-02  0.2000E+02
 -12.110  0.1011E-02  0.2000E+02
 -12.100  0.8722E-03  0.2000E+02
 -12.090  0.7513E-03  0.2000E+02
 -12.080  0.6464E-03  0.2000E+02
 -12.070  0.5555E-03  0.2000E+02
 -12.060  0.4769E-03  0.2000E+02
 -12.050  0.4089E-03  0.2000E+02
 -12.040  0.3502E-03  0.2000E+02
 -12.030  0.2995E-03  0.2000E+02
 -12.020  0.2559E-03  0.2000E+02
 -12.010  0.2184E-03  0.2000E+02
 -12.000  0.1862E-03  0.2000E+02
 -11.990  0.1585E-03  0.2000E+02
 -11.980  0.1348E-03  0.2000E+02
 -11.970  0.1145E-03  0.2000E+02
 -11.960  0.9719E-04  0.2000E+02
 -11.950  0.8237E-04  0.2000E+02
 -11.940  0.6972E-04  0.2000E+02
 -11.930  0.5895E-04  0.2000E+02
 -11.920  0.4979E-04  0.2000E+02
 -11.910  0.4200E-04  0.2000E+02
 -11.900  0.3539E-04  0.2000E+02
 -11.890  0.2978E-04  0.2000E+02
 -11.880  0.2504E-04  0.2000E+02
 -11.870  0.2102E-04  0.2000E+02
 -11.860  0.1763E-04  0.2000E+02
 -11.850  0.1477E-04  0.2000E+02
 -11.840  0.1236E-04  0.2000E+02
 -11.830  0.1033E-04  0.2000E+02
 -11.820  0.8619E-05  0.2000E+02
 -11.810  0.7186E-05  0.2000E+02
 -11.800  0.5984E-05  0.2000E+02
 -11.790  0.4978E-05  0.2000E+02
 -11.780  0.4136E-05  0.2000E+02
 -11.770  0.3432E-05  0.2000E+02
 -11.760  0.2845E-05  0.2000E+02
 -11.750  0.2355E-05  0.2000E+02
 -11.740  0.1948E-05  0.2000E+02
 -11.730  0.1609E-05  0.2000E+02
 -11.720  0.1327E-05  0.2000E+02
 -11.710  0.1094E-05  0.2000E+02
 -11.700  0.9001E-06  0.2000E+02
 -11.690  0.7399E-06  0.2000E+02
 -11.680  0.6076E-06  0.2000E+02
 -11.670  0.4983E-06  0.2000E+02
 -11.660  0.4082E-06  0.2000E+02
 -11.650  0.3340E-06  0.2000E+02
 -11.640  0.2730E-06  0.2000E+02
 -11.630  0.2228E-06  0.2000E+02
 -11.620  0.1817E-06  0.2000E+02
 -11.610  0.1480E-06  0.2000E+02
 -11.600  0.1203E-06  0.2000E+02
 -11.590  0.9778E-07  0.2000E+02
 -11.580  0.7935E-07  0.2000E+02
 -11.570  0.6431E-07  0.2000E+02
 -11.560  0.5207E-07  0.2000E+02
 -11.550  0.4210E-07  0.2000E+02
 -11.540  0.3401E-07  0.2000E+02
 -11.530  0.2743E-07  0.2000E+02
 -11.520  0.2210E-07  0.2000E+02
 -11.510  0.1779E-07  0.2000E+02
 -11.500  0.1430E-07  0.2000E+02
 -11.490  0.1148E-07  0.2000E+02
 -11.480  0.9209E-08  0.2000E+02
 -11.470  0.7377E-08  0.2000E+02
 -11.460  0.5902E-08  0.2000E+02
 -11.450  0.4716E-08  0.2000E+02
 -11.440  0.3764E-08  0.2000E+02
 -11.430  0.3001E-08  0.2000E+02
 -11.420  0.2390E-08  0.2000E+02
 -11.410  0.1901E-08  0.2000E+02
 -11.400  0.1510E-08  0.2000E+02
 -11.390  0.1198E-08  0.2000E+02
 -11.380  0.9496E-09  0.2000E+02
 -11.370  0.7517E-09  0.2000E+02
 -11.360  0.5943E-09  0.2000E+02
 -11.350  0.4694E-09  0.2000E+02
 -11.340  0.3702E-09  0.2000E+02
 -11.330  0.2917E-09  0.2000E+02
 -11.320  0.2295E-09  0.2000E+02
 -11.310  0.1804E-09  0.2000E+02
 -11.300  0.1416E-09  0.2000E+02
 -11.290  0.1111E-09  0.2000E+02
 -11.280  0.8698E-10  0.2000E+02
 -11.270  0.6804E-10  0.2000E+02
 -11.260  0.5316E-10  0.2000E+02
 -11.250  0.4149E-10  0.2000E+02
 -11.240  0.3234E-10  0.2000E+02
 -11.230  0.2518E-10  0.2000E+02
 -11.220  0.1958E-10  0.2000E+02
 -11.210  0.1521E-10  0.2000E+02
 -11.200  0.1180E-10  0.2000E+02
 -11.190  0.9142E-11  0.2000E+02
 -11.180  0.7076E-11  0.2000E+02
 -11.170  0.5470E-11  0.2000E+02
 -11.160  0.4223E-11  0.2000E+02
 -11.150  0.3257E-11  0.2000E+02
 -11.140  0.2509E-11  0.2000E+02
 -11.130  0.1930E-11  0.2000E+02
 -11.120  0.1483E-11  0.2000E+02
 -11.110  0.1138E-11  0.2000E+02
 -11.100  0.8728E-12  0.2000E+02
 -11.090  0.6683E-12  0.2000E+02
 -11.080  0.5111E-12  0.2000E+02
 -11.070  0.3904E-12  0.2000E+02
 -11.060  0.2979E-12  0.2000E+02
 -11.050  0.2270E-12  0.2000E+02
 -11.040  0.1728E-12  0.2000E+02
 -11.030  0.1314E-12  0.2000E+02
 -11.020  0.9977E-13  0.2000E+02
 -11.010  0.7567E-13  0.2000E+02
 -11.000  0.5732E-13  0.2000E+02
 -10.990  0.4337E-13  0.2000E+02
 -10.980  0.3278E-13  0.2000E+02
 -10.970  0.2475E-13  0.2000E+02
 -10.960  0.1866E-13  0.2000E+02
 -10.950  0.1405E-13  0.2000E+02
 -10.940  0.1057E-13  0.2000E+02
 -10.930  0.7939E-14  0.2000E+02
 -10.920  0.5958E-14  0.2000E+02
 -10.910  0.4465E-14  0.2000E+02
 -10.900  0.3343E-14  0.2000E+02
 -10.890  0.2499E-14  0.2000E+02
 -10.880  0.1866E-14  0.2000E+02
 -10.870  0.1392E-14  0.2000E+02
 -10.860  0.1037E-14  0.2000E+02
 -10.850  0.7719E-15  0.2000E+02
 -10.840  0.5737E-15  0.2000E+02
 -10.830  0.4259E-15  0.2000E+02
 -10.820  0.3158E-15  0.2000E+02
 -10.810  0.2339E-15  0.2000E+02
 -10.800  0.1730E-15  0.2000E+02
 -10.790  0.1278E-15  0.2000E+02
 -10.780  0.9433E-16  0.2000E+02
 -10.770  0.6953E-16  0.2000E+02
 -10.760  0.5119E-16  0.2000E+02
 -10.750  0.3764E-16  0.2000E+02
 -10.740  0.2765E-16  0.2000E+02
 -10.730  0.2028E-16  0.2000E+02
 -10.720  0.1486E-16  0.2000E+02
 -10.710  0.1087E-16  0.2000E+02
 -10.700  0.7949E-17  0.2000E+02
 -10.690  0.5803E-17  0.2000E+02
 -10.680  0.4232E-17  0.2000E+02
 -10.670  0.3082E-17  0.2000E+02
 -10.660  0.2242E-17  0.2000E+02
 -10.650  0.1629E-17  0.2000E+02
 -10.640  0.1182E-17  0.2000E+02
 -10.630  0.8571E-18  0.2000E+02
 -10.620  0.6206E-18  0.2000E+02
 -10.610  0.4488E-18  0.2000E+02
 -10.600  0.3241E-18  0.2000E+02
 -10.590  0.2338E-18  0.2000E+02
 -10.580  0.1685E-18  0.2000E+02
 -10.570  0.1213E-18  0.2000E+02
 -10.560  0.8717E-19  0.2000E+02
 -10.550  0.6259E-19  0.2000E+02
 -10.540  0.4488E-19  0.2000E+02
 -10.530  0.3215E-19  0.2000E+02
 -10.520  0.2300E-19  0.2000E+02
 -10.510  0.1644E-19  0.2000E+02
 -10.500  0.1173E-19  0.2000E+02
 -10.490  0.8362E-20  0.2000E+02
 -10.480  0.5954E-20  0.2000E+02
 -10.470  0.4234E-20  0.2000E+02
 -10.460  0.3008E-20  0.2000E+02
 -10.450  0.2134E-20  0.2000E+02
 -10.440  0.1512E-20  0.2000E+02
 -10.430  0.1070E-20  0.2000E+02
 -10.420  0.7565E-21  0.2000E+02
 -10.410  0.5342E-21  0.2000E+02
 -10.400  0.3767E-21  0.2000E+02
 -10.390  0.2654E-21  0.2000E+02
 -10.380  0.1867E-21  0.2000E+02
 -10.370  0.1312E-21  0.2000E+02
 -10.360  0.9208E-22  0.2000E+02
 -10.350  0.6455E-22  0.2000E+02
 -10.340  0.4520E-22  0.2000E+02
 -10.330  0.3161E-22  0.2000E+02
 -10.320  0.2208E-22  0.2000E+02
 -10.310  0.1541E-22  0.2000E+02
 -10.300  0.1074E-22  0.2000E+02
 -10.290  0.7473E-23  0.2000E+02
 -10.280  0.5195E-23  0.2000E+02
 -10.270  0.3607E-23  0.2000E+02
 -10.260  0.2502E-23  0.2000E+02
 -10.250  0.1733E-23  0.2000E+02
 -10.240  0.1199E-23  0.2000E+02
 -10.230  0.8286E-24  0.2000E+02
 -10.220  0.5720E-24  0.2000E+02
 -10.210  0.3943E-24  0.2000E+02
 -10.200  0.2715E-24  0.2000E+02
 -10.190  0.1867E-24  0.2000E+02
 -10.180  0.1283E-24  0.2000E+02
 -10.170  0.8802E-25  0.2000E+02
 -10.160  0.6032E-25  0.2000E+02
 -10.150  0.4129E-25  0.2000E+02
 -10.140  0.2823E-25  0.2000E+02
 -10.130  0.1927E-25  0.2000E+02
 -10.120  0.1315E-25  0.2000E+02
 -10.110  0.8955E-26  0.2000E+02
 -10.100  0.6093E-26  0.2000E+02
 -10.090  0.4141E-26  0.2000E+02
 -10.080  0.2811E-26  0.2000E+02
 -10.070  0.1905E-26  0.2000E+02
 -10.060  0.1290E-26  0.2000E+02
 -10.050  0.8727E-27  0.2000E+02
 -10.040  0.5895E-27  0.2000E+02
 -10.030  0.3978E-27  0.2000E+02
 -10.020  0.2681E-27  0.2000E+02
 -10.010  0.1804E-27  0.2000E+02
 -10.000  0.1213E-27  0.2000E+02
  -9.990  0.8147E-28  0.2000E+02
  -9.980  0.5464E-28  0.2000E+02
  -9.970  0.3660E-28  0.2000E+02
  -9.960  0.2449E-28  0.2000E+02
  -9.950  0.1637E-28  0.2000E+02
  -9.940  0.1093E-28  0.2000E+02
  -9.930  0.7284E-29  0.2000E+02
  -9.920  0.4851E-29  0.2000E+02
  -9.910  0.3226E-29  0.2000E+02
  -9.900  0.2143E-29  0.2000E+02
  -9.890  0.1422E-29  0.2000E+02
  -9.880  0.9425E-30  0.2000E+02
  -9.870  0.6239E-30  0.2000E+02
  -9.860  0.4125E-30  0.2000E+02
  -9.850  0.2724E-30  0.2000E+02
  -9.840  0.1797E-30  0.2000E+02
  -9.830  0.1184E-30  0.2000E+02
  -9.820  0.7787E-31  0.2000E+02
  -9.810  0.5118E-31  0.2000E+02
  -9.800  0.3360E-31  0.2000E+02
  -9.790  0.2203E-31  0.2000E+02
  -9.780  0.1442E-31  0.2000E+02
  -9.770  0.9434E-32  0.2000E+02
  -9.760  0.6163E-32  0.2000E+02
  -9.750  0.4022E-32  0.2000E+02
  -9.740  0.2621E-32  0.2000E+02
  -9.730  0.1706E-32  0.2000E+02
  -9.720  0.1109E-32  0.2000E+02
  -9.710  0.7203E-33  0.2000E+02
  -9.700  0.4672E-33  0.2000E+02
  -9.690  0.3027E-33  0.2000E+02
  -9.680  0.1959E-33  0.2000E+02
  -9.670  0.1266E-33  0.2000E+02
  -9.660  0.8171E-34  0.2000E+02
  -9.650  0.5268E-34  0.2000E+02
  -9.640  0.3392E-34  0.2000E+02
  -9.630  0.2182E-34  0.2000E+02
  -9.620  0.1402E-34  0.2000E+02
  -9.610  0.8995E-35  0.2000E+02
  -9.600  0.5765E-35  0.2000E+02
  -9.590  0.3690E-35  0.2000E+02
  -9.580  0.2359E-35  0.2000E+02
  -9.570  0.1507E-35  0.2000E+02
  -9.560  0.9611E-36  0.2000E+02
  -9.550  0.6123E-36  0.2000E+02
  -9.540  0.3896E-36  0.2000E+02
  -9.530  0.2476E-36  0.2000E+02
  -9.520  0.1572E-36  0.2000E+02
  -9.510  0.9965E-37  0.2000E+02
  -9.500  0.6311E-37  0.2000E+02
  -9.490  0.3992E-37  0.2000E+02
  -9.480  0.2522E-37  0.2000E+02
  -9.470  0.1591E-37  0.2000E+02
  -9.460  0.1003E-37  0.2000E+02
  -9.450  0.6313E-38  0.2000E+02
  -9.440  0.3969E-38  0.2000E+02
  -9.430  0.2493E-38  0.2000E+02
  -9.420  0.1563E-38  0.2000E+02
  -9.410  0.9795E-39  0.2000E+02
  -9.400  0.6129E-39  0.2000E+02
  -9.390  0.3831E-39  0.2000E+02
  -9.380  0.2391E-39  0.2000E+02
  -9.370  0.1491E-39  0.2000E+02
  -9.360  0.9285E-40  0.2000E+02
  -9.350  0.5775E-40  0.2000E+02
  -9.340  0.3588E-40  0.2000E+02
  -9.330  0.2226E-40  0.2000E+02
  -9.320  0.1380E-40  0.2000E+02
  -9.310  0.8541E-41  0.2000E+02
  -9.300  0.5281E-41  0.2000E+02
  -9.290  0.3261E-41  0.2000E+02
  -9.280  0.2012E-41  0.2000E+02
  -9.270  0.1239E-41  0.2000E+02
  -9.260  0.7626E-42  0.2000E+02
  -9.250  0.4687E-42  0.2000E+02
  -9.240  0.2877E-42  0.2000E+02
  -9.230  0.1764E-42  0.2000E+02
  -9.220  0.1080E-42  0.2000E+02
  -9.210  0.6608E-43  0.2000E+02
  -9.200  0.4037E-43  0.2000E+02
  -9.190  0.2463E-43  0.2000E+02
  -9.180  0.1501E-43  0.2000E+02
  -9.170  0.9139E-44  0.2000E+02
  -9.160  0.5557E-44  0.2000E+02
  -9.150  0.3374E-44  0.2000E+02
  -9.140  0.2047E-44  0.2000E+02
  -9.130  0.1240E-44  0.2000E+02
  -9.120  0.7503E-45  0.2000E+02
  -9.110  0.4535E-45  0.2000E+02
  -9.100  0.2738E-45  0.2000E+02
  -9.090  0.1651E-45  0.2000E+02
  -9.080  0.9940E-46  0.2000E+02
  -9.070  0.5979E-46  0.2000E+02
  -9.060  0.3592E-46  0.2000E+02
  -9.050  0.2155E-46  0.2000E+02
  -9.040  0.1292E-46  0.2000E+02
  -9.030  0.7733E-47  0.2000E+02
  -9.020  0.4623E-47  0.2000E+02
  -9.010  0.2761E-47  0.2000E+02
  -9.000  0.1647E-47  0.2000E+02
  -8.990  0.9812E-48  0.2000E+02
  -8.980  0.5838E-48  0.2000E+02
  -8.970  0.3470E-48  0.2000E+02
  -8.960  0.2060E-48  0.2000E+02
  -8.950  0.1221E-48  0.2000E+02
  -8.940  0.7233E-49  0.2000E+02
  -8.930  0.4278E-49  0.2000E+02
  -8.920  0.2527E-49  0.2000E+02
  -8.910  0.1491E-49  0.2000E+02
  -8.900  0.8790E-50  0.2000E+02
  -8.890  0.5174E-50  0.2000E+02
  -8.880  0.3042E-50  0.2000E+02
  -8.870  0.1787E-50  0.2000E+02
  -8.860  0.1048E-50  0.2000E+02
  -8.850  0.6139E-51  0.2000E+02
  -8.840  0.3593E-51  0.2000E+02
  -8.830  0.2100E-51  0.2000E+02
  -8.820  0.1226E-51  0.2000E+02
  -8.810  0.7146E-52  0.2000E+02
  -8.800  0.4162E-52  0.2000E+02
  -8.790  0.2421E-52  0.2000E+02
  -8.780  0.1406E-52  0.2000E+02
  -8.770  0.8161E-53  0.2000E+02
  -8.760  0.4730E-53  0.2000E+02
  -8.750  0.2738E-53  0.2000E+02
  -8.740  0.1583E-53  0.2000E+02
  -8.730  0.9142E-54  0.2000E+02
  -8.720  0.5273E-54  0.2000E+02
  -8.710  0.3038E-54  0.2000E+02
  -8.700  0.1748E-54  0.2000E+02
  -8.690  0.1005E-54  0.2000E+02
  -8.680  0.5767E-55  0.2000E+02
  -8.670  0.3307E-55  0.2000E+02
  -8.660  0.1894E-55  0.2000E+02
  -8.650  0.1083E-55  0.2000E+02
  -8.640  0.6188E-56  0.2000E+02
  -8.630  0.3531E-56  0.2000E+02
  -8.620  0.2012E-56  0.2000E+02
  -8.610  0.1146E-56  0.2000E+02
  -8.600  0.6513E-57  0.2000E+02
  -8.590  0.3699E-57  0.2000E+02
  -8.580  0.2098E-57  0.2000E+02
  -8.570  0.1189E-57  0.2000E+02
  -8.560  0.6726E-58  0.2000E+02
  -8.550  0.3801E-58  0.2000E+02
  -8.540  0.2146E-58  0.2000E+02
  -8.530  0.1210E-58  0.2000E+02
  -8.520  0.6813E-59  0.2000E+02
  -8.510  0.3832E-59  0.2000E+02
  -8.500  0.2153E-59  0.2000E+02
  -8.490  0.1208E-59  0.2000E+02
  -8.480  0.6771E-60  0.2000E+02
  -8.470  0.3790E-60  0.2000E+02
  -8.460  0.2119E-60  0.2000E+02
  -8.450  0.1183E-60  0.2000E+02
  -8.440  0.6601E-61  0.2000E+02
  -8.430  0.3677E-61  0.2000E+02
  -8.420  0.2046E-61  0.2000E+02
  -8.410  0.1137E-61  0.2000E+02
  -8.400  0.6313E-62  0.2000E+02
  -8.390  0.3500E-62  0.2000E+02
  -8.380  0.1938E-62  0.2000E+02
  -8.370  0.1072E-62  0.2000E+02
  -8.360  0.5923E-63  0.2000E+02
  -8.350  0.3268E-63  0.2000E+02
  -8.340  0.1801E-63  0.2000E+02
  -8.330  0.9916E-64  0.2000E+02
  -8.320  0.5452E-64  0.2000E+02
  -8.310  0.2994E-64  0.2000E+02
  -8.300  0.1642E-64  0.2000E+02
  -8.290  0.8997E-65  0.2000E+02
  -8.280  0.4923E-65  0.2000E+02
  -8.270  0.2690E-65  0.2000E+02
  -8.260  0.1469E-65  0.2000E+02
  -8.250  0.8008E-66  0.2000E+02
  -8.240  0.4361E-66  0.2000E+02
  -8.230  0.2372E-66  0.2000E+02
  -8.220  0.1289E-66  0.2000E+02
  -8.210  0.6992E-67  0.2000E+02
  -8.200  0.3789E-67  0.2000E+02
  -8.190  0.2051E-67  0.2000E+02
  -8.180  0.1109E-67  0.2000E+02
  -8.170  0.5989E-68  0.2000E+02
  -8.160  0.3230E-68  0.2000E+02
  -8.150  0.1740E-68  0.2000E+02
  -8.140  0.9365E-69  0.2000E+02
  -8.130  0.5033E-69  0.2000E+02
  -8.120  0.2702E-69  0.2000E+02
  -8.110  0.1448E-69  0.2000E+02
  -8.100  0.7757E-70  0.2000E+02
  -8.090  0.4149E-70  0.2000E+02
  -8.080  0.2216E-70  0.2000E+02
  -8.070  0.1183E-70  0.2000E+02
  -8.060  0.6303E-71  0.2000E+02
  -8.050  0.3355E-71  0.2000E+02
  -8.040  0.1784E-71  0.2000E+02
  -8.030  0.9475E-72  0.2000E+02
  -8.020  0.5028E-72  0.2000E+02
  -8.010  0.2667E-72  0.2000E+02
  -8.000  0.1418E-72  0.2000E+02
  -7.990  0.7632E-73  0.2000E+02
  -7.980  0.4282E-73  0.2000E+02
  -7.970  0.2734E-73  0.2000E+02
  -7.960  0.2332E-73  0.2000E+02
  -7.950  0.2900E-73  0.2000E+02
  -7.940  0.4654E-73  0.2000E+02
  -7.930  0.8294E-73  0.2000E+02
  -7.920  0.1527E-72  0.2000E+02
  -7.910  0.2837E-72  0.2000E+02
  -7.900  0.5277E-72  0.2000E+02
  -7.890  0.9814E-72  0.2000E+02
  -7.880  0.1823E-71  0.2000E+02
  -7.870  0.3384E-71  0.2000E+02
  -7.860  0.6272E-71  0.2000E+02
  -7.850  0.1161E-70  0.2000E+02
  -7.840  0.2147E-70  0.2000E+02
  -7.830  0.3966E-70  0.2000E+02
  -7.820  0.7317E-70  0.2000E+02
  -7.810  0.1348E-69  0.2000E+02
  -7.800  0.2482E-69  0.2000E+02
  -7.790  0.4562E-69  0.2000E+02
  -7.780  0.8376E-69  0.2000E+02
  -7.770  0.1536E-68  0.2000E+02
  -7.760  0.2813E-68  0.2000E+02
  -7.750  0.5147E-68  0.2000E+02
  -7.740  0.9406E-68  0.2000E+02
  -7.730  0.1717E-67  0.2000E+02
  -7.720  0.3130E-67  0.2000E+02
  -7.710  0.5698E-67  0.2000E+02
  -7.700  0.1036E-66  0.2000E+02
  -7.690  0.1883E-66  0.2000E+02
  -7.680  0.3416E-66  0.2000E+02
  -7.670  0.6190E-66  0.2000E+02
  -7.660  0.1120E-65  0.2000E+02
  -7.650  0.2025E-65  0.2000E+02
  -7.640  0.3657E-65  0.2000E+02
  -7.630  0.6596E-65  0.2000E+02
  -7.620  0.1188E-64  0.2000E+02
  -7.610  0.2138E-64  0.2000E+02
  -7.600  0.3842E-64  0.2000E+02
  -7.590  0.6897E-64  0.2000E+02
  -7.580  0.1237E-63  0.2000E+02
  -7.570  0.2214E-63  0.2000E+02
  -7.560  0.3961E-63  0.2000E+02
  -7.550  0.7076E-63  0.2000E+02
  -7.540  0.1263E-62  0.2000E+02
  -7.530  0.2250E-62  0.2000E+02
  -7.520  0.4006E-62  0.2000E+02
  -7.510  0.7122E-62  0.2000E+02
  -7.500  0.1265E-61  0.2000E+02
  -7.490  0.2243E-61  0.2000E+02
  -7.480  0.3975E-61  0.2000E+02
  -7.470  0.7034E-61  0.2000E+02
  -7.460  0.1243E-60  0.2000E+02
  -7.450  0.2195E-60  0.2000E+02
  -7.440  0.3870E-60  0.2000E+02
  -7.430  0.6815E-60  0.2000E+02
  -7.420  0.1199E-59  0.2000E+02
  -7.410  0.2106E-59  0.2000E+02
  -7.400  0.3697E-59  0.2000E+02
  -7.390  0.6479E-59  0.2000E+02
  -7.380  0.1134E-58  0.2000E+02
  -7.370  0.1984E-58  0.2000E+02
  -7.360  0.3465E-58  0.2000E+02
  -7.350  0.6044E-58  0.2000E+02
  -7.340  0.1053E-57  0.2000E+02
  -7.330  0.1833E-57  0.2000E+02
  -7.320  0.3186E-57  0.2000E+02
  -7.310  0.5532E-57  0.2000E+02
  -7.300  0.9593E-57  0.2000E+02
  -7.290  0.1662E-56  0.2000E+02
  -7.280  0.2875E-56  0.2000E+02
  -7.270  0.4967E-56  0.2000E+02
  -7.260  0.8573E-56  0.2000E+02
  -7.250  0.1478E-55  0.2000E+02
  -7.240  0.2545E-55  0.2000E+02
  -7.230  0.4377E-55  0.2000E+02
  -7.220  0.7518E-55  0.2000E+02
  -7.210  0.1290E-54  0.2000E+02
  -7.200  0.2210E-54  0.2000E+02
  -7.190  0.3784E-54  0.2000E+02
  -7.180  0.6468E-54  0.2000E+02
  -7.170  0.1105E-53  0.2000E+02
  -7.160  0.1884E-53  0.2000E+02
  -7.150  0.3209E-53  0.2000E+02
  -7.140  0.5461E-53  0.2000E+02
  -7.130  0.9280E-53  0.2000E+02
  -7.120  0.1575E-52  0.2000E+02
  -7.110  0.2671E-52  0.2000E+02
  -7.100  0.4523E-52  0.2000E+02
  -7.090  0.7651E-52  0.2000E+02
  -7.080  0.1293E-51  0.2000E+02
  -7.070  0.2181E-51  0.2000E+02
  -7.060  0.3676E-51  0.2000E+02
  -7.050  0.6188E-51  0.2000E+02
  -7.040  0.1041E-50  0.2000E+02
  -7.030  0.1747E-50  0.2000E+02
  -7.020  0.2931E-50  0.2000E+02
  -7.010  0.4911E-50  0.2000E+02
  -7.000  0.8219E-50  0.2000E+02
  -6.990  0.1374E-49  0.2000E+02
  -6.980  0.2294E-49  0.2000E+02
  -6.970  0.3825E-49  0.2000E+02
  -6.960  0.6370E-49  0.2000E+02
  -6.950  0.1060E-48  0.2000E+02
  -6.940  0.1761E-48  0.2000E+02
  -6.930  0.2922E-48  0.2000E+02
  -6.920  0.4844E-48  0.2000E+02
  -6.910  0.8020E-48  0.2000E+02
  -6.900  0.1326E-47  0.2000E+02
  -6.890  0.2191E-47  0.2000E+02
  -6.880  0.3614E-47  0.2000E+02
  -6.870  0.5956E-47  0.2000E+02
  -6.860  0.9803E-47  0.2000E+02
  -6.850  0.1612E-46  0.2000E+02
  -6.840  0.2646E-46  0.2000E+02
  -6.830  0.4340E-46  0.2000E+02
  -6.820  0.7109E-46  0.2000E+02
  -6.810  0.1163E-45  0.2000E+02
  -6.800  0.1901E-45  0.2000E+02
  -6.790  0.3103E-45  0.2000E+02
  -6.780  0.5059E-45  0.2000E+02
  -6.770  0.8238E-45  0.2000E+02
  -6.760  0.1340E-44  0.2000E+02
  -6.750  0.2177E-44  0.2000E+02
  -6.740  0.3532E-44  0.2000E+02
  -6.730  0.5724E-44  0.2000E+02
  -6.720  0.9267E-44  0.2000E+02
  -6.710  0.1498E-43  0.2000E+02
  -6.700  0.2420E-43  0.2000E+02
  -6.690  0.3903E-43  0.2000E+02
  -6.680  0.6288E-43  0.2000E+02
  -6.670  0.1012E-42  0.2000E+02
  -6.660  0.1627E-42  0.2000E+02
  -6.650  0.2611E-42  0.2000E+02
  -6.640  0.4187E-42  0.2000E+02
  -6.630  0.6706E-42  0.2000E+02
  -6.620  0.1073E-41  0.2000E+02
  -6.610  0.1714E-41  0.2000E+02
  -6.600  0.2736E-41  0.2000E+02
  -6.590  0.4361E-41  0.2000E+02
  -6.580  0.6943E-41  0.2000E+02
  -6.570  0.1104E-40  0.2000E+02
  -6.560  0.1754E-40  0.2000E+02
  -6.550  0.2783E-40  0.2000E+02
  -6.540  0.4409E-40  0.2000E+02
  -6.530  0.6979E-40  0.2000E+02
  -6.520  0.1103E-39  0.2000E+02
  -6.510  0.1742E-39  0.2000E+02
  -6.500  0.2747E-39  0.2000E+02
  -6.490  0.4328E-39  0.2000E+02
  -6.480  0.6810E-39  0.2000E+02
  -6.470  0.1070E-38  0.2000E+02
  -6.460  0.1680E-38  0.2000E+02
  -6.450  0.2634E-38  0.2000E+02
  -6.440  0.4124E-38  0.2000E+02
  -6.430  0.6451E-38  0.2000E+02
  -6.420  0.1008E-37  0.2000E+02
  -6.410  0.1573E-37  0.2000E+02
  -6.400  0.2451E-37  0.2000E+02
  -6.390  0.3815E-37  0.2000E+02
  -6.380  0.5932E-37  0.2000E+02
  -6.370  0.9213E-37  0.2000E+02
  -6.360  0.1429E-36  0.2000E+02
  -6.350  0.2214E-36  0.2000E+02
  -6.340  0.3427E-36  0.2000E+02
  -6.330  0.5297E-36  0.2000E+02
  -6.320  0.8177E-36  0.2000E+02
  -6.310  0.1261E-35  0.2000E+02
  -6.300  0.1942E-35  0.2000E+02
  -6.290  0.2988E-35  0.2000E+02
  -6.280  0.4591E-35  0.2000E+02
  -6.270  0.7046E-35  0.2000E+02
  -6.260  0.1080E-34  0.2000E+02
  -6.250  0.1654E-34  0.2000E+02
  -6.240  0.2529E-34  0.2000E+02
  -6.230  0.3864E-34  0.2000E+02
  -6.220  0.5895E-34  0.2000E+02
  -6.210  0.8983E-34  0.2000E+02
  -6.200  0.1367E-33  0.2000E+02
  -6.190  0.2079E-33  0.2000E+02
  -6.180  0.3156E-33  0.2000E+02
  -6.170  0.4787E-33  0.2000E+02
  -6.160  0.7253E-33  0.2000E+02
  -6.150  0.1097E-32  0.2000E+02
  -6.140  0.1659E-32  0.2000E+02
  -6.130  0.2504E-32  0.2000E+02
  -6.120  0.3775E-32  0.2000E+02
  -6.110  0.5685E-32  0.2000E+02
  -6.100  0.8551E-32  0.2000E+02
  -6.090  0.1285E-31  0.2000E+02
  -6.080  0.1928E-31  0.2000E+02
  -6.070  0.2890E-31  0.2000E+02
  -6.060  0.4326E-31  0.2000E+02
  -6.050  0.6469E-31  0.2000E+02
  -6.040  0.9662E-31  0.2000E+02
  -6.030  0.1441E-30  0.2000E+02
  -6.020  0.2148E-30  0.2000E+02
  -6.010  0.3196E-30  0.2000E+02
  -6.000  0.4752E-30  0.2000E+02
  -5.990  0.7055E-30  0.2000E+02
  -5.980  0.1046E-29  0.2000E+02
  -5.970  0.1550E-29  0.2000E+02
  -5.960  0.2293E-29  0.2000E+02
  -5.950  0.3388E-29  0.2000E+02
  -5.940  0.5001E-29  0.2000E+02
  -5.930  0.7373E-29  0.2000E+02
  -5.920  0.1086E-28  0.2000E+02
  -5.910  0.1597E-28  0.2000E+02
  -5.900  0.2346E-28  0.2000E+02
  -5.890  0.3442E-28  0.2000E+02
  -5.880  0.5045E-28  0.2000E+02
  -5.870  0.7385E-28  0.2000E+02
  -5.860  0.1080E-27  0.2000E+02
  -5.850  0.1577E-27  0.2000E+02
  -5.840  0.2300E-27  0.2000E+02
  -5.830  0.3351E-27  0.2000E+02
  -5.820  0.4877E-27  0.2000E+02
  -5.810  0.7088E-27  0.2000E+02
  -5.800  0.1029E-26  0.2000E+02
  -5.790  0.1492E-26  0.2000E+02
  -5.780  0.2161E-26  0.2000E+02
  -5.770  0.3127E-26  0.2000E+02
  -5.760  0.4518E-26  0.2000E+02
  -5.750  0.6521E-26  0.2000E+02
  -5.740  0.9400E-26  0.2000E+02
  -5.730  0.1353E-25  0.2000E+02
  -5.720  0.1946E-25  0.2000E+02
  -5.710  0.2796E-25  0.2000E+02
  -5.700  0.4011E-25  0.2000E+02
  -5.690  0.5749E-25  0.2000E+02
  -5.680  0.8228E-25  0.2000E+02
  -5.670  0.1176E-24  0.2000E+02
  -5.660  0.1680E-24  0.2000E+02
  -5.650  0.2396E-24  0.2000E+02
  -5.640  0.3413E-24  0.2000E+02
  -5.630  0.4857E-24  0.2000E+02
  -5.620  0.6903E-24  0.2000E+02
  -5.610  0.9800E-24  0.2000E+02
  -5.600  0.1390E-23  0.2000E+02
  -5.590  0.1968E-23  0.2000E+02
  -5.580  0.2784E-23  0.2000E+02
  -5.570  0.3933E-23  0.2000E+02
  -5.560  0.5551E-23  0.2000E+02
  -5.550  0.7824E-23  0.2000E+02
  -5.540  0.1102E-22  0.2000E+02
  -5.530  0.1549E-22  0.2000E+02
  -5.520  0.2176E-22  0.2000E+02
  -5.510  0.3053E-22  0.2000E+02
  -5.500  0.4278E-22  0.2000E+02
  -5.490  0.5987E-22  0.2000E+02
  -5.480  0.8370E-22  0.2000E+02
  -5.470  0.1169E-21  0.2000E+02
  -5.460  0.1630E-21  0.2000E+02
  -5.450  0.2271E-21  0.2000E+02
  -5.440  0.3160E-21  0.2000E+02
  -5.430  0.4391E-21  0.2000E+02
  -5.420  0.6096E-21  0.2000E+02
  -5.410  0.8452E-21  0.2000E+02
  -5.400  0.1170E-20  0.2000E+02
  -5.390  0.1619E-20  0.2000E+02
  -5.380  0.2237E-20  0.2000E+02
  -5.370  0.3087E-20  0.2000E+02
  -5.360  0.4255E-20  0.2000E+02
  -5.350  0.5858E-20  0.2000E+02
  -5.340  0.8055E-20  0.2000E+02
  -5.330  0.1106E-19  0.2000E+02
  -5.320  0.1518E-19  0.2000E+02
  -5.310  0.2080E-19  0.2000E+02
  -5.300  0.2847E-19  0.2000E+02
  -5.290  0.3892E-19  0.2000E+02
  -5.280  0.5314E-19  0.2000E+02
  -5.270  0.7247E-19  0.2000E+02
  -5.260  0.9872E-19  0.2000E+02
  -5.250  0.1343E-18  0.2000E+02
  -5.240  0.1825E-18  0.2000E+02
  -5.230  0.2478E-18  0.2000E+02
  -5.220  0.3360E-18  0.2000E+02
  -5.210  0.4550E-18  0.2000E+02
  -5.200  0.6155E-18  0.2000E+02
  -5.190  0.8315E-18  0.2000E+02
  -5.180  0.1122E-17  0.2000E+02
  -5.170  0.1512E-17  0.2000E+02
  -5.160  0.2036E-17  0.2000E+02
  -5.150  0.2738E-17  0.2000E+02
  -5.140  0.3678E-17  0.2000E+02
  -5.130  0.4934E-17  0.2000E+02
  -5.120  0.6612E-17  0.2000E+02
  -5.110  0.8849E-17  0.2000E+02
  -5.100  0.1183E-16  0.2000E+02
  -5.090  0.1580E-16  0.2000E+02
  -5.080  0.2107E-16  0.2000E+02
  -5.070  0.2807E-16  0.2000E+02
  -5.060  0.3734E-16  0.2000E+02
  -5.050  0.4963E-16  0.2000E+02
  -5.040  0.6589E-16  0.2000E+02
  -5.030  0.8736E-16  0.2000E+02
  -5.020  0.1157E-15  0.2000E+02
  -5.010  0.1530E-15  0.2000E+02
  -5.000  0.2022E-15  0.2000E+02
  -4.990  0.2669E-15  0.2000E+02
  -4.980  0.3518E-15  0.2000E+02
  -4.970  0.4631E-15  0.2000E+02
  -4.960  0.6090E-15  0.2000E+02
  -4.950  0.8000E-15  0.2000E+02
  -4.940  0.1050E-14  0.2000E+02
  -4.930  0.1375E-14  0.2000E+02
  -4.920  0.1800E-14  0.2000E+02
  -4.910  0.2354E-14  0.2000E+02
  -4.900  0.3074E-14  0.2000E+02
  -4.890  0.4009E-14  0.2000E+02
  -4.880  0.5223E-14  0.2000E+02
  -4.870  0.6797E-14  0.2000E+02
  -4.860  0.8834E-14  0.2000E+02
  -4.850  0.1147E-13  0.2000E+02
  -4.840  0.1487E-13  0.2000E+02
  -4.830  0.1926E-13  0.2000E+02
  -4.820  0.2492E-13  0.2000E+02
  -4.810  0.3220E-13  0.2000E+02
  -4.800  0.4156E-13  0.2000E+02
  -4.790  0.5358E-13  0.2000E+02
  -4.780  0.6899E-13  0.2000E+02
  -4.770  0.8873E-13  0.2000E+02
  -4.760  0.1140E-12  0.2000E+02
  -4.750  0.1463E-12  0.2000E+02
  -4.740  0.1875E-12  0.2000E+02
  -4.730  0.2400E-12  0.2000E+02
  -4.720  0.3069E-12  0.2000E+02
  -4.710  0.3919E-12  0.2000E+02
  -4.700  0.5000E-12  0.2000E+02
  -4.690  0.6371E-12  0.2000E+02
  -4.680  0.8108E-12  0.2000E+02
  -4.670  0.1031E-11  0.2000E+02
  -4.660  0.1309E-11  0.2000E+02
  -4.650  0.1660E-11  0.2000E+02
  -4.640  0.2103E-11  0.2000E+02
  -4.630  0.2661E-11  0.2000E+02
  -4.620  0.3363E-11  0.2000E+02
  -4.610  0.4245E-11  0.2000E+02
  -4.600  0.5353E-11  0.2000E+02
  -4.590  0.6742E-11  0.2000E+02
  -4.580  0.8481E-11  0.2000E+02
  -4.570  0.1066E-10  0.2000E+02
  -4.560  0.1338E-10  0.2000E+02
  -4.550  0.1677E-10  0.2000E+02
  -4.540  0.2100E-10  0.2000E+02
  -4.530  0.2626E-10  0.2000E+02
  -4.520  0.3280E-10  0.2000E+02
  -4.510  0.4093E-10  0.2000E+02
  -4.500  0.5102E-10  0.2000E+02
  -4.490  0.6351E-10  0.2000E+02
  -4.480  0.7898E-10  0.2000E+02
  -4.470  0.9809E-10  0.2000E+02
  -4.460  0.1217E-09  0.2000E+02
  -4.450  0.1508E-09  0.2000E+02
  -4.440  0.1866E-09  0.2000E+02
  -4.430  0.2308E-09  0.2000E+02
  -4.420  0.2849E-09  0.2000E+02
  -4.410  0.3515E-09  0.2000E+02
  -4.400  0.4330E-09  0.2000E+02
  -4.390  0.5329E-09  0.2000E+02
  -4.380  0.6550E-09  0.2000E+02
  -4.370  0.8042E-09  0.2000E+02
  -4.360  0.9862E-09  0.2000E+02
  -4.350  0.1208E-08  0.2000E+02
  -4.340  0.1478E-08  0.2000E+02
  -4.330  0.1806E-08  0.2000E+02
  -4.320  0.2205E-08  0.2000E+02
  -4.310  0.2688E-08  0.2000E+02
  -4.300  0.3274E-08  0.2000E+02
  -4.290  0.3983E-08  0.2000E+02
  -4.280  0.4840E-08  0.2000E+02
  -4.270  0.5874E-08  0.2000E+02
  -4.260  0.7121E-08  0.2000E+02
  -4.250  0.8623E-08  0.2000E+02
  -4.240  0.1043E-07  0.2000E+02
  -4.230  0.1260E-07  0.2000E+02
  -4.220  0.1521E-07  0.2000E+02
  -4.210  0.1833E-07  0.2000E+02
  -4.200  0.2207E-07  0.2000E+02
  -4.190  0.2654E-07  0.2000E+02
  -4.180  0.3188E-07  0.2000E+02
  -4.170  0.3825E-07  0.2000E+02
  -4.160  0.4584E-07  0.2000E+02
  -4.150  0.5488E-07  0.2000E+02
  -4.140  0.6562E-07  0.2000E+02
  -4.130  0.7838E-07  0.2000E+02
  -4.120  0.9351E-07  0.2000E+02
  -4.110  0.1114E-06  0.2000E+02
  -4.100  0.1326E-06  0.2000E+02
  -4.090  0.1577E-06  0.2000E+02
  -4.080  0.1873E-06  0.2000E+02
  -4.070  0.2222E-06  0.2000E+02
  -4.060  0.2633E-06  0.2000E+02
  -4.050  0.3116E-06  0.2000E+02
  -4.040  0.3684E-06  0.2000E+02
  -4.030  0.4350E-06  0.2000E+02
  -4.020  0.5131E-06  0.2000E+02
  -4.010  0.6046E-06  0.2000E+02
  -4.000  0.7115E-06  0.2000E+02
  -3.990  0.8364E-06  0.2000E+02
  -3.980  0.9822E-06  0.2000E+02
  -3.970  0.1152E-05  0.2000E+02
  -3.960  0.1350E-05  0.2000E+02
  -3.950  0.1579E-05  0.2000E+02
  -3.940  0.1846E-05  0.2000E+02
  -3.930  0.2156E-05  0.2000E+02
  -3.920  0.2514E-05  0.2000E+02
  -3.910  0.2929E-05  0.2000E+02
  -3.900  0.3409E-05  0.2000E+02
  -3.890  0.3962E-05  0.2000E+02
  -3.880  0.4601E-05  0.2000E+02
  -3.870  0.5336E-05  0.2000E+02
  -3.860  0.6182E-05  0.2000E+02
  -3.850  0.7153E-05  0.2000E+02
  -3.840  0.8269E-05  0.2000E+02
  -3.830  0.9547E-05  0.2000E+02
  -3.820  0.1101E-04  0.2000E+02
  -3.810  0.1269E-04  0.2000E+02
  -3.800  0.1460E-04  0.2000E+02
  -3.790  0.1678E-04  0.2000E+02
  -3.780  0.1927E-04  0.2000E+02
  -3.770  0.2210E-04  0.2000E+02
  -3.760  0.2532E-04  0.2000E+02
  -3.750  0.2898E-04  0.2000E+02
  -3.740  0.3313E-04  0.2000E+02
  -3.730  0.3783E-04  0.2000E+02
  -3.720  0.4315E-04  0.2000E+02
  -3.710  0.4916E-04  0.2000E+02
  -3.700  0.5595E-04  0.2000E+02
  -3.690  0.6361E-04  0.2000E+02
  -3.680  0.7224E-04  0.2000E+02
  -3.670  0.8195E-04  0.2000E+02
  -3.660  0.9286E-04  0.2000E+02
  -3.650  0.1051E-03  0.2000E+02
  -3.640  0.1188E-03  0.2000E+02
  -3.630  0.1342E-03  0.2000E+02
  -3.620  0.1514E-03  0.2000E+02
  -3.610  0.1707E-03  0.2000E+02
  -3.600  0.1921E-03  0.2000E+02
  -3.590  0.2161E-03  0.2000E+02
  -3.580  0.2427E-03  0.2000E+02
  -3.570  0.2724E-03  0.2000E+02
  -3.560  0.3053E-03  0.2000E+02
  -3.550  0.3419E-03  0.2000E+02
  -3.540  0.3824E-03  0.2000E+02
  -3.530  0.4273E-03  0.2000E+02
  -3.520  0.4769E-03  0.2000E+02
  -3.510  0.5317E-03  0.2000E+02
  -3.500  0.5922E-03  0.2000E+02
  -3.490  0.6589E-03  0.2000E+02
  -3.480  0.7323E-03  0.2000E+02
  -3.470  0.8130E-03  0.2000E+02
  -3.460  0.9017E-03  0.2000E+02
  -3.450  0.9990E-03  0.2000E+02
  -3.440  0.1106E-02  0.2000E+02
  -3.430  0.1222E-02  0.2000E+02
  -3.420  0.1350E-02  0.2000E+02
  -3.410  0.1489E-02  0.2000E+02
  -3.400  0.1641E-02  0.2000E+02
  -3.390  0.1807E-02  0.2000E+02
  -3.380  0.1987E-02  0.2000E+02
  -3.370  0.2183E-02  0.2000E+02
  -3.360  0.2396E-02  0.2000E+02
  -3.350  0.2627E-02  0.2000E+02
  -3.340  0.2878E-02  0.2000E+02
  -3.330  0.3149E-02  0.2000E+02
  -3.320  0.3442E-02  0.2000E+02
  -3.310  0.3758E-02  0.2000E+02
  -3.300  0.4099E-02  0.2000E+02
  -3.290  0.4467E-02  0.2000E+02
  -3.280  0.4863E-02  0.2000E+02
  -3.270  0.5289E-02  0.2000E+02
  -3.260  0.5746E-02  0.2000E+02
  -3.250  0.6236E-02  0.2000E+02
  -3.240  0.6762E-02  0.2000E+02
  -3.230  0.7324E-02  0.2000E+02
  -3.220  0.7926E-02  0.2000E+02
  -3.210  0.8568E-02  0.2000E+02
  -3.200  0.9254E-02  0.2000E+02
  -3.190  0.9984E-02  0.2000E+02
  -3.180  0.1076E-01  0.2000E+02
  -3.170  0.1159E-01  0.2000E+02
  -3.160  0.1247E-01  0.2000E+02
  -3.150  0.1340E-01  0.2000E+02
  -3.140  0.1439E-01  0.2000E+02
  -3.130  0.1543E-01  0.2000E+02
  -3.120  0.1654E-01  0.2000E+02
  -3.110  0.1771E-01  0.2000E+02
  -3.100  0.1894E-01  0.2000E+02
  -3.090  0.2024E-01  0.2000E+02
  -3.080  0.2161E-01  0.2000E+02
  -3.070  0.2306E-01  0.2000E+02
  -3.060  0.2457E-01  0.2000E+02
  -3.050  0.2616E-01  0.2000E+02
  -3.040  0.2783E-01  0.2000E+02
  -3.030  0.2958E-01  0.2000E+02
  -3.020  0.3140E-01  0.2000E+02
  -3.010  0.3332E-01  0.2000E+02
  -3.000  0.3531E-01  0.2001E+02
  -2.990  0.3740E-01  0.2001E+02
  -2.980  0.3957E-01  0.2001E+02
  -2.970  0.4183E-01  0.2001E+02
  -2.960  0.4418E-01  0.2001E+02
  -2.950  0.4662E-01  0.2001E+02
  -2.940  0.4916E-01  0.2001E+02
  -2.930  0.5179E-01  0.2001E+02
  -2.920  0.5451E-01  0.2001E+02
  -2.910  0.5733E-01  0.2001E+02
  -2.900  0.6025E-01  0.2001E+02
  -2.890  0.6326E-01  0.2001E+02
  -2.880  0.6637E-01  0.2001E+02
  -2.870  0.6957E-01  0.2001E+02
  -2.860  0.7287E-01  0.2001E+02
  -2.850  0.7627E-01  0.2001E+02
  -2.840  0.7976E-01  0.2001E+02
  -2.830  0.8334E-01  0.2002E+02
  -2.820  0.8702E-01  0.2002E+02
  -2.810  0.9079E-01  0.2002E+02
  -2.800  0.9465E-01  0.2002E+02
  -2.790  0.9860E-01  0.2002E+02
  -2.780  0.1026E+00  0.2002E+02
  -2.770  0.1068E+00  0.2002E+02
  -2.760  0.1110E+00  0.2002E+02
  -2.750  0.1153E+00  0.2002E+02
  -2.740  0.1197E+00  0.2002E+02
  -2.730  0.1241E+00  0.2003E+02
  -2.720  0.1286E+00  0.2003E+02
  -2.710  0.1332E+00  0.2003E+02
  -2.700  0.1379E+00  0.2003E+02
  -2.690  0.1427E+00  0.2003E+02
  -2.680  0.1475E+00  0.2003E+02
  -2.670  0.1523E+00  0.2003E+02
  -2.660  0.1573E+00  0.2004E+02
  -2.650  0.1622E+00  0.2004E+02
  -2.640  0.1673E+00  0.2004E+02
  -2.630  0.1724E+00  0.2004E+02
  -2.620  0.1775E+00  0.2004E+02
  -2.610  0.1827E+00  0.2004E+02
  -2.600  0.1879E+00  0.2005E+02
  -2.590  0.1932E+00  0.2005E+02
  -2.580  0.1984E+00  0.2005E+02
  -2.570  0.2038E+00  0.2005E+02
  -2.560  0.2091E+00  0.2005E+02
  -2.550  0.2145E+00  0.2006E+02
  -2.540  0.2199E+00  0.2006E+02
  -2.530  0.2253E+00  0.2006E+02
  -2.520  0.2307E+00  0.2006E+02
  -2.510  0.2362E+00  0.2007E+02
  -2.500  0.2416E+00  0.2007E+02
  -2.490  0.2471E+00  0.2007E+02
  -2.480  0.2525E+00  0.2007E+02
  -2.470  0.2580E+00  0.2008E+02
  -2.460  0.2634E+00  0.2008E+02
  -2.450  0.2689E+00  0.2008E+02
  -2.440  0.2743E+00  0.2008E+02
  -2.430  0.2798E+00  0.2009E+02
  -2.420  0.2852E+00  0.2009E+02
  -2.410  0.2906E+00  0.2009E+02
  -2.400  0.2960E+00  0.2010E+02
  -2.390  0.3014E+00  0.2010E+02
  -2.380  0.3068E+00  0.2010E+02
  -2.370  0.3122E+00  0.2010E+02
  -2.360  0.3175E+00  0.2011E+02
  -2.350  0.3228E+00  0.2011E+02
  -2.340  0.3281E+00  0.2011E+02
  -2.330  0.3334E+00  0.2012E+02
  -2.320  0.3386E+00  0.2012E+02
  -2.310  0.3438E+00  0.2012E+02
  -2.300  0.3490E+00  0.2013E+02
  -2.290  0.3542E+00  0.2013E+02
  -2.280  0.3594E+00  0.2013E+02
  -2.270  0.3645E+00  0.2014E+02
  -2.260  0.3696E+00  0.2014E+02
  -2.250  0.3747E+00  0.2015E+02
  -2.240  0.3797E+00  0.2015E+02
  -2.230  0.3847E+00  0.2015E+02
  -2.220  0.3897E+00  0.2016E+02
  -2.210  0.3947E+00  0.2016E+02
  -2.200  0.3997E+00  0.2017E+02
  -2.190  0.4046E+00  0.2017E+02
  -2.180  0.4095E+00  0.2017E+02
  -2.170  0.4144E+00  0.2018E+02
  -2.160  0.4192E+00  0.2018E+02
  -2.150  0.4241E+00  0.2019E+02
  -2.140  0.4289E+00  0.2019E+02
  -2.130  0.4337E+00  0.2019E+02
  -2.120  0.4385E+00  0.2020E+02
  -2.110  0.4433E+00  0.2020E+02
  -2.100  0.4480E+00  0.2021E+02
  -2.090  0.4527E+00  0.2021E+02
  -2.080  0.4575E+00  0.2022E+02
  -2.070  0.4622E+00  0.2022E+02
  -2.060  0.4669E+00  0.2023E+02
  -2.050  0.4716E+00  0.2023E+02
  -2.040  0.4763E+00  0.2024E+02
  -2.030  0.4810E+00  0.2024E+02
  -2.020  0.4856E+00  0.2025E+02
  -2.010  0.4903E+00  0.2025E+02
  -2.000  0.4950E+00  0.2026E+02
  -1.990  0.4996E+00  0.2026E+02
  -1.980  0.5043E+00  0.2027E+02
  -1.970  0.5090E+00  0.2027E+02
  -1.960  0.5136E+00  0.2028E+02
  -1.950  0.5183E+00  0.2028E+02
  -1.940  0.5230E+00  0.2029E+02
  -1.930  0.5277E+00  0.2029E+02
  -1.920  0.5324E+00  0.2030E+02
  -1.910  0.5371E+00  0.2030E+02
  -1.900  0.5418E+00  0.2031E+02
  -1.890  0.5466E+00  0.2031E+02
  -1.880  0.5513E+00  0.2032E+02
  -1.870  0.5561E+00  0.2032E+02
  -1.860  0.5609E+00  0.2033E+02
  -1.850  0.5657E+00  0.2034E+02
  -1.840  0.5705E+00  0.2034E+02
  -1.830  0.5754E+00  0.2035E+02
  -1.820  0.5802E+00  0.2035E+02
  -1.810  0.5851E+00  0.2036E+02
  -1.800  0.5901E+00  0.2036E+02
  -1.790  0.5950E+00  0.2037E+02
  -1.780  0.6000E+00  0.2038E+02
  -1.770  0.6051E+00  0.2038E+02
  -1.760  0.6101E+00  0.2039E+02
  -1.750  0.6152E+00  0.2039E+02
  -1.740  0.6204E+00  0.2040E+02
  -1.730  0.6255E+00  0.2041E+02
  -1.720  0.6307E+00  0.2041E+02
  -1.710  0.6360E+00  0.2042E+02
  -1.700  0.6413E+00  0.2043E+02
  -1.690  0.6466E+00  0.2043E+02
  -1.680  0.6520E+00  0.2044E+02
  -1.670  0.6574E+00  0.2045E+02
  -1.660  0.6629E+00  0.2045E+02
  -1.650  0.6684E+00  0.2046E+02
  -1.640  0.6740E+00  0.2047E+02
  -1.630  0.6796E+00  0.2047E+02
  -1.620  0.6852E+00  0.2048E+02
  -1.610  0.6909E+00  0.2049E+02
  -1.600  0.6967E+00  0.2049E+02
  -1.590  0.7025E+00  0.2050E+02
  -1.580  0.7083E+00  0.2051E+02
  -1.570  0.7142E+00  0.2051E+02
  -1.560  0.7202E+00  0.2052E+02
  -1.550  0.7261E+00  0.2053E+02
  -1.540  0.7322E+00  0.2054E+02
  -1.530  0.7382E+00  0.2054E+02
  -1.520  0.7443E+00  0.2055E+02
  -1.510  0.7505E+00  0.2056E+02
  -1.500  0.7566E+00  0.2057E+02
  -1.490  0.7629E+00  0.2057E+02
  -1.480  0.7691E+00  0.2058E+02
  -1.470  0.7754E+00  0.2059E+02
  -1.460  0.7817E+00  0.2060E+02
  -1.450  0.7880E+00  0.2060E+02
  -1.440  0.7943E+00  0.2061E+02
  -1.430  0.8007E+00  0.2062E+02
  -1.420  0.8070E+00  0.2063E+02
  -1.410  0.8134E+00  0.2064E+02
  -1.400  0.8198E+00  0.2065E+02
  -1.390  0.8262E+00  0.2065E+02
  -1.380  0.8325E+00  0.2066E+02
  -1.370  0.8389E+00  0.2067E+02
  -1.360  0.8452E+00  0.2068E+02
  -1.350  0.8515E+00  0.2069E+02
  -1.340  0.8578E+00  0.2070E+02
  -1.330  0.8641E+00  0.2070E+02
  -1.320  0.8703E+00  0.2071E+02
  -1.310  0.8765E+00  0.2072E+02
  -1.300  0.8826E+00  0.2073E+02
  -1.290  0.8886E+00  0.2074E+02
  -1.280  0.8946E+00  0.2075E+02
  -1.270  0.9005E+00  0.2076E+02
  -1.260  0.9064E+00  0.2077E+02
  -1.250  0.9121E+00  0.2078E+02
  -1.240  0.9178E+00  0.2078E+02
  -1.230  0.9233E+00  0.2079E+02
  -1.220  0.9288E+00  0.2080E+02
  -1.210  0.9341E+00  0.2081E+02
  -1.200  0.9394E+00  0.2082E+02
  -1.190  0.9445E+00  0.2083E+02
  -1.180  0.9494E+00  0.2084E+02
  -1.170  0.9543E+00  0.2085E+02
  -1.160  0.9589E+00  0.2086E+02
  -1.150  0.9635E+00  0.2087E+02
  -1.140  0.9678E+00  0.2088E+02
  -1.130  0.9720E+00  0.2089E+02
  -1.120  0.9761E+00  0.2090E+02
  -1.110  0.9800E+00  0.2091E+02
  -1.100  0.9836E+00  0.2092E+02
  -1.090  0.9871E+00  0.2093E+02
  -1.080  0.9904E+00  0.2094E+02
  -1.070  0.9936E+00  0.2095E+02
  -1.060  0.9965E+00  0.2096E+02
  -1.050  0.9992E+00  0.2097E+02
  -1.040  0.1002E+01  0.2098E+02
  -1.030  0.1004E+01  0.2099E+02
  -1.020  0.1006E+01  0.2100E+02
  -1.010  0.1008E+01  0.2101E+02
  -1.000  0.1010E+01  0.2102E+02
  -0.990  0.1011E+01  0.2103E+02
  -0.980  0.1012E+01  0.2104E+02
  -0.970  0.1013E+01  0.2105E+02
  -0.960  0.1014E+01  0.2106E+02
  -0.950  0.1015E+01  0.2107E+02
  -0.940  0.1015E+01  0.2108E+02
  -0.930  0.1015E+01  0.2109E+02
  -0.920  0.1015E+01  0.2110E+02
  -0.910  0.1015E+01  0.2111E+02
  -0.900  0.1014E+01  0.2112E+02
  -0.890  0.1014E+01  0.2113E+02
  -0.880  0.1013E+01  0.2114E+02
  -0.870  0.1012E+01  0.2115E+02
  -0.860  0.1010E+01  0.2116E+02
  -0.850  0.1009E+01  0.2117E+02
  -0.840  0.1007E+01  0.2118E+02
  -0.830  0.1005E+01  0.2119E+02
  -0.820  0.1003E+01  0.2120E+02
  -0.810  0.1001E+01  0.2121E+02
  -0.800  0.9980E+00  0.2122E+02
  -0.790  0.9953E+00  0.2123E+02
  -0.780  0.9924E+00  0.2124E+02
  -0.770  0.9894E+00  0.2125E+02
  -0.760  0.9862E+00  0.2126E+02
  -0.750  0.9828E+00  0.2127E+02
  -0.740  0.9793E+00  0.2128E+02
  -0.730  0.9756E+00  0.2129E+02
  -0.720  0.9718E+00  0.2130E+02
  -0.710  0.9678E+00  0.2131E+02
  -0.700  0.9637E+00  0.2132E+02
  -0.690  0.9594E+00  0.2133E+02
  -0.680  0.9551E+00  0.2134E+02
  -0.670  0.9505E+00  0.2135E+02
  -0.660  0.9459E+00  0.2136E+02
  -0.650  0.9412E+00  0.2137E+02
  -0.640  0.9363E+00  0.2138E+02
  -0.630  0.9313E+00  0.2138E+02
  -0.620  0.9262E+00  0.2139E+02
  -0.610  0.9211E+00  0.2140E+02
  -0.600  0.9158E+00  0.2141E+02
  -0.590  0.9104E+00  0.2142E+02
  -0.580  0.9050E+00  0.2143E+02
  -0.570  0.8994E+00  0.2144E+02
  -0.560  0.8938E+00  0.2145E+02
  -0.550  0.8881E+00  0.2146E+02
  -0.540  0.8823E+00  0.2147E+02
  -0.530  0.8764E+00  0.2148E+02
  -0.520  0.8705E+00  0.2148E+02
  -0.510  0.8645E+00  0.2149E+02
  -0.500  0.8584E+00  0.2150E+02
  -0.490  0.8522E+00  0.2151E+02
  -0.480  0.8460E+00  0.2152E+02
  -0.470  0.8398E+00  0.2153E+02
  -0.460  0.8335E+00  0.2153E+02
  -0.450  0.8271E+00  0.2154E+02
  -0.440  0.8207E+00  0.2155E+02
  -0.430  0.8142E+00  0.2156E+02
  -0.420  0.8077E+00  0.2157E+02
  -0.410  0.8011E+00  0.2158E+02
  -0.400  0.7945E+00  0.2158E+02
  -0.390  0.7878E+00  0.2159E+02
  -0.380  0.7811E+00  0.2160E+02
  -0.370  0.7743E+00  0.2161E+02
  -0.360  0.7675E+00  0.2161E+02
  -0.350  0.7607E+00  0.2162E+02
  -0.340  0.7538E+00  0.2163E+02
  -0.330  0.7468E+00  0.2164E+02
  -0.320  0.7399E+00  0.2164E+02
  -0.310  0.7329E+00  0.2165E+02
  -0.300  0.7258E+00  0.2166E+02
  -0.290  0.7188E+00  0.2167E+02
  -0.280  0.7116E+00  0.2167E+02
  -0.270  0.7045E+00  0.2168E+02
  -0.260  0.6973E+00  0.2169E+02
  -0.250  0.6901E+00  0.2169E+02
  -0.240  0.6829E+00  0.2170E+02
  -0.230  0.6756E+00  0.2171E+02
  -0.220  0.6683E+00  0.2171E+02
  -0.210  0.6610E+00  0.2172E+02
  -0.200  0.6536E+00  0.2173E+02
  -0.190  0.6462E+00  0.2173E+02
  -0.180  0.6388E+00  0.2174E+02
  -0.170  0.6314E+00  0.2175E+02
  -0.160  0.6240E+00  0.2175E+02
  -0.150  0.6165E+00  0.2176E+02
  -0.140  0.6090E+00  0.2177E+02
  -0.130  0.6016E+00  0.2177E+02
  -0.120  0.5941E+00  0.2178E+02
  -0.110  0.5866E+00  0.2178E+02
  -0.100  0.5790E+00  0.2179E+02
  -0.090  0.5715E+00  0.2179E+02
  -0.080  0.5640E+00  0.2180E+02
  -0.070  0.5565E+00  0.2181E+02
  -0.060  0.5490E+00  0.2181E+02
  -0.050  0.5415E+00  0.2182E+02
  -0.040  0.5341E+00  0.2182E+02
  -0.030  0.5266E+00  0.2183E+02
  -0.020  0.5192E+00  0.2183E+02
  -0.010  0.5118E+00  0.2184E+02
  -0.000  0.5044E+00  0.2184E+02
   0.010  0.4971E+00  0.2185E+02
   0.020  0.4898E+00  0.2185E+02
   0.030  0.4826E+00  0.2186E+02
   0.040  0.4754E+00  0.2186E+02
   0.050  0.4683E+00  0.2187E+02
   0.060  0.4613E+00  0.2187E+02
   0.070  0.4543E+00  0.2188E+02
   0.080  0.4474E+00  0.2188E+02
   0.090  0.4406E+00  0.2188E+02
   0.100  0.4339E+00  0.2189E+02
   0.110  0.4273E+00  0.2189E+02
   0.120  0.4208E+00  0.2190E+02
   0.130  0.4144E+00  0.2190E+02
   0.140  0.4081E+00  0.2191E+02
   0.150  0.4020E+00  0.2191E+02
   0.160  0.3960E+00  0.2191E+02
   0.170  0.3901E+00  0.2192E+02
   0.180  0.3844E+00  0.2192E+02
   0.190  0.3788E+00  0.2193E+02
   0.200  0.3734E+00  0.2193E+02
   0.210  0.3681E+00  0.2193E+02
   0.220  0.3630E+00  0.2194E+02
   0.230  0.3582E+00  0.2194E+02
   0.240  0.3534E+00  0.2194E+02
   0.250  0.3489E+00  0.2195E+02
   0.260  0.3446E+00  0.2195E+02
   0.270  0.3405E+00  0.2195E+02
   0.280  0.3366E+00  0.2196E+02
   0.290  0.3329E+00  0.2196E+02
   0.300  0.3294E+00  0.2196E+02
   0.310  0.3262E+00  0.2197E+02
   0.320  0.3232E+00  0.2197E+02
   0.330  0.3204E+00  0.2197E+02
   0.340  0.3178E+00  0.2198E+02
   0.350  0.3155E+00  0.2198E+02
   0.360  0.3135E+00  0.2198E+02
   0.370  0.3116E+00  0.2199E+02
   0.380  0.3101E+00  0.2199E+02
   0.390  0.3088E+00  0.2199E+02
   0.400  0.3077E+00  0.2200E+02
   0.410  0.3069E+00  0.2200E+02
   0.420  0.3063E+00  0.2200E+02
   0.430  0.3060E+00  0.2200E+02
   0.440  0.3060E+00  0.2201E+02
   0.450  0.3062E+00  0.2201E+02
   0.460  0.3066E+00  0.2201E+02
   0.470  0.3074E+00  0.2202E+02
   0.480  0.3083E+00  0.2202E+02
   0.490  0.3095E+00  0.2202E+02
   0.500  0.3110E+00  0.2203E+02
   0.510  0.3127E+00  0.2203E+02
   0.520  0.3147E+00  0.2203E+02
   0.530  0.3169E+00  0.2204E+02
   0.540  0.3193E+00  0.2204E+02
   0.550  0.3219E+00  0.2204E+02
   0.560  0.3248E+00  0.2205E+02
   0.570  0.3279E+00  0.2205E+02
   0.580  0.3313E+00  0.2205E+02
   0.590  0.3348E+00  0.2206E+02
   0.600  0.3386E+00  0.2206E+02
   0.610  0.3425E+00  0.2206E+02
   0.620  0.3467E+00  0.2207E+02
   0.630  0.3510E+00  0.2207E+02
   0.640  0.3556E+00  0.2207E+02
   0.650  0.3603E+00  0.2208E+02
   0.660  0.3652E+00  0.2208E+02
   0.670  0.3703E+00  0.2208E+02
   0.680  0.3755E+00  0.2209E+02
   0.690  0.3809E+00  0.2209E+02
   0.700  0.3864E+00  0.2210E+02
   0.710  0.3921E+00  0.2210E+02
   0.720  0.3980E+00  0.2210E+02
   0.730  0.4039E+00  0.2211E+02
   0.740  0.4100E+00  0.2211E+02
   0.750  0.4163E+00  0.2212E+02
   0.760  0.4226E+00  0.2212E+02
   0.770  0.4291E+00  0.2212E+02
   0.780  0.4357E+00  0.2213E+02
   0.790  0.4423E+00  0.2213E+02
   0.800  0.4491E+00  0.2214E+02
   0.810  0.4560E+00  0.2214E+02
   0.820  0.4630E+00  0.2215E+02
   0.830  0.4700E+00  0.2215E+02
   0.840  0.4771E+00  0.2216E+02
   0.850  0.4844E+00  0.2216E+02
   0.860  0.4917E+00  0.2217E+02
   0.870  0.4990E+00  0.2217E+02
   0.880  0.5065E+00  0.2218E+02
   0.890  0.5140E+00  0.2218E+02
   0.900  0.5216E+00  0.2219E+02
   0.910  0.5292E+00  0.2219E+02
   0.920  0.5369E+00  0.2220E+02
   0.930  0.5447E+00  0.2220E+02
   0.940  0.5525E+00  0.2221E+02
   0.950  0.5604E+00  0.2221E+02
   0.960  0.5683E+00  0.2222E+02
   0.970  0.5763E+00  0.2222E+02
   0.980  0.5843E+00  0.2223E+02
   0.990  0.5924E+00  0.2224E+02
   1.000  0.6005E+00  0.2224E+02
   1.010  0.6086E+00  0.2225E+02
   1.020  0.6168E+00  0.2225E+02
   1.030  0.6250E+00  0.2226E+02
   1.040  0.6333E+00  0.2227E+02
   1.050  0.6415E+00  0.2227E+02
   1.060  0.6498E+00  0.2228E+02
   1.070  0.6582E+00  0.2229E+02
   1.080  0.6665E+00  0.2229E+02
   1.090  0.6749E+00  0.2230E+02
   1.100  0.6832E+00  0.2231E+02
   1.110  0.6916E+00  0.2231E+02
   1.120  0.7000E+00  0.2232E+02
   1.130  0.7084E+00  0.2233E+02
   1.140  0.7167E+00  0.2234E+02
   1.150  0.7251E+00  0.2234E+02
   1.160  0.7334E+00  0.2235E+02
   1.170  0.7418E+00  0.2236E+02
   1.180  0.7500E+00  0.2236E+02
   1.190  0.7583E+00  0.2237E+02
   1.200  0.7665E+00  0.2238E+02
   1.210  0.7746E+00  0.2239E+02
   1.220  0.7827E+00  0.2240E+02
   1.230  0.7907E+00  0.2240E+02
   1.240  0.7986E+00  0.2241E+02
   1.250  0.8065E+00  0.2242E+02
   1.260  0.8142E+00  0.2243E+02
   1.270  0.8219E+00  0.2244E+02
   1.280  0.8294E+00  0.2244E+02
   1.290  0.8368E+00  0.2245E+02
   1.300  0.8441E+00  0.2246E+02
   1.310  0.8513E+00  0.2247E+02
   1.320  0.8582E+00  0.2248E+02
   1.330  0.8651E+00  0.2249E+02
   1.340  0.8717E+00  0.2250E+02
   1.350  0.8782E+00  0.2250E+02
   1.360  0.8845E+00  0.2251E+02
   1.370  0.8906E+00  0.2252E+02
   1.380  0.8965E+00  0.2253E+02
   1.390  0.9022E+00  0.2254E+02
   1.400  0.9076E+00  0.2255E+02
   1.410  0.9128E+00  0.2256E+02
   1.420  0.9178E+00  0.2257E+02
   1.430  0.9225E+00  0.2258E+02
   1.440  0.9269E+00  0.2259E+02
   1.450  0.9311E+00  0.2260E+02
   1.460  0.9350E+00  0.2260E+02
   1.470  0.9387E+00  0.2261E+02
   1.480  0.9420E+00  0.2262E+02
   1.490  0.9450E+00  0.2263E+02
   1.500  0.9478E+00  0.2264E+02
   1.510  0.9502E+00  0.2265E+02
   1.520  0.9523E+00  0.2266E+02
   1.530  0.9541E+00  0.2267E+02
   1.540  0.9556E+00  0.2268E+02
   1.550  0.9568E+00  0.2269E+02
   1.560  0.9577E+00  0.2270E+02
   1.570  0.9582E+00  0.2271E+02
   1.580  0.9584E+00  0.2272E+02
   1.590  0.9583E+00  0.2273E+02
   1.600  0.9578E+00  0.2274E+02
   1.610  0.9571E+00  0.2275E+02
   1.620  0.9560E+00  0.2276E+02
   1.630  0.9546E+00  0.2277E+02
   1.640  0.9528E+00  0.2278E+02
   1.650  0.9508E+00  0.2279E+02
   1.660  0.9485E+00  0.2279E+02
   1.670  0.9458E+00  0.2280E+02
   1.680  0.9429E+00  0.2281E+02
   1.690  0.9396E+00  0.2282E+02
   1.700  0.9361E+00  0.2283E+02
   1.710  0.9323E+00  0.2284E+02
   1.720  0.9283E+00  0.2285E+02
   1.730  0.9239E+00  0.2286E+02
   1.740  0.9194E+00  0.2287E+02
   1.750  0.9145E+00  0.2288E+02
   1.760  0.9095E+00  0.2289E+02
   1.770  0.9042E+00  0.2290E+02
   1.780  0.8987E+00  0.2291E+02
   1.790  0.8930E+00  0.2291E+02
   1.800  0.8871E+00  0.2292E+02
   1.810  0.8810E+00  0.2293E+02
   1.820  0.8748E+00  0.2294E+02
   1.830  0.8684E+00  0.2295E+02
   1.840  0.8618E+00  0.2296E+02
   1.850  0.8551E+00  0.2297E+02
   1.860  0.8483E+00  0.2298E+02
   1.870  0.8413E+00  0.2298E+02
   1.880  0.8343E+00  0.2299E+02
   1.890  0.8272E+00  0.2300E+02
   1.900  0.8199E+00  0.2301E+02
   1.910  0.8126E+00  0.2302E+02
   1.920  0.8053E+00  0.2302E+02
   1.930  0.7979E+00  0.2303E+02
   1.940  0.7905E+00  0.2304E+02
   1.950  0.7830E+00  0.2305E+02
   1.960  0.7755E+00  0.2306E+02
   1.970  0.7680E+00  0.2306E+02
   1.980  0.7606E+00  0.2307E+02
   1.990  0.7531E+00  0.2308E+02
   2.000  0.7456E+00  0.2309E+02
   2.010  0.7382E+00  0.2309E+02
   2.020  0.7308E+00  0.2310E+02
   2.030  0.7235E+00  0.2311E+02
   2.040  0.7162E+00  0.2312E+02
   2.050  0.7089E+00  0.2312E+02
   2.060  0.7017E+00  0.2313E+02
   2.070  0.6946E+00  0.2314E+02
   2.080  0.6876E+00  0.2314E+02
   2.090  0.6806E+00  0.2315E+02
   2.100  0.6737E+00  0.2316E+02
   2.110  0.6669E+00  0.2316E+02
   2.120  0.6602E+00  0.2317E+02
   2.130  0.6536E+00  0.2318E+02
   2.140  0.6470E+00  0.2318E+02
   2.150  0.6406E+00  0.2319E+02
   2.160  0.6343E+00  0.2320E+02
   2.170  0.6280E+00  0.2320E+02
   2.180  0.6219E+00  0.2321E+02
   2.190  0.6158E+00  0.2321E+02
   2.200  0.6099E+00  0.2322E+02
   2.210  0.6040E+00  0.2323E+02
   2.220  0.5983E+00  0.2323E+02
   2.230  0.5926E+00  0.2324E+02
   2.240  0.5871E+00  0.2324E+02
   2.250  0.5816E+00  0.2325E+02
   2.260  0.5762E+00  0.2326E+02
   2.270  0.5710E+00  0.2326E+02
   2.280  0.5658E+00  0.2327E+02
   2.290  0.5607E+00  0.2327E+02
   2.300  0.5557E+00  0.2328E+02
   2.310  0.5507E+00  0.2328E+02
   2.320  0.5459E+00  0.2329E+02
   2.330  0.5411E+00  0.2330E+02
   2.340  0.5364E+00  0.2330E+02
   2.350  0.5317E+00  0.2331E+02
   2.360  0.5272E+00  0.2331E+02
   2.370  0.5227E+00  0.2332E+02
   2.380  0.5182E+00  0.2332E+02
   2.390  0.5139E+00  0.2333E+02
   2.400  0.5096E+00  0.2333E+02
   2.410  0.5053E+00  0.2334E+02
   2.420  0.5011E+00  0.2334E+02
   2.430  0.4969E+00  0.2335E+02
   2.440  0.4928E+00  0.2335E+02
   2.450  0.4888E+00  0.2336E+02
   2.460  0.4848E+00  0.2336E+02
   2.470  0.4808E+00  0.2337E+02
   2.480  0.4769E+00  0.2337E+02
   2.490  0.4730E+00  0.2338E+02
   2.500  0.4691E+00  0.2338E+02
   2.510  0.4653E+00  0.2339E+02
   2.520  0.4616E+00  0.2339E+02
   2.530  0.4579E+00  0.2339E+02
   2.540  0.4542E+00  0.2340E+02
   2.550  0.4505E+00  0.2340E+02
   2.560  0.4469E+00  0.2341E+02
   2.570  0.4433E+00  0.2341E+02
   2.580  0.4398E+00  0.2342E+02
   2.590  0.4363E+00  0.2342E+02
   2.600  0.4328E+00  0.2343E+02
   2.610  0.4294E+00  0.2343E+02
   2.620  0.4260E+00  0.2343E+02
   2.630  0.4227E+00  0.2344E+02
   2.640  0.4194E+00  0.2344E+02
   2.650  0.4161E+00  0.2345E+02
   2.660  0.4129E+00  0.2345E+02
   2.670  0.4097E+00  0.2345E+02
   2.680  0.4065E+00  0.2346E+02
   2.690  0.4034E+00  0.2346E+02
   2.700  0.4004E+00  0.2347E+02
   2.710  0.3973E+00  0.2347E+02
   2.720  0.3944E+00  0.2347E+02
   2.730  0.3914E+00  0.2348E+02
   2.740  0.3885E+00  0.2348E+02
   2.750  0.3857E+00  0.2349E+02
   2.760  0.3829E+00  0.2349E+02
   2.770  0.3802E+00  0.2349E+02
   2.780  0.3775E+00  0.2350E+02
   2.790  0.3748E+00  0.2350E+02
   2.800  0.3722E+00  0.2351E+02
   2.810  0.3696E+00  0.2351E+02
   2.820  0.3671E+00  0.2351E+02
   2.830  0.3646E+00  0.2352E+02
   2.840  0.3621E+00  0.2352E+02
   2.850  0.3597E+00  0.2352E+02
   2.860  0.3573E+00  0.2353E+02
   2.870  0.3550E+00  0.2353E+02
   2.880  0.3527E+00  0.2353E+02
   2.890  0.3504E+00  0.2354E+02
   2.900  0.3482E+00  0.2354E+02
   2.910  0.3460E+00  0.2354E+02
   2.920  0.3438E+00  0.2355E+02
   2.930  0.3417E+00  0.2355E+02
   2.940  0.3396E+00  0.2356E+02
   2.950  0.3375E+00  0.2356E+02
   2.960  0.3354E+00  0.2356E+02
   2.970  0.3334E+00  0.2357E+02
   2.980  0.3313E+00  0.2357E+02
   2.990  0.3293E+00  0.2357E+02
   3.000  0.3273E+00  0.2357E+02
   3.010  0.3253E+00  0.2358E+02
   3.020  0.3233E+00  0.2358E+02
   3.030  0.3213E+00  0.2358E+02
   3.040  0.3193E+00  0.2359E+02
   3.050  0.3174E+00  0.2359E+02
   3.060  0.3154E+00  0.2359E+02
   3.070  0.3134E+00  0.2360E+02
   3.080  0.3115E+00  0.2360E+02
   3.090  0.3095E+00  0.2360E+02
   3.100  0.3075E+00  0.2361E+02
   3.110  0.3055E+00  0.2361E+02
   3.120  0.3035E+00  0.2361E+02
   3.130  0.3015E+00  0.2362E+02
   3.140  0.2995E+00  0.2362E+02
   3.150  0.2975E+00  0.2362E+02
   3.160  0.2955E+00  0.2362E+02
   3.170  0.2935E+00  0.2363E+02
   3.180  0.2915E+00  0.2363E+02
   3.190  0.2894E+00  0.2363E+02
   3.200  0.2874E+00  0.2364E+02
   3.210  0.2853E+00  0.2364E+02
   3.220  0.2833E+00  0.2364E+02
   3.230  0.2812E+00  0.2364E+02
   3.240  0.2791E+00  0.2365E+02
   3.250  0.2771E+00  0.2365E+02
   3.260  0.2750E+00  0.2365E+02
   3.270  0.2729E+00  0.2366E+02
   3.280  0.2708E+00  0.2366E+02
   3.290  0.2688E+00  0.2366E+02
   3.300  0.2667E+00  0.2366E+02
   3.310  0.2647E+00  0.2367E+02
   3.320  0.2626E+00  0.2367E+02
   3.330  0.2606E+00  0.2367E+02
   3.340  0.2585E+00  0.2367E+02
   3.350  0.2565E+00  0.2368E+02
   3.360  0.2546E+00  0.2368E+02
   3.370  0.2526E+00  0.2368E+02
   3.380  0.2506E+00  0.2368E+02
   3.390  0.2487E+00  0.2369E+02
   3.400  0.2468E+00  0.2369E+02
   3.410  0.2449E+00  0.2369E+02
   3.420  0.2431E+00  0.2369E+02
   3.430  0.2413E+00  0.2370E+02
   3.440  0.2395E+00  0.2370E+02
   3.450  0.2378E+00  0.2370E+02
   3.460  0.2361E+00  0.2370E+02
   3.470  0.2344E+00  0.2371E+02
   3.480  0.2328E+00  0.2371E+02
   3.490  0.2312E+00  0.2371E+02
   3.500  0.2297E+00  0.2371E+02
   3.510  0.2282E+00  0.2372E+02
   3.520  0.2267E+00  0.2372E+02
   3.530  0.2253E+00  0.2372E+02
   3.540  0.2239E+00  0.2372E+02
   3.550  0.2226E+00  0.2372E+02
   3.560  0.2214E+00  0.2373E+02
   3.570  0.2201E+00  0.2373E+02
   3.580  0.2190E+00  0.2373E+02
   3.590  0.2179E+00  0.2373E+02
   3.600  0.2168E+00  0.2374E+02
   3.610  0.2158E+00  0.2374E+02
   3.620  0.2148E+00  0.2374E+02
   3.630  0.2138E+00  0.2374E+02
   3.640  0.2130E+00  0.2374E+02
   3.650  0.2121E+00  0.2375E+02
   3.660  0.2113E+00  0.2375E+02
   3.670  0.2106E+00  0.2375E+02
   3.680  0.2099E+00  0.2375E+02
   3.690  0.2093E+00  0.2375E+02
   3.700  0.2087E+00  0.2376E+02
   3.710  0.2081E+00  0.2376E+02
   3.720  0.2076E+00  0.2376E+02
   3.730  0.2072E+00  0.2376E+02
   3.740  0.2068E+00  0.2376E+02
   3.750  0.2065E+00  0.2377E+02
   3.760  0.2062E+00  0.2377E+02
   3.770  0.2060E+00  0.2377E+02
   3.780  0.2058E+00  0.2377E+02
   3.790  0.2057E+00  0.2378E+02
   3.800  0.2057E+00  0.2378E+02
   3.810  0.2057E+00  0.2378E+02
   3.820  0.2058E+00  0.2378E+02
   3.830  0.2060E+00  0.2378E+02
   3.840  0.2062E+00  0.2379E+02
   3.850  0.2066E+00  0.2379E+02
   3.860  0.2070E+00  0.2379E+02
   3.870  0.2076E+00  0.2379E+02
   3.880  0.2082E+00  0.2379E+02
   3.890  0.2090E+00  0.2380E+02
   3.900  0.2099E+00  0.2380E+02
   3.910  0.2109E+00  0.2380E+02
   3.920  0.2121E+00  0.2380E+02
   3.930  0.2134E+00  0.2380E+02
   3.940  0.2149E+00  0.2381E+02
   3.950  0.2165E+00  0.2381E+02
   3.960  0.2183E+00  0.2381E+02
   3.970  0.2204E+00  0.2381E+02
   3.980  0.2226E+00  0.2382E+02
   3.990  0.2250E+00  0.2382E+02
   4.000  0.2277E+00  0.2382E+02
   4.010  0.2306E+00  0.2382E+02
   4.020  0.2338E+00  0.2382E+02
   4.030  0.2372E+00  0.2383E+02
   4.040  0.2409E+00  0.2383E+02
   4.050  0.2449E+00  0.2383E+02
   4.060  0.2492E+00  0.2383E+02
   4.070  0.2539E+00  0.2384E+02
   4.080  0.2588E+00  0.2384E+02
   4.090  0.2641E+00  0.2384E+02
   4.100  0.2698E+00  0.2384E+02
   4.110  0.2758E+00  0.2385E+02
   4.120  0.2822E+00  0.2385E+02
   4.130  0.2889E+00  0.2385E+02
   4.140  0.2961E+00  0.2386E+02
   4.150  0.3037E+00  0.2386E+02
   4.160  0.3117E+00  0.2386E+02
   4.170  0.3201E+00  0.2387E+02
   4.180  0.3289E+00  0.2387E+02
   4.190  0.3381E+00  0.2387E+02
   4.200  0.3478E+00  0.2388E+02
   4.210  0.3580E+00  0.2388E+02
   4.220  0.3685E+00  0.2388E+02
   4.230  0.3796E+00  0.2389E+02
   4.240  0.3910E+00  0.2389E+02
   4.250  0.4029E+00  0.2389E+02
   4.260  0.4152E+00  0.2390E+02
   4.270  0.4280E+00  0.2390E+02
   4.280  0.4412E+00  0.2391E+02
   4.290  0.4548E+00  0.2391E+02
   4.300  0.4688E+00  0.2392E+02
   4.310  0.4833E+00  0.2392E+02
   4.320  0.4981E+00  0.2393E+02
   4.330  0.5133E+00  0.2393E+02
   4.340  0.5288E+00  0.2394E+02
   4.350  0.5448E+00  0.2394E+02
   4.360  0.5610E+00  0.2395E+02
   4.370  0.5776E+00  0.2395E+02
   4.380  0.5945E+00  0.2396E+02
   4.390  0.6116E+00  0.2397E+02
   4.400  0.6291E+00  0.2397E+02
   4.410  0.6467E+00  0.2398E+02
   4.420  0.6646E+00  0.2399E+02
   4.430  0.6827E+00  0.2399E+02
   4.440  0.7009E+00  0.2400E+02
   4.450  0.7193E+00  0.2401E+02
   4.460  0.7379E+00  0.2401E+02
   4.470  0.7565E+00  0.2402E+02
   4.480  0.7752E+00  0.2403E+02
   4.490  0.7939E+00  0.2404E+02
   4.500  0.8127E+00  0.2404E+02
   4.510  0.8315E+00  0.2405E+02
   4.520  0.8502E+00  0.2406E+02
   4.530  0.8689E+00  0.2407E+02
   4.540  0.8874E+00  0.2408E+02
   4.550  0.9059E+00  0.2409E+02
   4.560  0.9243E+00  0.2410E+02
   4.570  0.9425E+00  0.2411E+02
   4.580  0.9605E+00  0.2412E+02
   4.590  0.9783E+00  0.2413E+02
   4.600  0.9959E+00  0.2414E+02
   4.610  0.1013E+01  0.2415E+02
   4.620  0.1030E+01  0.2416E+02
   4.630  0.1047E+01  0.2417E+02
   4.640  0.1064E+01  0.2418E+02
   4.650  0.1080E+01  0.2419E+02
   4.660  0.1096E+01  0.2420E+02
   4.670  0.1111E+01  0.2421E+02
   4.680  0.1126E+01  0.2422E+02
   4.690  0.1141E+01  0.2423E+02
   4.700  0.1155E+01  0.2424E+02
   4.710  0.1169E+01  0.2426E+02
   4.720  0.1183E+01  0.2427E+02
   4.730  0.1196E+01  0.2428E+02
   4.740  0.1209E+01  0.2429E+02
   4.750  0.1221E+01  0.2430E+02
   4.760  0.1233E+01  0.2432E+02
   4.770  0.1245E+01  0.2433E+02
   4.780  0.1256E+01  0.2434E+02
   4.790  0.1267E+01  0.2435E+02
   4.800  0.1277E+01  0.2437E+02
   4.810  0.1287E+01  0.2438E+02
   4.820  0.1297E+01  0.2439E+02
   4.830  0.1306E+01  0.2441E+02
   4.840  0.1315E+01  0.2442E+02
   4.850  0.1323E+01  0.2443E+02
   4.860  0.1331E+01  0.2445E+02
   4.870  0.1339E+01  0.2446E+02
   4.880  0.1346E+01  0.2447E+02
   4.890  0.1354E+01  0.2449E+02
   4.900  0.1361E+01  0.2450E+02
   4.910  0.1367E+01  0.2451E+02
   4.920  0.1373E+01  0.2453E+02
   4.930  0.1380E+01  0.2454E+02
   4.940  0.1385E+01  0.2456E+02
   4.950  0.1391E+01  0.2457E+02
   4.960  0.1396E+01  0.2458E+02
   4.970  0.1402E+01  0.2460E+02
   4.980  0.1407E+01  0.2461E+02
   4.990  0.1412E+01  0.2463E+02
   5.000  0.1417E+01  0.2464E+02
   5.010  0.1421E+01  0.2465E+02
   5.020  0.1426E+01  0.2467E+02
   5.030  0.1431E+01  0.2468E+02
   5.040  0.1435E+01  0.2470E+02
   5.050  0.1439E+01  0.2471E+02
   5.060  0.1444E+01  0.2473E+02
   5.070  0.1448E+01  0.2474E+02
   5.080  0.1453E+01  0.2475E+02
   5.090  0.1457E+01  0.2477E+02
   5.100  0.1461E+01  0.2478E+02
   5.110  0.1466E+01  0.2480E+02
   5.120  0.1470E+01  0.2481E+02
   5.130  0.1475E+01  0.2483E+02
   5.140  0.1479E+01  0.2484E+02
   5.150  0.1484E+01  0.2486E+02
   5.160  0.1489E+01  0.2487E+02
   5.170  0.1494E+01  0.2489E+02
   5.180  0.1498E+01  0.2490E+02
   5.190  0.1503E+01  0.2492E+02
   5.200  0.1508E+01  0.2493E+02
   5.210  0.1513E+01  0.2495E+02
   5.220  0.1519E+01  0.2496E+02
   5.230  0.1524E+01  0.2498E+02
   5.240  0.1529E+01  0.2499E+02
   5.250  0.1535E+01  0.2501E+02
   5.260  0.1540E+01  0.2502E+02
   5.270  0.1546E+01  0.2504E+02
   5.280  0.1552E+01  0.2505E+02
   5.290  0.1557E+01  0.2507E+02
   5.300  0.1563E+01  0.2509E+02
   5.310  0.1569E+01  0.2510E+02
   5.320  0.1575E+01  0.2512E+02
   5.330  0.1581E+01  0.2513E+02
   5.340  0.1586E+01  0.2515E+02
   5.350  0.1592E+01  0.2517E+02
   5.360  0.1598E+01  0.2518E+02
   5.370  0.1604E+01  0.2520E+02
   5.380  0.1610E+01  0.2521E+02
   5.390  0.1616E+01  0.2523E+02
   5.400  0.1622E+01  0.2525E+02
   5.410  0.1627E+01  0.2526E+02
   5.420  0.1633E+01  0.2528E+02
   5.430  0.1639E+01  0.2529E+02
   5.440  0.1644E+01  0.2531E+02
   5.450  0.1649E+01  0.2533E+02
   5.460  0.1655E+01  0.2534E+02
   5.470  0.1660E+01  0.2536E+02
   5.480  0.1665E+01  0.2538E+02
   5.490  0.1669E+01  0.2539E+02
   5.500  0.1674E+01  0.2541E+02
   5.510  0.1678E+01  0.2543E+02
   5.520  0.1683E+01  0.2544E+02
   5.530  0.1687E+01  0.2546E+02
   5.540  0.1690E+01  0.2548E+02
   5.550  0.1694E+01  0.2550E+02
   5.560  0.1697E+01  0.2551E+02
   5.570  0.1700E+01  0.2553E+02
   5.580  0.1703E+01  0.2555E+02
   5.590  0.1706E+01  0.2556E+02
   5.600  0.1708E+01  0.2558E+02
   5.610  0.1711E+01  0.2560E+02
   5.620  0.1712E+01  0.2561E+02
   5.630  0.1714E+01  0.2563E+02
   5.640  0.1715E+01  0.2565E+02
   5.650  0.1716E+01  0.2567E+02
   5.660  0.1717E+01  0.2568E+02
   5.670  0.1718E+01  0.2570E+02
   5.680  0.1718E+01  0.2572E+02
   5.690  0.1718E+01  0.2573E+02
   5.700  0.1718E+01  0.2575E+02
   5.710  0.1718E+01  0.2577E+02
   5.720  0.1717E+01  0.2579E+02
   5.730  0.1716E+01  0.2580E+02
   5.740  0.1715E+01  0.2582E+02
   5.750  0.1713E+01  0.2584E+02
   5.760  0.1712E+01  0.2585E+02
   5.770  0.1710E+01  0.2587E+02
   5.780  0.1708E+01  0.2589E+02
   5.790  0.1706E+01  0.2591E+02
   5.800  0.1704E+01  0.2592E+02
   5.810  0.1701E+01  0.2594E+02
   5.820  0.1699E+01  0.2596E+02
   5.830  0.1696E+01  0.2597E+02
   5.840  0.1693E+01  0.2599E+02
   5.850  0.1690E+01  0.2601E+02
   5.860  0.1687E+01  0.2602E+02
   5.870  0.1684E+01  0.2604E+02
   5.880  0.1680E+01  0.2606E+02
   5.890  0.1677E+01  0.2608E+02
   5.900  0.1674E+01  0.2609E+02
   5.910  0.1670E+01  0.2611E+02
   5.920  0.1667E+01  0.2613E+02
   5.930  0.1663E+01  0.2614E+02
   5.940  0.1659E+01  0.2616E+02
   5.950  0.1656E+01  0.2617E+02
   5.960  0.1652E+01  0.2619E+02
   5.970  0.1648E+01  0.2621E+02
   5.980  0.1645E+01  0.2622E+02
   5.990  0.1641E+01  0.2624E+02
   6.000  0.1637E+01  0.2626E+02
   6.010  0.1634E+01  0.2627E+02
   6.020  0.1630E+01  0.2629E+02
   6.030  0.1626E+01  0.2631E+02
   6.040  0.1622E+01  0.2632E+02
   6.050  0.1619E+01  0.2634E+02
   6.060  0.1615E+01  0.2635E+02
   6.070  0.1611E+01  0.2637E+02
   6.080  0.1608E+01  0.2639E+02
   6.090  0.1604E+01  0.2640E+02
   6.100  0.1600E+01  0.2642E+02
   6.110  0.1597E+01  0.2643E+02
   6.120  0.1593E+01  0.2645E+02
   6.130  0.1589E+01  0.2647E+02
   6.140  0.1586E+01  0.2648E+02
   6.150  0.1582E+01  0.2650E+02
   6.160  0.1578E+01  0.2651E+02
   6.170  0.1574E+01  0.2653E+02
   6.180  0.1571E+01  0.2655E+02
   6.190  0.1567E+01  0.2656E+02
   6.200  0.1563E+01  0.2658E+02
   6.210  0.1559E+01  0.2659E+02
   6.220  0.1555E+01  0.2661E+02
   6.230  0.1551E+01  0.2662E+02
   6.240  0.1547E+01  0.2664E+02
   6.250  0.1542E+01  0.2665E+02
   6.260  0.1538E+01  0.2667E+02
   6.270  0.1534E+01  0.2669E+02
   6.280  0.1529E+01  0.2670E+02
   6.290  0.1524E+01  0.2672E+02
   6.300  0.1520E+01  0.2673E+02
   6.310  0.1515E+01  0.2675E+02
   6.320  0.1510E+01  0.2676E+02
   6.330  0.1505E+01  0.2678E+02
   6.340  0.1499E+01  0.2679E+02
   6.350  0.1494E+01  0.2681E+02
   6.360  0.1489E+01  0.2682E+02
   6.370  0.1483E+01  0.2684E+02
   6.380  0.1477E+01  0.2685E+02
   6.390  0.1471E+01  0.2687E+02
   6.400  0.1465E+01  0.2688E+02
   6.410  0.1459E+01  0.2689E+02
   6.420  0.1453E+01  0.2691E+02
   6.430  0.1446E+01  0.2692E+02
   6.440  0.1439E+01  0.2694E+02
   6.450  0.1433E+01  0.2695E+02
   6.460  0.1426E+01  0.2697E+02
   6.470  0.1419E+01  0.2698E+02
   6.480  0.1411E+01  0.2699E+02
   6.490  0.1404E+01  0.2701E+02
   6.500  0.1396E+01  0.2702E+02
   6.510  0.1388E+01  0.2704E+02
   6.520  0.1381E+01  0.2705E+02
   6.530  0.1372E+01  0.2706E+02
   6.540  0.1364E+01  0.2708E+02
   6.550  0.1356E+01  0.2709E+02
   6.560  0.1347E+01  0.2710E+02
   6.570  0.1339E+01  0.2712E+02
   6.580  0.1330E+01  0.2713E+02
   6.590  0.1321E+01  0.2714E+02
   6.600  0.1311E+01  0.2716E+02
   6.610  0.1302E+01  0.2717E+02
   6.620  0.1293E+01  0.2718E+02
   6.630  0.1283E+01  0.2720E+02
   6.640  0.1273E+01  0.2721E+02
   6.650  0.1263E+01  0.2722E+02
   6.660  0.1253E+01  0.2723E+02
   6.670  0.1243E+01  0.2725E+02
   6.680  0.1233E+01  0.2726E+02
   6.690  0.1222E+01  0.2727E+02
   6.700  0.1211E+01  0.2728E+02
   6.710  0.1201E+01  0.2730E+02
   6.720  0.1190E+01  0.2731E+02
   6.730  0.1179E+01  0.2732E+02
   6.740  0.1167E+01  0.2733E+02
   6.750  0.1156E+01  0.2734E+02
   6.760  0.1145E+01  0.2735E+02
   6.770  0.1133E+01  0.2737E+02
   6.780  0.1122E+01  0.2738E+02
   6.790  0.1110E+01  0.2739E+02
   6.800  0.1098E+01  0.2740E+02
   6.810  0.1086E+01  0.2741E+02
   6.820  0.1074E+01  0.2742E+02
   6.830  0.1062E+01  0.2743E+02
   6.840  0.1050E+01  0.2744E+02
   6.850  0.1038E+01  0.2745E+02
   6.860  0.1026E+01  0.2746E+02
   6.870  0.1014E+01  0.2747E+02
   6.880  0.1001E+01  0.2748E+02
   6.890  0.9888E+00  0.2749E+02
   6.900  0.9764E+00  0.2750E+02
   6.910  0.9640E+00  0.2751E+02
   6.920  0.9516E+00  0.2752E+02
   6.930  0.9391E+00  0.2753E+02
   6.940  0.9267E+00  0.2754E+02
   6.950  0.9142E+00  0.2755E+02
   6.960  0.9018E+00  0.2756E+02
   6.970  0.8894E+00  0.2757E+02
   6.980  0.8770E+00  0.2758E+02
   6.990  0.8647E+00  0.2758E+02
   7.000  0.8524E+00  0.2759E+02
   7.010  0.8401E+00  0.2760E+02
   7.020  0.8279E+00  0.2761E+02
   7.030  0.8157E+00  0.2762E+02
   7.040  0.8036E+00  0.2763E+02
   7.050  0.7916E+00  0.2763E+02
   7.060  0.7796E+00  0.2764E+02
   7.070  0.7678E+00  0.2765E+02
   7.080  0.7560E+00  0.2766E+02
   7.090  0.7443E+00  0.2766E+02
   7.100  0.7327E+00  0.2767E+02
   7.110  0.7211E+00  0.2768E+02
   7.120  0.7097E+00  0.2769E+02
   7.130  0.6984E+00  0.2769E+02
   7.140  0.6872E+00  0.2770E+02
   7.150  0.6761E+00  0.2771E+02
   7.160  0.6651E+00  0.2771E+02
   7.170  0.6542E+00  0.2772E+02
   7.180  0.6435E+00  0.2773E+02
   7.190  0.6328E+00  0.2773E+02
   7.200  0.6223E+00  0.2774E+02
   7.210  0.6119E+00  0.2774E+02
   7.220  0.6016E+00  0.2775E+02
   7.230  0.5914E+00  0.2776E+02
   7.240  0.5813E+00  0.2776E+02
   7.250  0.5714E+00  0.2777E+02
   7.260  0.5615E+00  0.2777E+02
   7.270  0.5518E+00  0.2778E+02
   7.280  0.5423E+00  0.2778E+02
   7.290  0.5328E+00  0.2779E+02
   7.300  0.5235E+00  0.2779E+02
   7.310  0.5142E+00  0.2780E+02
   7.320  0.5051E+00  0.2781E+02
   7.330  0.4962E+00  0.2781E+02
   7.340  0.4873E+00  0.2781E+02
   7.350  0.4785E+00  0.2782E+02
   7.360  0.4699E+00  0.2782E+02
   7.370  0.4614E+00  0.2783E+02
   7.380  0.4530E+00  0.2783E+02
   7.390  0.4447E+00  0.2784E+02
   7.400  0.4365E+00  0.2784E+02
   7.410  0.4285E+00  0.2785E+02
   7.420  0.4205E+00  0.2785E+02
   7.430  0.4127E+00  0.2786E+02
   7.440  0.4050E+00  0.2786E+02
   7.450  0.3973E+00  0.2786E+02
   7.460  0.3899E+00  0.2787E+02
   7.470  0.3825E+00  0.2787E+02
   7.480  0.3752E+00  0.2787E+02
   7.490  0.3680E+00  0.2788E+02
   7.500  0.3610E+00  0.2788E+02
   7.510  0.3541E+00  0.2789E+02
   7.520  0.3472E+00  0.2789E+02
   7.530  0.3405E+00  0.2789E+02
   7.540  0.3339E+00  0.2790E+02
   7.550  0.3274E+00  0.2790E+02
   7.560  0.3210E+00  0.2790E+02
   7.570  0.3148E+00  0.2791E+02
   7.580  0.3086E+00  0.2791E+02
   7.590  0.3026E+00  0.2791E+02
   7.600  0.2967E+00  0.2791E+02
   7.610  0.2909E+00  0.2792E+02
   7.620  0.2852E+00  0.2792E+02
   7.630  0.2796E+00  0.2792E+02
   7.640  0.2741E+00  0.2793E+02
   7.650  0.2688E+00  0.2793E+02
   7.660  0.2635E+00  0.2793E+02
   7.670  0.2584E+00  0.2793E+02
   7.680  0.2534E+00  0.2794E+02
   7.690  0.2485E+00  0.2794E+02
   7.700  0.2437E+00  0.2794E+02
   7.710  0.2391E+00  0.2794E+02
   7.720  0.2345E+00  0.2795E+02
   7.730  0.2301E+00  0.2795E+02
   7.740  0.2258E+00  0.2795E+02
   7.750  0.2216E+00  0.2795E+02
   7.760  0.2175E+00  0.2795E+02
   7.770  0.2136E+00  0.2796E+02
   7.780  0.2098E+00  0.2796E+02
   7.790  0.2061E+00  0.2796E+02
   7.800  0.2025E+00  0.2796E+02
   7.810  0.1991E+00  0.2796E+02
   7.820  0.1957E+00  0.2797E+02
   7.830  0.1925E+00  0.2797E+02
   7.840  0.1895E+00  0.2797E+02
   7.850  0.1865E+00  0.2797E+02
   7.860  0.1837E+00  0.2797E+02
   7.870  0.1810E+00  0.2798E+02
   7.880  0.1785E+00  0.2798E+02
   7.890  0.1761E+00  0.2798E+02
   7.900  0.1739E+00  0.2798E+02
   7.910  0.1718E+00  0.2798E+02
   7.920  0.1698E+00  0.2798E+02
   7.930  0.1680E+00  0.2799E+02
   7.940  0.1663E+00  0.2799E+02
   7.950  0.1648E+00  0.2799E+02
   7.960  0.1635E+00  0.2799E+02
   7.970  0.1623E+00  0.2799E+02
   7.980  0.1613E+00  0.2799E+02
   7.990  0.1604E+00  0.2800E+02
   8.000  0.1597E+00  0.2800E+02
   8.010  0.1592E+00  0.2800E+02
   8.020  0.1589E+00  0.2800E+02
   8.030  0.1588E+00  0.2800E+02
   8.040  0.1588E+00  0.2800E+02
   8.050  0.1590E+00  0.2801E+02
   8.060  0.1595E+00  0.2801E+02
   8.070  0.1601E+00  0.2801E+02
   8.080  0.1609E+00  0.2801E+02
   8.090  0.1620E+00  0.2801E+02
   8.100  0.1632E+00  0.2801E+02
   8.110  0.1647E+00  0.2802E+02
   8.120  0.1663E+00  0.2802E+02
   8.130  0.1682E+00  0.2802E+02
   8.140  0.1704E+00  0.2802E+02
   8.150  0.1727E+00  0.2802E+02
   8.160  0.1753E+00  0.2802E+02
   8.170  0.1781E+00  0.2803E+02
   8.180  0.1811E+00  0.2803E+02
   8.190  0.1844E+00  0.2803E+02
   8.200  0.1879E+00  0.2803E+02
   8.210  0.1916E+00  0.2803E+02
   8.220  0.1956E+00  0.2804E+02
   8.230  0.1998E+00  0.2804E+02
   8.240  0.2043E+00  0.2804E+02
   8.250  0.2090E+00  0.2804E+02
   8.260  0.2140E+00  0.2804E+02
   8.270  0.2192E+00  0.2805E+02
   8.280  0.2246E+00  0.2805E+02
   8.290  0.2303E+00  0.2805E+02
   8.300  0.2363E+00  0.2805E+02
   8.310  0.2424E+00  0.2806E+02
   8.320  0.2489E+00  0.2806E+02
   8.330  0.2555E+00  0.2806E+02
   8.340  0.2624E+00  0.2806E+02
   8.350  0.2696E+00  0.2807E+02
   8.360  0.2770E+00  0.2807E+02
   8.370  0.2846E+00  0.2807E+02
   8.380  0.2925E+00  0.2807E+02
   8.390  0.3006E+00  0.2808E+02
   8.400  0.3089E+00  0.2808E+02
   8.410  0.3175E+00  0.2808E+02
   8.420  0.3263E+00  0.2809E+02
   8.430  0.3353E+00  0.2809E+02
   8.440  0.3446E+00  0.2809E+02
   8.450  0.3541E+00  0.2810E+02
   8.460  0.3638E+00  0.2810E+02
   8.470  0.3738E+00  0.2810E+02
   8.480  0.3840E+00  0.2811E+02
   8.490  0.3944E+00  0.2811E+02
   8.500  0.4050E+00  0.2812E+02
   8.510  0.4159E+00  0.2812E+02
   8.520  0.4270E+00  0.2812E+02
   8.530  0.4383E+00  0.2813E+02
   8.540  0.4498E+00  0.2813E+02
   8.550  0.4616E+00  0.2814E+02
   8.560  0.4736E+00  0.2814E+02
   8.570  0.4859E+00  0.2815E+02
   8.580  0.4984E+00  0.2815E+02
   8.590  0.5111E+00  0.2816E+02
   8.600  0.5240E+00  0.2816E+02
   8.610  0.5372E+00  0.2817E+02
   8.620  0.5506E+00  0.2817E+02
   8.630  0.5643E+00  0.2818E+02
   8.640  0.5782E+00  0.2819E+02
   8.650  0.5923E+00  0.2819E+02
   8.660  0.6067E+00  0.2820E+02
   8.670  0.6214E+00  0.2820E+02
   8.680  0.6363E+00  0.2821E+02
   8.690  0.6514E+00  0.2822E+02
   8.700  0.6668E+00  0.2822E+02
   8.710  0.6824E+00  0.2823E+02
   8.720  0.6983E+00  0.2824E+02
   8.730  0.7144E+00  0.2824E+02
   8.740  0.7308E+00  0.2825E+02
   8.750  0.7474E+00  0.2826E+02
   8.760  0.7643E+00  0.2827E+02
   8.770  0.7814E+00  0.2827E+02
   8.780  0.7987E+00  0.2828E+02
   8.790  0.8163E+00  0.2829E+02
   8.800  0.8341E+00  0.2830E+02
   8.810  0.8521E+00  0.2831E+02
   8.820  0.8703E+00  0.2832E+02
   8.830  0.8887E+00  0.2832E+02
   8.840  0.9074E+00  0.2833E+02
   8.850  0.9262E+00  0.2834E+02
   8.860  0.9452E+00  0.2835E+02
   8.870  0.9643E+00  0.2836E+02
   8.880  0.9837E+00  0.2837E+02
   8.890  0.1003E+01  0.2838E+02
   8.900  0.1023E+01  0.2839E+02
   8.910  0.1042E+01  0.2840E+02
   8.920  0.1062E+01  0.2841E+02
   8.930  0.1082E+01  0.2842E+02
   8.940  0.1102E+01  0.2844E+02
   8.950  0.1122E+01  0.2845E+02
   8.960  0.1142E+01  0.2846E+02
   8.970  0.1162E+01  0.2847E+02
   8.980  0.1182E+01  0.2848E+02
   8.990  0.1202E+01  0.2849E+02
   9.000  0.1222E+01  0.2851E+02
   9.010  0.1241E+01  0.2852E+02
   9.020  0.1261E+01  0.2853E+02
   9.030  0.1280E+01  0.2854E+02
   9.040  0.1300E+01  0.2856E+02
   9.050  0.1319E+01  0.2857E+02
   9.060  0.1338E+01  0.2858E+02
   9.070  0.1356E+01  0.2860E+02
   9.080  0.1375E+01  0.2861E+02
   9.090  0.1393E+01  0.2862E+02
   9.100  0.1410E+01  0.2864E+02
   9.110  0.1428E+01  0.2865E+02
   9.120  0.1445E+01  0.2867E+02
   9.130  0.1461E+01  0.2868E+02
   9.140  0.1478E+01  0.2870E+02
   9.150  0.1493E+01  0.2871E+02
   9.160  0.1508E+01  0.2873E+02
   9.170  0.1523E+01  0.2874E+02
   9.180  0.1537E+01  0.2876E+02
   9.190  0.1551E+01  0.2877E+02
   9.200  0.1564E+01  0.2879E+02
   9.210  0.1576E+01  0.2880E+02
   9.220  0.1588E+01  0.2882E+02
   9.230  0.1600E+01  0.2884E+02
   9.240  0.1610E+01  0.2885E+02
   9.250  0.1620E+01  0.2887E+02
   9.260  0.1629E+01  0.2888E+02
   9.270  0.1638E+01  0.2890E+02
   9.280  0.1646E+01  0.2892E+02
   9.290  0.1653E+01  0.2893E+02
   9.300  0.1660E+01  0.2895E+02
   9.310  0.1666E+01  0.2897E+02
   9.320  0.1671E+01  0.2898E+02
   9.330  0.1675E+01  0.2900E+02
   9.340  0.1679E+01  0.2902E+02
   9.350  0.1682E+01  0.2903E+02
   9.360  0.1684E+01  0.2905E+02
   9.370  0.1685E+01  0.2907E+02
   9.380  0.1686E+01  0.2908E+02
   9.390  0.1686E+01  0.2910E+02
   9.400  0.1686E+01  0.2912E+02
   9.410  0.1684E+01  0.2914E+02
   9.420  0.1683E+01  0.2915E+02
   9.430  0.1680E+01  0.2917E+02
   9.440  0.1677E+01  0.2919E+02
   9.450  0.1673E+01  0.2920E+02
   9.460  0.1669E+01  0.2922E+02
   9.470  0.1664E+01  0.2924E+02
   9.480  0.1659E+01  0.2925E+02
   9.490  0.1653E+01  0.2927E+02
   9.500  0.1646E+01  0.2929E+02
   9.510  0.1639E+01  0.2930E+02
   9.520  0.1632E+01  0.2932E+02
   9.530  0.1624E+01  0.2933E+02
   9.540  0.1616E+01  0.2935E+02
   9.550  0.1607E+01  0.2937E+02
   9.560  0.1599E+01  0.2938E+02
   9.570  0.1590E+01  0.2940E+02
   9.580  0.1580E+01  0.2941E+02
   9.590  0.1571E+01  0.2943E+02
   9.600  0.1561E+01  0.2945E+02
   9.610  0.1551E+01  0.2946E+02
   9.620  0.1541E+01  0.2948E+02
   9.630  0.1531E+01  0.2949E+02
   9.640  0.1521E+01  0.2951E+02
   9.650  0.1511E+01  0.2952E+02
   9.660  0.1500E+01  0.2954E+02
   9.670  0.1490E+01  0.2955E+02
   9.680  0.1480E+01  0.2957E+02
   9.690  0.1470E+01  0.2958E+02
   9.700  0.1460E+01  0.2960E+02
   9.710  0.1451E+01  0.2961E+02
   9.720  0.1441E+01  0.2962E+02
   9.730  0.1432E+01  0.2964E+02
   9.740  0.1423E+01  0.2965E+02
   9.750  0.1414E+01  0.2967E+02
   9.760  0.1406E+01  0.2968E+02
   9.770  0.1397E+01  0.2970E+02
   9.780  0.1389E+01  0.2971E+02
   9.790  0.1382E+01  0.2972E+02
   9.800  0.1375E+01  0.2974E+02
   9.810  0.1368E+01  0.2975E+02
   9.820  0.1361E+01  0.2976E+02
   9.830  0.1355E+01  0.2978E+02
   9.840  0.1349E+01  0.2979E+02
   9.850  0.1344E+01  0.2980E+02
   9.860  0.1339E+01  0.2982E+02
   9.870  0.1334E+01  0.2983E+02
   9.880  0.1330E+01  0.2984E+02
   9.890  0.1326E+01  0.2986E+02
   9.900  0.1322E+01  0.2987E+02
   9.910  0.1319E+01  0.2988E+02
   9.920  0.1316E+01  0.2990E+02
   9.930  0.1313E+01  0.2991E+02
   9.940  0.1311E+01  0.2992E+02
   9.950  0.1309E+01  0.2994E+02
   9.960  0.1307E+01  0.2995E+02
   9.970  0.1305E+01  0.2996E+02
   9.980  0.1304E+01  0.2998E+02
   9.990  0.1303E+01  0.2999E+02
  10.000  0.1302E+01  0.3000E+02
  10.010  0.1301E+01  0.3002E+02
  10.020  0.1300E+01  0.3003E+02
  10.030  0.1299E+01  0.3004E+02
  10.040  0.1299E+01  0.3005E+02
  10.050  0.1298E+01  0.3007E+02
  10.060  0.1298E+01  0.3008E+02
  10.070  0.1297E+01  0.3009E+02
  10.080  0.1297E+01  0.3011E+02
  10.090  0.1296E+01  0.3012E+02
  10.100  0.1296E+01  0.3013E+02
  10.110  0.1295E+01  0.3014E+02
  10.120  0.1294E+01  0.3016E+02
  10.130  0.1293E+01  0.3017E+02
  10.140  0.1292E+01  0.3018E+02
  10.150  0.1290E+01  0.3020E+02
  10.160  0.1289E+01  0.3021E+02
  10.170  0.1287E+01  0.3022E+02
  10.180  0.1285E+01  0.3024E+02
  10.190  0.1283E+01  0.3025E+02
  10.200  0.1281E+01  0.3026E+02
  10.210  0.1279E+01  0.3027E+02
  10.220  0.1276E+01  0.3029E+02
  10.230  0.1273E+01  0.3030E+02
  10.240  0.1270E+01  0.3031E+02
  10.250  0.1267E+01  0.3032E+02
  10.260  0.1263E+01  0.3034E+02
  10.270  0.1259E+01  0.3035E+02
  10.280  0.1256E+01  0.3036E+02
  10.290  0.1252E+01  0.3037E+02
  10.300  0.1248E+01  0.3039E+02
  10.310  0.1243E+01  0.3040E+02
  10.320  0.1239E+01  0.3041E+02
  10.330  0.1235E+01  0.3042E+02
  10.340  0.1230E+01  0.3044E+02
  10.350  0.1226E+01  0.3045E+02
  10.360  0.1222E+01  0.3046E+02
  10.370  0.1217E+01  0.3047E+02
  10.380  0.1213E+01  0.3049E+02
  10.390  0.1209E+01  0.3050E+02
  10.400  0.1205E+01  0.3051E+02
  10.410  0.1201E+01  0.3052E+02
  10.420  0.1198E+01  0.3053E+02
  10.430  0.1195E+01  0.3055E+02
  10.440  0.1192E+01  0.3056E+02
  10.450  0.1189E+01  0.3057E+02
  10.460  0.1187E+01  0.3058E+02
  10.470  0.1185E+01  0.3059E+02
  10.480  0.1184E+01  0.3061E+02
  10.490  0.1183E+01  0.3062E+02
  10.500  0.1182E+01  0.3063E+02
  10.510  0.1182E+01  0.3064E+02
  10.520  0.1183E+01  0.3065E+02
  10.530  0.1184E+01  0.3066E+02
  10.540  0.1186E+01  0.3068E+02
  10.550  0.1188E+01  0.3069E+02
  10.560  0.1191E+01  0.3070E+02
  10.570  0.1194E+01  0.3071E+02
  10.580  0.1199E+01  0.3072E+02
  10.590  0.1203E+01  0.3074E+02
  10.600  0.1209E+01  0.3075E+02
  10.610  0.1215E+01  0.3076E+02
  10.620  0.1222E+01  0.3077E+02
  10.630  0.1229E+01  0.3078E+02
  10.640  0.1237E+01  0.3080E+02
  10.650  0.1246E+01  0.3081E+02
  10.660  0.1255E+01  0.3082E+02
  10.670  0.1265E+01  0.3083E+02
  10.680  0.1275E+01  0.3085E+02
  10.690  0.1286E+01  0.3086E+02
  10.700  0.1297E+01  0.3087E+02
  10.710  0.1309E+01  0.3089E+02
  10.720  0.1322E+01  0.3090E+02
  10.730  0.1334E+01  0.3091E+02
  10.740  0.1348E+01  0.3093E+02
  10.750  0.1361E+01  0.3094E+02
  10.760  0.1375E+01  0.3095E+02
  10.770  0.1389E+01  0.3097E+02
  10.780  0.1403E+01  0.3098E+02
  10.790  0.1418E+01  0.3100E+02
  10.800  0.1432E+01  0.3101E+02
  10.810  0.1447E+01  0.3102E+02
  10.820  0.1461E+01  0.3104E+02
  10.830  0.1476E+01  0.3105E+02
  10.840  0.1490E+01  0.3107E+02
  10.850  0.1505E+01  0.3108E+02
  10.860  0.1519E+01  0.3110E+02
  10.870  0.1533E+01  0.3111E+02
  10.880  0.1547E+01  0.3113E+02
  10.890  0.1560E+01  0.3115E+02
  10.900  0.1573E+01  0.3116E+02
  10.910  0.1585E+01  0.3118E+02
  10.920  0.1597E+01  0.3119E+02
  10.930  0.1609E+01  0.3121E+02
  10.940  0.1620E+01  0.3123E+02
  10.950  0.1630E+01  0.3124E+02
  10.960  0.1640E+01  0.3126E+02
  10.970  0.1649E+01  0.3127E+02
  10.980  0.1658E+01  0.3129E+02
  10.990  0.1666E+01  0.3131E+02
  11.000  0.1673E+01  0.3132E+02
  11.010  0.1679E+01  0.3134E+02
  11.020  0.1685E+01  0.3136E+02
  11.030  0.1690E+01  0.3138E+02
  11.040  0.1694E+01  0.3139E+02
  11.050  0.1697E+01  0.3141E+02
  11.060  0.1699E+01  0.3143E+02
  11.070  0.1701E+01  0.3144E+02
  11.080  0.1702E+01  0.3146E+02
  11.090  0.1702E+01  0.3148E+02
  11.100  0.1701E+01  0.3149E+02
  11.110  0.1700E+01  0.3151E+02
  11.120  0.1698E+01  0.3153E+02
  11.130  0.1695E+01  0.3154E+02
  11.140  0.1692E+01  0.3156E+02
  11.150  0.1688E+01  0.3158E+02
  11.160  0.1683E+01  0.3160E+02
  11.170  0.1678E+01  0.3161E+02
  11.180  0.1672E+01  0.3163E+02
  11.190  0.1666E+01  0.3165E+02
  11.200  0.1659E+01  0.3166E+02
  11.210  0.1652E+01  0.3168E+02
  11.220  0.1644E+01  0.3170E+02
  11.230  0.1636E+01  0.3171E+02
  11.240  0.1628E+01  0.3173E+02
  11.250  0.1620E+01  0.3174E+02
  11.260  0.1611E+01  0.3176E+02
  11.270  0.1602E+01  0.3178E+02
  11.280  0.1594E+01  0.3179E+02
  11.290  0.1585E+01  0.3181E+02
  11.300  0.1576E+01  0.3182E+02
  11.310  0.1567E+01  0.3184E+02
  11.320  0.1559E+01  0.3185E+02
  11.330  0.1550E+01  0.3187E+02
  11.340  0.1542E+01  0.3189E+02
  11.350  0.1534E+01  0.3190E+02
  11.360  0.1526E+01  0.3192E+02
  11.370  0.1518E+01  0.3193E+02
  11.380  0.1511E+01  0.3195E+02
  11.390  0.1504E+01  0.3196E+02
  11.400  0.1498E+01  0.3198E+02
  11.410  0.1492E+01  0.3199E+02
  11.420  0.1486E+01  0.3201E+02
  11.430  0.1481E+01  0.3202E+02
  11.440  0.1477E+01  0.3204E+02
  11.450  0.1473E+01  0.3205E+02
  11.460  0.1469E+01  0.3207E+02
  11.470  0.1466E+01  0.3208E+02
  11.480  0.1464E+01  0.3209E+02
  11.490  0.1462E+01  0.3211E+02
  11.500  0.1461E+01  0.3212E+02
  11.510  0.1460E+01  0.3214E+02
  11.520  0.1460E+01  0.3215E+02
  11.530  0.1460E+01  0.3217E+02
  11.540  0.1461E+01  0.3218E+02
  11.550  0.1462E+01  0.3220E+02
  11.560  0.1464E+01  0.3221E+02
  11.570  0.1467E+01  0.3223E+02
  11.580  0.1469E+01  0.3224E+02
  11.590  0.1473E+01  0.3226E+02
  11.600  0.1477E+01  0.3227E+02
  11.610  0.1481E+01  0.3229E+02
  11.620  0.1485E+01  0.3230E+02
  11.630  0.1490E+01  0.3232E+02
  11.640  0.1495E+01  0.3233E+02
  11.650  0.1501E+01  0.3235E+02
  11.660  0.1507E+01  0.3236E+02
  11.670  0.1513E+01  0.3238E+02
  11.680  0.1519E+01  0.3239E+02
  11.690  0.1525E+01  0.3241E+02
  11.700  0.1532E+01  0.3242E+02
  11.710  0.1538E+01  0.3244E+02
  11.720  0.1545E+01  0.3245E+02
  11.730  0.1552E+01  0.3247E+02
  11.740  0.1559E+01  0.3248E+02
  11.750  0.1565E+01  0.3250E+02
  11.760  0.1572E+01  0.3251E+02
  11.770  0.1579E+01  0.3253E+02
  11.780  0.1585E+01  0.3255E+02
  11.790  0.1592E+01  0.3256E+02
  11.800  0.1598E+01  0.3258E+02
  11.810  0.1604E+01  0.3259E+02
  11.820  0.1610E+01  0.3261E+02
  11.830  0.1615E+01  0.3263E+02
  11.840  0.1621E+01  0.3264E+02
  11.850  0.1626E+01  0.3266E+02
  11.860  0.1631E+01  0.3268E+02
  11.870  0.1636E+01  0.3269E+02
  11.880  0.1640E+01  0.3271E+02
  11.890  0.1644E+01  0.3272E+02
  11.900  0.1648E+01  0.3274E+02
  11.910  0.1651E+01  0.3276E+02
  11.920  0.1654E+01  0.3277E+02
  11.930  0.1657E+01  0.3279E+02
  11.940  0.1660E+01  0.3281E+02
  11.950  0.1662E+01  0.3282E+02
  11.960  0.1664E+01  0.3284E+02
  11.970  0.1665E+01  0.3286E+02
  11.980  0.1667E+01  0.3287E+02
  11.990  0.1668E+01  0.3289E+02
  12.000  0.1668E+01  0.3291E+02
  12.010  0.1669E+01  0.3292E+02
  12.020  0.1669E+01  0.3294E+02
  12.030  0.1669E+01  0.3296E+02
  12.040  0.1669E+01  0.3297E+02
  12.050  0.1668E+01  0.3299E+02
  12.060  0.1667E+01  0.3301E+02
  12.070  0.1666E+01  0.3302E+02
  12.080  0.1665E+01  0.3304E+02
  12.090  0.1664E+01  0.3306E+02
  12.100  0.1662E+01  0.3307E+02
  12.110  0.1660E+01  0.3309E+02
  12.120  0.1659E+01  0.3311E+02
  12.130  0.1657E+01  0.3312E+02
  12.140  0.1655E+01  0.3314E+02
  12.150  0.1652E+01  0.3316E+02
  12.160  0.1650E+01  0.3317E+02
  12.170  0.1648E+01  0.3319E+02
  12.180  0.1645E+01  0.3321E+02
  12.190  0.1643E+01  0.3322E+02
  12.200  0.1640E+01  0.3324E+02
  12.210  0.1637E+01  0.3326E+02
  12.220  0.1635E+01  0.3327E+02
  12.230  0.1632E+01  0.3329E+02
  12.240  0.1629E+01  0.3330E+02
  12.250  0.1626E+01  0.3332E+02
  12.260  0.1624E+01  0.3334E+02
  12.270  0.1621E+01  0.3335E+02
  12.280  0.1618E+01  0.3337E+02
  12.290  0.1615E+01  0.3339E+02
  12.300  0.1612E+01  0.3340E+02
  12.310  0.1609E+01  0.3342E+02
  12.320  0.1606E+01  0.3343E+02
  12.330  0.1603E+01  0.3345E+02
  12.340  0.1601E+01  0.3347E+02
  12.350  0.1598E+01  0.3348E+02
  12.360  0.1595E+01  0.3350E+02
  12.370  0.1591E+01  0.3351E+02
  12.380  0.1588E+01  0.3353E+02
  12.390  0.1585E+01  0.3354E+02
  12.400  0.1582E+01  0.3356E+02
  12.410  0.1579E+01  0.3358E+02
  12.420  0.1576E+01  0.3359E+02
  12.430  0.1572E+01  0.3361E+02
  12.440  0.1569E+01  0.3362E+02
  12.450  0.1565E+01  0.3364E+02
  12.460  0.1562E+01  0.3365E+02
  12.470  0.1558E+01  0.3367E+02
  12.480  0.1554E+01  0.3369E+02
  12.490  0.1551E+01  0.3370E+02
  12.500  0.1547E+01  0.3372E+02
  12.510  0.1543E+01  0.3373E+02
  12.520  0.1539E+01  0.3375E+02
  12.530  0.1534E+01  0.3376E+02
  12.540  0.1530E+01  0.3378E+02
  12.550  0.1526E+01  0.3379E+02
  12.560  0.1521E+01  0.3381E+02
  12.570  0.1516E+01  0.3382E+02
  12.580  0.1512E+01  0.3384E+02
  12.590  0.1507E+01  0.3385E+02
  12.600  0.1502E+01  0.3387E+02
  12.610  0.1497E+01  0.3388E+02
  12.620  0.1492E+01  0.3390E+02
  12.630  0.1487E+01  0.3391E+02
  12.640  0.1481E+01  0.3393E+02
  12.650  0.1476E+01  0.3394E+02
  12.660  0.1470E+01  0.3396E+02
  12.670  0.1465E+01  0.3397E+02
  12.680  0.1459E+01  0.3399E+02
  12.690  0.1454E+01  0.3400E+02
  12.700  0.1448E+01  0.3402E+02
  12.710  0.1442E+01  0.3403E+02
  12.720  0.1436E+01  0.3405E+02
  12.730  0.1431E+01  0.3406E+02
  12.740  0.1425E+01  0.3407E+02
  12.750  0.1419E+01  0.3409E+02
  12.760  0.1413E+01  0.3410E+02
  12.770  0.1407E+01  0.3412E+02
  12.780  0.1402E+01  0.3413E+02
  12.790  0.1396E+01  0.3414E+02
  12.800  0.1390E+01  0.3416E+02
  12.810  0.1384E+01  0.3417E+02
  12.820  0.1379E+01  0.3419E+02
  12.830  0.1373E+01  0.3420E+02
  12.840  0.1368E+01  0.3421E+02
  12.850  0.1362E+01  0.3423E+02
  12.860  0.1357E+01  0.3424E+02
  12.870  0.1351E+01  0.3425E+02
  12.880  0.1346E+01  0.3427E+02
  12.890  0.1341E+01  0.3428E+02
  12.900  0.1336E+01  0.3429E+02
  12.910  0.1331E+01  0.3431E+02
  12.920  0.1326E+01  0.3432E+02
  12.930  0.1322E+01  0.3433E+02
  12.940  0.1317E+01  0.3435E+02
  12.950  0.1313E+01  0.3436E+02
  12.960  0.1308E+01  0.3437E+02
  12.970  0.1304E+01  0.3439E+02
  12.980  0.1300E+01  0.3440E+02
  12.990  0.1296E+01  0.3441E+02
  13.000  0.1292E+01  0.3443E+02
  13.010  0.1288E+01  0.3444E+02
  13.020  0.1285E+01  0.3445E+02
  13.030  0.1281E+01  0.3446E+02
  13.040  0.1278E+01  0.3448E+02
  13.050  0.1275E+01  0.3449E+02
  13.060  0.1272E+01  0.3450E+02
  13.070  0.1269E+01  0.3451E+02
  13.080  0.1266E+01  0.3453E+02
  13.090  0.1263E+01  0.3454E+02
  13.100  0.1260E+01  0.3455E+02
  13.110  0.1258E+01  0.3457E+02
  13.120  0.1255E+01  0.3458E+02
  13.130  0.1253E+01  0.3459E+02
  13.140  0.1251E+01  0.3460E+02
  13.150  0.1249E+01  0.3462E+02
  13.160  0.1247E+01  0.3463E+02
  13.170  0.1245E+01  0.3464E+02
  13.180  0.1243E+01  0.3465E+02
  13.190  0.1241E+01  0.3467E+02
  13.200  0.1240E+01  0.3468E+02
  13.210  0.1238E+01  0.3469E+02
  13.220  0.1237E+01  0.3470E+02
  13.230  0.1236E+01  0.3471E+02
  13.240  0.1234E+01  0.3473E+02
  13.250  0.1233E+01  0.3474E+02
  13.260  0.1232E+01  0.3475E+02
  13.270  0.1231E+01  0.3476E+02
  13.280  0.1231E+01  0.3478E+02
  13.290  0.1230E+01  0.3479E+02
  13.300  0.1229E+01  0.3480E+02
  13.310  0.1229E+01  0.3481E+02
  13.320  0.1228E+01  0.3483E+02
  13.330  0.1228E+01  0.3484E+02
  13.340  0.1228E+01  0.3485E+02
  13.350  0.1228E+01  0.3486E+02
  13.360  0.1227E+01  0.3487E+02
  13.370  0.1228E+01  0.3489E+02
  13.380  0.1228E+01  0.3490E+02
  13.390  0.1228E+01  0.3491E+02
  13.400  0.1228E+01  0.3492E+02
  13.410  0.1229E+01  0.3494E+02
  13.420  0.1229E+01  0.3495E+02
  13.430  0.1230E+01  0.3496E+02
  13.440  0.1230E+01  0.3497E+02
  13.450  0.1231E+01  0.3499E+02
  13.460  0.1232E+01  0.3500E+02
  13.470  0.1233E+01  0.3501E+02
  13.480  0.1234E+01  0.3502E+02
  13.490  0.1235E+01  0.3503E+02
  13.500  0.1236E+01  0.3505E+02
  13.510  0.1237E+01  0.3506E+02
  13.520  0.1238E+01  0.3507E+02
  13.530  0.1239E+01  0.3508E+02
  13.540  0.1241E+01  0.3510E+02
  13.550  0.1242E+01  0.3511E+02
  13.560  0.1243E+01  0.3512E+02
  13.570  0.1245E+01  0.3513E+02
  13.580  0.1246E+01  0.3515E+02
  13.590  0.1248E+01  0.3516E+02
  13.600  0.1249E+01  0.3517E+02
  13.610  0.1250E+01  0.3518E+02
  13.620  0.1252E+01  0.3520E+02
  13.630  0.1253E+01  0.3521E+02
  13.640  0.1255E+01  0.3522E+02
  13.650  0.1256E+01  0.3523E+02
  13.660  0.1257E+01  0.3525E+02
  13.670  0.1258E+01  0.3526E+02
  13.680  0.1260E+01  0.3527E+02
  13.690  0.1261E+01  0.3528E+02
  13.700  0.1262E+01  0.3530E+02
  13.710  0.1263E+01  0.3531E+02
  13.720  0.1264E+01  0.3532E+02
  13.730  0.1265E+01  0.3533E+02
  13.740  0.1265E+01  0.3535E+02
  13.750  0.1266E+01  0.3536E+02
  13.760  0.1267E+01  0.3537E+02
  13.770  0.1267E+01  0.3539E+02
  13.780  0.1268E+01  0.3540E+02
  13.790  0.1268E+01  0.3541E+02
  13.800  0.1268E+01  0.3542E+02
  13.810  0.1268E+01  0.3544E+02
  13.820  0.1268E+01  0.3545E+02
  13.830  0.1268E+01  0.3546E+02
  13.840  0.1268E+01  0.3547E+02
  13.850  0.1268E+01  0.3549E+02
  13.860  0.1268E+01  0.3550E+02
  13.870  0.1268E+01  0.3551E+02
  13.880  0.1267E+01  0.3552E+02
  13.890  0.1267E+01  0.3554E+02
  13.900  0.1266E+01  0.3555E+02
  13.910  0.1266E+01  0.3556E+02
  13.920  0.1266E+01  0.3558E+02
  13.930  0.1265E+01  0.3559E+02
  13.940  0.1265E+01  0.3560E+02
  13.950  0.1264E+01  0.3561E+02
  13.960  0.1264E+01  0.3563E+02
  13.970  0.1264E+01  0.3564E+02
  13.980  0.1263E+01  0.3565E+02
  13.990  0.1263E+01  0.3566E+02
  14.000  0.1263E+01  0.3568E+02
  14.010  0.1263E+01  0.3569E+02
  14.020  0.1263E+01  0.3570E+02
  14.030  0.1263E+01  0.3571E+02
  14.040  0.1264E+01  0.3573E+02
  14.050  0.1264E+01  0.3574E+02
  14.060  0.1265E+01  0.3575E+02
  14.070  0.1266E+01  0.3576E+02
  14.080  0.1267E+01  0.3578E+02
  14.090  0.1268E+01  0.3579E+02
  14.100  0.1270E+01  0.3580E+02
  14.110  0.1271E+01  0.3582E+02
  14.120  0.1273E+01  0.3583E+02
  14.130  0.1275E+01  0.3584E+02
  14.140  0.1278E+01  0.3585E+02
  14.150  0.1280E+01  0.3587E+02
  14.160  0.1283E+01  0.3588E+02
  14.170  0.1286E+01  0.3589E+02
  14.180  0.1289E+01  0.3591E+02
  14.190  0.1293E+01  0.3592E+02
  14.200  0.1296E+01  0.3593E+02
  14.210  0.1300E+01  0.3594E+02
  14.220  0.1305E+01  0.3596E+02
  14.230  0.1309E+01  0.3597E+02
  14.240  0.1314E+01  0.3598E+02
  14.250  0.1318E+01  0.3600E+02
  14.260  0.1323E+01  0.3601E+02
  14.270  0.1329E+01  0.3602E+02
  14.280  0.1334E+01  0.3604E+02
  14.290  0.1340E+01  0.3605E+02
  14.300  0.1346E+01  0.3606E+02
  14.310  0.1351E+01  0.3608E+02
  14.320  0.1358E+01  0.3609E+02
  14.330  0.1364E+01  0.3610E+02
  14.340  0.1370E+01  0.3612E+02
  14.350  0.1377E+01  0.3613E+02
  14.360  0.1383E+01  0.3615E+02
  14.370  0.1390E+01  0.3616E+02
  14.380  0.1396E+01  0.3617E+02
  14.390  0.1403E+01  0.3619E+02
  14.400  0.1410E+01  0.3620E+02
  14.410  0.1416E+01  0.3622E+02
  14.420  0.1423E+01  0.3623E+02
  14.430  0.1430E+01  0.3624E+02
  14.440  0.1437E+01  0.3626E+02
  14.450  0.1443E+01  0.3627E+02
  14.460  0.1450E+01  0.3629E+02
  14.470  0.1457E+01  0.3630E+02
  14.480  0.1463E+01  0.3632E+02
  14.490  0.1469E+01  0.3633E+02
  14.500  0.1476E+01  0.3635E+02
  14.510  0.1482E+01  0.3636E+02
  14.520  0.1488E+01  0.3638E+02
  14.530  0.1494E+01  0.3639E+02
  14.540  0.1500E+01  0.3641E+02
  14.550  0.1505E+01  0.3642E+02
  14.560  0.1511E+01  0.3644E+02
  14.570  0.1516E+01  0.3645E+02
  14.580  0.1521E+01  0.3647E+02
  14.590  0.1526E+01  0.3648E+02
  14.600  0.1531E+01  0.3650E+02
  14.610  0.1536E+01  0.3651E+02
  14.620  0.1541E+01  0.3653E+02
  14.630  0.1545E+01  0.3654E+02
  14.640  0.1549E+01  0.3656E+02
  14.650  0.1553E+01  0.3657E+02
  14.660  0.1557E+01  0.3659E+02
  14.670  0.1561E+01  0.3661E+02
  14.680  0.1565E+01  0.3662E+02
  14.690  0.1568E+01  0.3664E+02
  14.700  0.1572E+01  0.3665E+02
  14.710  0.1575E+01  0.3667E+02
  14.720  0.1578E+01  0.3668E+02
  14.730  0.1581E+01  0.3670E+02
  14.740  0.1584E+01  0.3672E+02
  14.750  0.1587E+01  0.3673E+02
  14.760  0.1590E+01  0.3675E+02
  14.770  0.1592E+01  0.3676E+02
  14.780  0.1595E+01  0.3678E+02
  14.790  0.1598E+01  0.3680E+02
  14.800  0.1600E+01  0.3681E+02
  14.810  0.1603E+01  0.3683E+02
  14.820  0.1605E+01  0.3684E+02
  14.830  0.1608E+01  0.3686E+02
  14.840  0.1610E+01  0.3688E+02
  14.850  0.1613E+01  0.3689E+02
  14.860  0.1615E+01  0.3691E+02
  14.870  0.1618E+01  0.3692E+02
  14.880  0.1621E+01  0.3694E+02
  14.890  0.1623E+01  0.3696E+02
  14.900  0.1626E+01  0.3697E+02
  14.910  0.1629E+01  0.3699E+02
  14.920  0.1632E+01  0.3701E+02
  14.930  0.1635E+01  0.3702E+02
  14.940  0.1638E+01  0.3704E+02
  14.950  0.1641E+01  0.3705E+02
  14.960  0.1644E+01  0.3707E+02
  14.970  0.1647E+01  0.3709E+02
  14.980  0.1650E+01  0.3710E+02
  14.990  0.1654E+01  0.3712E+02
  15.000  0.1657E+01  0.3714E+02
  15.010  0.1661E+01  0.3715E+02
  15.020  0.1665E+01  0.3717E+02
  15.030  0.1668E+01  0.3719E+02
  15.040  0.1672E+01  0.3720E+02
  15.050  0.1676E+01  0.3722E+02
  15.060  0.1680E+01  0.3724E+02
  15.070  0.1684E+01  0.3725E+02
  15.080  0.1688E+01  0.3727E+02
  15.090  0.1693E+01  0.3729E+02
  15.100  0.1697E+01  0.3730E+02
  15.110  0.1701E+01  0.3732E+02
  15.120  0.1705E+01  0.3734E+02
  15.130  0.1710E+01  0.3736E+02
  15.140  0.1714E+01  0.3737E+02
  15.150  0.1719E+01  0.3739E+02
  15.160  0.1723E+01  0.3741E+02
  15.170  0.1727E+01  0.3742E+02
  15.180  0.1732E+01  0.3744E+02
  15.190  0.1736E+01  0.3746E+02
  15.200  0.1740E+01  0.3748E+02
  15.210  0.1744E+01  0.3749E+02
  15.220  0.1748E+01  0.3751E+02
  15.230  0.1752E+01  0.3753E+02
  15.240  0.1756E+01  0.3755E+02
  15.250  0.1760E+01  0.3756E+02
  15.260  0.1764E+01  0.3758E+02
  15.270  0.1768E+01  0.3760E+02
  15.280  0.1771E+01  0.3762E+02
  15.290  0.1774E+01  0.3764E+02
  15.300  0.1778E+01  0.3765E+02
  15.310  0.1781E+01  0.3767E+02
  15.320  0.1783E+01  0.3769E+02
  15.330  0.1786E+01  0.3771E+02
  15.340  0.1789E+01  0.3772E+02
  15.350  0.1791E+01  0.3774E+02
  15.360  0.1793E+01  0.3776E+02
  15.370  0.1795E+01  0.3778E+02
  15.380  0.1797E+01  0.3780E+02
  15.390  0.1798E+01  0.3781E+02
  15.400  0.1800E+01  0.3783E+02
  15.410  0.1801E+01  0.3785E+02
  15.420  0.1801E+01  0.3787E+02
  15.430  0.1802E+01  0.3789E+02
  15.440  0.1802E+01  0.3790E+02
  15.450  0.1802E+01  0.3792E+02
  15.460  0.1802E+01  0.3794E+02
  15.470  0.1802E+01  0.3796E+02
  15.480  0.1801E+01  0.3798E+02
  15.490  0.1801E+01  0.3799E+02
  15.500  0.1800E+01  0.3801E+02
  15.510  0.1798E+01  0.3803E+02
  15.520  0.1797E+01  0.3805E+02
  15.530  0.1795E+01  0.3807E+02
  15.540  0.1793E+01  0.3808E+02
  15.550  0.1791E+01  0.3810E+02
  15.560  0.1789E+01  0.3812E+02
  15.570  0.1786E+01  0.3814E+02
  15.580  0.1784E+01  0.3816E+02
  15.590  0.1781E+01  0.3817E+02
  15.600  0.1778E+01  0.3819E+02
  15.610  0.1775E+01  0.3821E+02
  15.620  0.1772E+01  0.3823E+02
  15.630  0.1768E+01  0.3824E+02
  15.640  0.1765E+01  0.3826E+02
  15.650  0.1761E+01  0.3828E+02
  15.660  0.1758E+01  0.3830E+02
  15.670  0.1754E+01  0.3831E+02
  15.680  0.1751E+01  0.3833E+02
  15.690  0.1747E+01  0.3835E+02
  15.700  0.1743E+01  0.3837E+02
  15.710  0.1739E+01  0.3838E+02
  15.720  0.1736E+01  0.3840E+02
  15.730  0.1732E+01  0.3842E+02
  15.740  0.1728E+01  0.3844E+02
  15.750  0.1725E+01  0.3845E+02
  15.760  0.1721E+01  0.3847E+02
  15.770  0.1718E+01  0.3849E+02
  15.780  0.1714E+01  0.3851E+02
  15.790  0.1711E+01  0.3852E+02
  15.800  0.1708E+01  0.3854E+02
  15.810  0.1705E+01  0.3856E+02
  15.820  0.1702E+01  0.3857E+02
  15.830  0.1699E+01  0.3859E+02
  15.840  0.1697E+01  0.3861E+02
  15.850  0.1694E+01  0.3862E+02
  15.860  0.1692E+01  0.3864E+02
  15.870  0.1690E+01  0.3866E+02
  15.880  0.1688E+01  0.3867E+02
  15.890  0.1687E+01  0.3869E+02
  15.900  0.1685E+01  0.3871E+02
  15.910  0.1684E+01  0.3873E+02
  15.920  0.1683E+01  0.3874E+02
  15.930  0.1682E+01  0.3876E+02
  15.940  0.1681E+01  0.3878E+02
  15.950  0.1680E+01  0.3879E+02
  15.960  0.1680E+01  0.3881E+02
  15.970  0.1680E+01  0.3883E+02
  15.980  0.1680E+01  0.3884E+02
  15.990  0.1680E+01  0.3886E+02
  16.000  0.1680E+01  0.3888E+02
  16.010  0.1681E+01  0.3889E+02
  16.020  0.1682E+01  0.3891E+02
  16.030  0.1683E+01  0.3893E+02
  16.040  0.1684E+01  0.3894E+02
  16.050  0.1685E+01  0.3896E+02
  16.060  0.1686E+01  0.3898E+02
  16.070  0.1688E+01  0.3899E+02
  16.080  0.1690E+01  0.3901E+02
  16.090  0.1692E+01  0.3903E+02
  16.100  0.1693E+01  0.3905E+02
  16.110  0.1696E+01  0.3906E+02
  16.120  0.1698E+01  0.3908E+02
  16.130  0.1700E+01  0.3910E+02
  16.140  0.1702E+01  0.3911E+02
  16.150  0.1705E+01  0.3913E+02
  16.160  0.1707E+01  0.3915E+02
  16.170  0.1710E+01  0.3916E+02
  16.180  0.1713E+01  0.3918E+02
  16.190  0.1716E+01  0.3920E+02
  16.200  0.1718E+01  0.3922E+02
  16.210  0.1721E+01  0.3923E+02
  16.220  0.1724E+01  0.3925E+02
  16.230  0.1727E+01  0.3927E+02
  16.240  0.1730E+01  0.3929E+02
  16.250  0.1733E+01  0.3930E+02
  16.260  0.1736E+01  0.3932E+02
  16.270  0.1740E+01  0.3934E+02
  16.280  0.1743E+01  0.3935E+02
  16.290  0.1746E+01  0.3937E+02
  16.300  0.1749E+01  0.3939E+02
  16.310  0.1752E+01  0.3941E+02
  16.320  0.1755E+01  0.3942E+02
  16.330  0.1758E+01  0.3944E+02
  16.340  0.1761E+01  0.3946E+02
  16.350  0.1765E+01  0.3948E+02
  16.360  0.1768E+01  0.3950E+02
  16.370  0.1771E+01  0.3951E+02
  16.380  0.1774E+01  0.3953E+02
  16.390  0.1777E+01  0.3955E+02
  16.400  0.1780E+01  0.3957E+02
  16.410  0.1783E+01  0.3958E+02
  16.420  0.1786E+01  0.3960E+02
  16.430  0.1789E+01  0.3962E+02
  16.440  0.1792E+01  0.3964E+02
  16.450  0.1795E+01  0.3966E+02
  16.460  0.1798E+01  0.3967E+02
  16.470  0.1801E+01  0.3969E+02
  16.480  0.1804E+01  0.3971E+02
  16.490  0.1806E+01  0.3973E+02
  16.500  0.1809E+01  0.3975E+02
  16.510  0.1812E+01  0.3976E+02
  16.520  0.1815E+01  0.3978E+02
  16.530  0.1818E+01  0.3980E+02
  16.540  0.1821E+01  0.3982E+02
  16.550  0.1823E+01  0.3984E+02
  16.560  0.1826E+01  0.3985E+02
  16.570  0.1829E+01  0.3987E+02
  16.580  0.1832E+01  0.3989E+02
  16.590  0.1834E+01  0.3991E+02
  16.600  0.1837E+01  0.3993E+02
  16.610  0.1840E+01  0.3995E+02
  16.620  0.1843E+01  0.3997E+02
  16.630  0.1845E+01  0.3998E+02
  16.640  0.1848E+01  0.4000E+02
  16.650  0.1851E+01  0.4002E+02
  16.660  0.1854E+01  0.4004E+02
  16.670  0.1856E+01  0.4006E+02
  16.680  0.1859E+01  0.4008E+02
  16.690  0.1862E+01  0.4009E+02
  16.700  0.1865E+01  0.4011E+02
  16.710  0.1868E+01  0.4013E+02
  16.720  0.1871E+01  0.4015E+02
  16.730  0.1874E+01  0.4017E+02
  16.740  0.1876E+01  0.4019E+02
  16.750  0.1879E+01  0.4021E+02
  16.760  0.1882E+01  0.4023E+02
  16.770  0.1885E+01  0.4024E+02
  16.780  0.1888E+01  0.4026E+02
  16.790  0.1892E+01  0.4028E+02
  16.800  0.1895E+01  0.4030E+02
  16.810  0.1898E+01  0.4032E+02
  16.820  0.1901E+01  0.4034E+02
  16.830  0.1904E+01  0.4036E+02
  16.840  0.1907E+01  0.4038E+02
  16.850  0.1910E+01  0.4040E+02
  16.860  0.1914E+01  0.4042E+02
  16.870  0.1917E+01  0.4044E+02
  16.880  0.1920E+01  0.4045E+02
  16.890  0.1923E+01  0.4047E+02
  16.900  0.1926E+01  0.4049E+02
  16.910  0.1929E+01  0.4051E+02
  16.920  0.1932E+01  0.4053E+02
  16.930  0.1935E+01  0.4055E+02
  16.940  0.1938E+01  0.4057E+02
  16.950  0.1941E+01  0.4059E+02
  16.960  0.1944E+01  0.4061E+02
  16.970  0.1947E+01  0.4063E+02
  16.980  0.1950E+01  0.4065E+02
  16.990  0.1952E+01  0.4067E+02
  17.000  0.1955E+01  0.4069E+02
  17.010  0.1958E+01  0.4071E+02
  17.020  0.1960E+01  0.4073E+02
  17.030  0.1962E+01  0.4075E+02
  17.040  0.1965E+01  0.4077E+02
  17.050  0.1967E+01  0.4079E+02
  17.060  0.1969E+01  0.4080E+02
  17.070  0.1970E+01  0.4082E+02
  17.080  0.1972E+01  0.4084E+02
  17.090  0.1974E+01  0.4086E+02
  17.100  0.1975E+01  0.4088E+02
  17.110  0.1977E+01  0.4090E+02
  17.120  0.1978E+01  0.4092E+02
  17.130  0.1979E+01  0.4094E+02
  17.140  0.1980E+01  0.4096E+02
  17.150  0.1981E+01  0.4098E+02
  17.160  0.1982E+01  0.4100E+02
  17.170  0.1982E+01  0.4102E+02
  17.180  0.1983E+01  0.4104E+02
  17.190  0.1983E+01  0.4106E+02
  17.200  0.1983E+01  0.4108E+02
  17.210  0.1984E+01  0.4110E+02
  17.220  0.1984E+01  0.4112E+02
  17.230  0.1984E+01  0.4114E+02
  17.240  0.1984E+01  0.4116E+02
  17.250  0.1984E+01  0.4118E+02
  17.260  0.1984E+01  0.4120E+02
  17.270  0.1983E+01  0.4122E+02
  17.280  0.1983E+01  0.4124E+02
  17.290  0.1983E+01  0.4126E+02
  17.300  0.1983E+01  0.4128E+02
  17.310  0.1983E+01  0.4130E+02
  17.320  0.1982E+01  0.4132E+02
  17.330  0.1982E+01  0.4134E+02
  17.340  0.1982E+01  0.4136E+02
  17.350  0.1982E+01  0.4138E+02
  17.360  0.1982E+01  0.4140E+02
  17.370  0.1982E+01  0.4142E+02
  17.380  0.1982E+01  0.4144E+02
  17.390  0.1982E+01  0.4146E+02
  17.400  0.1982E+01  0.4148E+02
  17.410  0.1983E+01  0.4150E+02
  17.420  0.1983E+01  0.4152E+02
  17.430  0.1984E+01  0.4154E+02
  17.440  0.1984E+01  0.4156E+02
  17.450  0.1985E+01  0.4158E+02
  17.460  0.1986E+01  0.4160E+02
  17.470  0.1987E+01  0.4162E+02
  17.480  0.1988E+01  0.4164E+02
  17.490  0.1989E+01  0.4166E+02
  17.500  0.1990E+01  0.4168E+02
  17.510  0.1991E+01  0.4170E+02
  17.520  0.1993E+01  0.4172E+02
  17.530  0.1994E+01  0.4174E+02
  17.540  0.1995E+01  0.4176E+02
  17.550  0.1997E+01  0.4178E+02
  17.560  0.1999E+01  0.4180E+02
