#  E (eV)   dos(E)     Int dos(E) EFermi =   7.986 eV
 -14.662  0.6263E-03  0.6263E-05
 -14.652  0.7857E-03  0.1412E-04
 -14.642  0.9830E-03  0.2395E-04
 -14.632  0.1227E-02  0.3622E-04
 -14.622  0.1527E-02  0.5148E-04
 -14.612  0.1895E-02  0.7043E-04
 -14.602  0.2346E-02  0.9390E-04
 -14.592  0.2897E-02  0.1229E-03
 -14.582  0.3568E-02  0.1585E-03
 -14.572  0.4382E-02  0.2024E-03
 -14.562  0.5369E-02  0.2561E-03
 -14.552  0.6560E-02  0.3217E-03
 -14.542  0.7995E-02  0.4016E-03
 -14.532  0.9718E-02  0.4988E-03
 -14.522  0.1178E-01  0.6166E-03
 -14.512  0.1425E-01  0.7591E-03
 -14.502  0.1718E-01  0.9309E-03
 -14.492  0.2067E-01  0.1138E-02
 -14.482  0.2480E-01  0.1386E-02
 -14.472  0.2968E-01  0.1682E-02
 -14.462  0.3542E-01  0.2037E-02
 -14.452  0.4217E-01  0.2458E-02
 -14.442  0.5007E-01  0.2959E-02
 -14.432  0.5930E-01  0.3552E-02
 -14.422  0.7005E-01  0.4252E-02
 -14.412  0.8254E-01  0.5078E-02
 -14.402  0.9701E-01  0.6048E-02
 -14.392  0.1137E+00  0.7185E-02
 -14.382  0.1330E+00  0.8515E-02
 -14.372  0.1551E+00  0.1007E-01
 -14.362  0.1804E+00  0.1187E-01
 -14.352  0.2093E+00  0.1396E-01
 -14.342  0.2422E+00  0.1638E-01
 -14.332  0.2797E+00  0.1918E-01
 -14.322  0.3221E+00  0.2240E-01
 -14.312  0.3699E+00  0.2610E-01
 -14.302  0.4239E+00  0.3034E-01
 -14.292  0.4844E+00  0.3518E-01
 -14.282  0.5523E+00  0.4071E-01
 -14.272  0.6281E+00  0.4699E-01
 -14.262  0.7125E+00  0.5411E-01
 -14.252  0.8062E+00  0.6217E-01
 -14.242  0.9101E+00  0.7128E-01
 -14.232  0.1025E+01  0.8152E-01
 -14.222  0.1151E+01  0.9304E-01
 -14.212  0.1290E+01  0.1059E+00
 -14.202  0.1442E+01  0.1204E+00
 -14.192  0.1608E+01  0.1364E+00
 -14.182  0.1789E+01  0.1543E+00
 -14.172  0.1985E+01  0.1742E+00
 -14.162  0.2198E+01  0.1962E+00
 -14.152  0.2428E+01  0.2204E+00
 -14.142  0.2676E+01  0.2472E+00
 -14.132  0.2942E+01  0.2766E+00
 -14.122  0.3227E+01  0.3089E+00
 -14.112  0.3531E+01  0.3442E+00
 -14.102  0.3856E+01  0.3828E+00
 -14.092  0.4200E+01  0.4248E+00
 -14.082  0.4565E+01  0.4704E+00
 -14.072  0.4951E+01  0.5199E+00
 -14.062  0.5357E+01  0.5735E+00
 -14.052  0.5784E+01  0.6313E+00
 -14.042  0.6231E+01  0.6936E+00
 -14.032  0.6698E+01  0.7606E+00
 -14.022  0.7185E+01  0.8325E+00
 -14.012  0.7691E+01  0.9094E+00
 -14.002  0.8216E+01  0.9915E+00
 -13.992  0.8758E+01  0.1079E+01
 -13.982  0.9317E+01  0.1172E+01
 -13.972  0.9891E+01  0.1271E+01
 -13.962  0.1048E+02  0.1376E+01
 -13.952  0.1108E+02  0.1487E+01
 -13.942  0.1170E+02  0.1604E+01
 -13.932  0.1232E+02  0.1727E+01
 -13.922  0.1295E+02  0.1857E+01
 -13.912  0.1360E+02  0.1993E+01
 -13.902  0.1424E+02  0.2135E+01
 -13.892  0.1489E+02  0.2284E+01
 -13.882  0.1555E+02  0.2439E+01
 -13.872  0.1620E+02  0.2601E+01
 -13.862  0.1685E+02  0.2770E+01
 -13.852  0.1750E+02  0.2945E+01
 -13.842  0.1815E+02  0.3126E+01
 -13.832  0.1878E+02  0.3314E+01
 -13.822  0.1941E+02  0.3508E+01
 -13.812  0.2004E+02  0.3709E+01
 -13.802  0.2065E+02  0.3915E+01
 -13.792  0.2124E+02  0.4127E+01
 -13.782  0.2183E+02  0.4346E+01
 -13.772  0.2239E+02  0.4570E+01
 -13.762  0.2294E+02  0.4799E+01
 -13.752  0.2348E+02  0.5034E+01
 -13.742  0.2399E+02  0.5274E+01
 -13.732  0.2448E+02  0.5519E+01
 -13.722  0.2495E+02  0.5768E+01
 -13.712  0.2540E+02  0.6022E+01
 -13.702  0.2583E+02  0.6280E+01
 -13.692  0.2623E+02  0.6543E+01
 -13.682  0.2661E+02  0.6809E+01
 -13.672  0.2696E+02  0.7078E+01
 -13.662  0.2729E+02  0.7351E+01
 -13.652  0.2759E+02  0.7627E+01
 -13.642  0.2786E+02  0.7906E+01
 -13.632  0.2810E+02  0.8187E+01
 -13.622  0.2832E+02  0.8470E+01
 -13.612  0.2850E+02  0.8755E+01
 -13.602  0.2866E+02  0.9042E+01
 -13.592  0.2879E+02  0.9330E+01
 -13.582  0.2888E+02  0.9618E+01
 -13.572  0.2895E+02  0.9908E+01
 -13.562  0.2898E+02  0.1020E+02
 -13.552  0.2899E+02  0.1049E+02
 -13.542  0.2896E+02  0.1078E+02
 -13.532  0.2890E+02  0.1107E+02
 -13.522  0.2881E+02  0.1135E+02
 -13.512  0.2868E+02  0.1164E+02
 -13.502  0.2852E+02  0.1193E+02
 -13.492  0.2834E+02  0.1221E+02
 -13.482  0.2812E+02  0.1249E+02
 -13.472  0.2786E+02  0.1277E+02
 -13.462  0.2758E+02  0.1305E+02
 -13.452  0.2726E+02  0.1332E+02
 -13.442  0.2692E+02  0.1359E+02
 -13.432  0.2654E+02  0.1385E+02
 -13.422  0.2613E+02  0.1411E+02
 -13.412  0.2570E+02  0.1437E+02
 -13.402  0.2524E+02  0.1462E+02
 -13.392  0.2475E+02  0.1487E+02
 -13.382  0.2423E+02  0.1511E+02
 -13.372  0.2369E+02  0.1535E+02
 -13.362  0.2313E+02  0.1558E+02
 -13.352  0.2255E+02  0.1581E+02
 -13.342  0.2195E+02  0.1603E+02
 -13.332  0.2133E+02  0.1624E+02
 -13.322  0.2069E+02  0.1645E+02
 -13.312  0.2004E+02  0.1665E+02
 -13.302  0.1938E+02  0.1684E+02
 -13.292  0.1871E+02  0.1703E+02
 -13.282  0.1803E+02  0.1721E+02
 -13.272  0.1734E+02  0.1738E+02
 -13.262  0.1665E+02  0.1755E+02
 -13.252  0.1596E+02  0.1771E+02
 -13.242  0.1527E+02  0.1786E+02
 -13.232  0.1459E+02  0.1801E+02
 -13.222  0.1390E+02  0.1815E+02
 -13.212  0.1323E+02  0.1828E+02
 -13.202  0.1256E+02  0.1840E+02
 -13.192  0.1190E+02  0.1852E+02
 -13.182  0.1126E+02  0.1863E+02
 -13.172  0.1062E+02  0.1874E+02
 -13.162  0.1001E+02  0.1884E+02
 -13.152  0.9408E+01  0.1893E+02
 -13.142  0.8825E+01  0.1902E+02
 -13.132  0.8262E+01  0.1911E+02
 -13.122  0.7718E+01  0.1918E+02
 -13.112  0.7194E+01  0.1925E+02
 -13.102  0.6692E+01  0.1932E+02
 -13.092  0.6211E+01  0.1938E+02
 -13.082  0.5753E+01  0.1944E+02
 -13.072  0.5316E+01  0.1949E+02
 -13.062  0.4902E+01  0.1954E+02
 -13.052  0.4510E+01  0.1959E+02
 -13.042  0.4140E+01  0.1963E+02
 -13.032  0.3791E+01  0.1967E+02
 -13.022  0.3464E+01  0.1970E+02
 -13.012  0.3158E+01  0.1973E+02
 -13.002  0.2873E+01  0.1976E+02
 -12.992  0.2607E+01  0.1979E+02
 -12.982  0.2360E+01  0.1981E+02
 -12.972  0.2132E+01  0.1983E+02
 -12.962  0.1921E+01  0.1985E+02
 -12.952  0.1727E+01  0.1987E+02
 -12.942  0.1549E+01  0.1989E+02
 -12.932  0.1386E+01  0.1990E+02
 -12.922  0.1237E+01  0.1991E+02
 -12.912  0.1101E+01  0.1992E+02
 -12.902  0.9784E+00  0.1993E+02
 -12.892  0.8670E+00  0.1994E+02
 -12.882  0.7664E+00  0.1995E+02
 -12.872  0.6758E+00  0.1996E+02
 -12.862  0.5945E+00  0.1996E+02
 -12.852  0.5216E+00  0.1997E+02
 -12.842  0.4566E+00  0.1997E+02
 -12.832  0.3987E+00  0.1998E+02
 -12.822  0.3472E+00  0.1998E+02
 -12.812  0.3017E+00  0.1998E+02
 -12.802  0.2615E+00  0.1998E+02
 -12.792  0.2260E+00  0.1999E+02
 -12.782  0.1949E+00  0.1999E+02
 -12.772  0.1677E+00  0.1999E+02
 -12.762  0.1438E+00  0.1999E+02
 -12.752  0.1231E+00  0.1999E+02
 -12.742  0.1051E+00  0.1999E+02
 -12.732  0.8948E-01  0.2000E+02
 -12.722  0.7600E-01  0.2000E+02
 -12.712  0.6438E-01  0.2000E+02
 -12.702  0.5440E-01  0.2000E+02
 -12.692  0.4586E-01  0.2000E+02
 -12.682  0.3855E-01  0.2000E+02
 -12.672  0.3233E-01  0.2000E+02
 -12.662  0.2704E-01  0.2000E+02
 -12.652  0.2255E-01  0.2000E+02
 -12.642  0.1877E-01  0.2000E+02
 -12.632  0.1558E-01  0.2000E+02
 -12.622  0.1289E-01  0.2000E+02
 -12.612  0.1065E-01  0.2000E+02
 -12.602  0.8767E-02  0.2000E+02
 -12.592  0.7201E-02  0.2000E+02
 -12.582  0.5899E-02  0.2000E+02
 -12.572  0.4821E-02  0.2000E+02
 -12.562  0.3929E-02  0.2000E+02
 -12.552  0.3194E-02  0.2000E+02
 -12.542  0.2589E-02  0.2000E+02
 -12.532  0.2094E-02  0.2000E+02
 -12.522  0.1689E-02  0.2000E+02
 -12.512  0.1358E-02  0.2000E+02
 -12.502  0.1090E-02  0.2000E+02
 -12.492  0.8722E-03  0.2000E+02
 -12.482  0.6961E-03  0.2000E+02
 -12.472  0.5541E-03  0.2000E+02
 -12.462  0.4399E-03  0.2000E+02
 -12.452  0.3484E-03  0.2000E+02
 -12.442  0.2751E-03  0.2000E+02
 -12.432  0.2167E-03  0.2000E+02
 -12.422  0.1703E-03  0.2000E+02
 -12.412  0.1334E-03  0.2000E+02
 -12.402  0.1043E-03  0.2000E+02
 -12.392  0.8127E-04  0.2000E+02
 -12.382  0.6317E-04  0.2000E+02
 -12.372  0.4898E-04  0.2000E+02
 -12.362  0.3788E-04  0.2000E+02
 -12.352  0.2921E-04  0.2000E+02
 -12.342  0.2247E-04  0.2000E+02
 -12.332  0.1724E-04  0.2000E+02
 -12.322  0.1319E-04  0.2000E+02
 -12.312  0.1006E-04  0.2000E+02
 -12.302  0.7660E-05  0.2000E+02
 -12.292  0.5815E-05  0.2000E+02
 -12.282  0.4402E-05  0.2000E+02
 -12.272  0.3324E-05  0.2000E+02
 -12.262  0.2503E-05  0.2000E+02
 -12.252  0.1880E-05  0.2000E+02
 -12.242  0.1408E-05  0.2000E+02
 -12.232  0.1052E-05  0.2000E+02
 -12.222  0.7838E-06  0.2000E+02
 -12.212  0.5825E-06  0.2000E+02
 -12.202  0.4317E-06  0.2000E+02
 -12.192  0.3191E-06  0.2000E+02
 -12.182  0.2352E-06  0.2000E+02
 -12.172  0.1729E-06  0.2000E+02
 -12.162  0.1268E-06  0.2000E+02
 -12.152  0.9275E-07  0.2000E+02
 -12.142  0.6765E-07  0.2000E+02
 -12.132  0.4921E-07  0.2000E+02
 -12.122  0.3570E-07  0.2000E+02
 -12.112  0.2583E-07  0.2000E+02
 -12.102  0.1864E-07  0.2000E+02
 -12.092  0.1342E-07  0.2000E+02
 -12.082  0.9631E-08  0.2000E+02
 -12.072  0.6894E-08  0.2000E+02
 -12.062  0.4922E-08  0.2000E+02
 -12.052  0.3505E-08  0.2000E+02
 -12.042  0.2489E-08  0.2000E+02
 -12.032  0.1763E-08  0.2000E+02
 -12.022  0.1245E-08  0.2000E+02
 -12.012  0.8774E-09  0.2000E+02
 -12.002  0.6165E-09  0.2000E+02
 -11.992  0.4320E-09  0.2000E+02
 -11.982  0.3019E-09  0.2000E+02
 -11.972  0.2104E-09  0.2000E+02
 -11.962  0.1463E-09  0.2000E+02
 -11.952  0.1014E-09  0.2000E+02
 -11.942  0.7012E-10  0.2000E+02
 -11.932  0.4835E-10  0.2000E+02
 -11.922  0.3325E-10  0.2000E+02
 -11.912  0.2281E-10  0.2000E+02
 -11.902  0.1560E-10  0.2000E+02
 -11.892  0.1065E-10  0.2000E+02
 -11.882  0.7243E-11  0.2000E+02
 -11.872  0.4915E-11  0.2000E+02
 -11.862  0.3326E-11  0.2000E+02
 -11.852  0.2245E-11  0.2000E+02
 -11.842  0.1511E-11  0.2000E+02
 -11.832  0.1015E-11  0.2000E+02
 -11.822  0.6794E-12  0.2000E+02
 -11.812  0.4537E-12  0.2000E+02
 -11.802  0.3022E-12  0.2000E+02
 -11.792  0.2007E-12  0.2000E+02
 -11.782  0.1329E-12  0.2000E+02
 -11.772  0.8783E-13  0.2000E+02
 -11.762  0.5787E-13  0.2000E+02
 -11.752  0.3803E-13  0.2000E+02
 -11.742  0.2492E-13  0.2000E+02
 -11.732  0.1629E-13  0.2000E+02
 -11.722  0.1062E-13  0.2000E+02
 -11.712  0.6903E-14  0.2000E+02
 -11.702  0.4476E-14  0.2000E+02
 -11.692  0.2894E-14  0.2000E+02
 -11.682  0.1866E-14  0.2000E+02
 -11.672  0.1200E-14  0.2000E+02
 -11.662  0.7700E-15  0.2000E+02
 -11.652  0.4926E-15  0.2000E+02
 -11.642  0.3143E-15  0.2000E+02
 -11.632  0.2000E-15  0.2000E+02
 -11.622  0.1269E-15  0.2000E+02
 -11.612  0.8032E-16  0.2000E+02
 -11.602  0.5070E-16  0.2000E+02
 -11.592  0.3191E-16  0.2000E+02
 -11.582  0.2004E-16  0.2000E+02
 -11.572  0.1255E-16  0.2000E+02
 -11.562  0.7834E-17  0.2000E+02
 -11.552  0.4879E-17  0.2000E+02
 -11.542  0.3030E-17  0.2000E+02
 -11.532  0.1877E-17  0.2000E+02
 -11.522  0.1160E-17  0.2000E+02
 -11.512  0.7145E-18  0.2000E+02
 -11.502  0.4391E-18  0.2000E+02
 -11.492  0.2691E-18  0.2000E+02
 -11.482  0.1645E-18  0.2000E+02
 -11.472  0.1002E-18  0.2000E+02
 -11.462  0.6094E-19  0.2000E+02
 -11.452  0.3695E-19  0.2000E+02
 -11.442  0.2234E-19  0.2000E+02
 -11.432  0.1347E-19  0.2000E+02
 -11.422  0.8102E-20  0.2000E+02
 -11.412  0.4860E-20  0.2000E+02
 -11.402  0.2907E-20  0.2000E+02
 -11.392  0.1734E-20  0.2000E+02
 -11.382  0.1032E-20  0.2000E+02
 -11.372  0.6123E-21  0.2000E+02
 -11.362  0.3624E-21  0.2000E+02
 -11.352  0.2139E-21  0.2000E+02
 -11.342  0.1259E-21  0.2000E+02
 -11.332  0.7391E-22  0.2000E+02
 -11.322  0.4327E-22  0.2000E+02
 -11.312  0.2527E-22  0.2000E+02
 -11.302  0.1471E-22  0.2000E+02
 -11.292  0.8545E-23  0.2000E+02
 -11.282  0.4949E-23  0.2000E+02
 -11.272  0.2859E-23  0.2000E+02
 -11.262  0.1647E-23  0.2000E+02
 -11.252  0.9464E-24  0.2000E+02
 -11.242  0.5423E-24  0.2000E+02
 -11.232  0.3099E-24  0.2000E+02
 -11.222  0.1766E-24  0.2000E+02
 -11.212  0.1004E-24  0.2000E+02
 -11.202  0.5692E-25  0.2000E+02
 -11.192  0.3218E-25  0.2000E+02
 -11.182  0.1814E-25  0.2000E+02
 -11.172  0.1020E-25  0.2000E+02
 -11.162  0.5722E-26  0.2000E+02
 -11.152  0.3201E-26  0.2000E+02
 -11.142  0.1785E-26  0.2000E+02
 -11.132  0.9932E-27  0.2000E+02
 -11.122  0.5511E-27  0.2000E+02
 -11.112  0.3049E-27  0.2000E+02
 -11.102  0.1683E-27  0.2000E+02
 -11.092  0.9261E-28  0.2000E+02
 -11.082  0.5084E-28  0.2000E+02
 -11.072  0.2783E-28  0.2000E+02
 -11.062  0.1519E-28  0.2000E+02
 -11.052  0.8272E-29  0.2000E+02
 -11.042  0.4492E-29  0.2000E+02
 -11.032  0.2433E-29  0.2000E+02
 -11.022  0.1314E-29  0.2000E+02
 -11.012  0.7078E-30  0.2000E+02
 -11.002  0.3802E-30  0.2000E+02
 -10.992  0.2037E-30  0.2000E+02
 -10.982  0.1088E-30  0.2000E+02
 -10.972  0.5800E-31  0.2000E+02
 -10.962  0.3083E-31  0.2000E+02
 -10.952  0.1634E-31  0.2000E+02
 -10.942  0.8637E-32  0.2000E+02
 -10.932  0.4554E-32  0.2000E+02
 -10.922  0.2394E-32  0.2000E+02
 -10.912  0.1255E-32  0.2000E+02
 -10.902  0.6565E-33  0.2000E+02
 -10.892  0.3424E-33  0.2000E+02
 -10.882  0.1781E-33  0.2000E+02
 -10.872  0.9239E-34  0.2000E+02
 -10.862  0.4780E-34  0.2000E+02
 -10.852  0.2466E-34  0.2000E+02
 -10.842  0.1269E-34  0.2000E+02
 -10.832  0.6513E-35  0.2000E+02
 -10.822  0.3334E-35  0.2000E+02
 -10.812  0.1702E-35  0.2000E+02
 -10.802  0.8662E-36  0.2000E+02
 -10.792  0.4398E-36  0.2000E+02
 -10.782  0.2227E-36  0.2000E+02
 -10.772  0.1125E-36  0.2000E+02
 -10.762  0.5663E-37  0.2000E+02
 -10.752  0.2845E-37  0.2000E+02
 -10.742  0.1425E-37  0.2000E+02
 -10.732  0.7119E-38  0.2000E+02
 -10.722  0.3547E-38  0.2000E+02
 -10.712  0.1762E-38  0.2000E+02
 -10.702  0.8733E-39  0.2000E+02
 -10.692  0.4316E-39  0.2000E+02
 -10.682  0.2128E-39  0.2000E+02
 -10.672  0.1046E-39  0.2000E+02
 -10.662  0.5127E-40  0.2000E+02
 -10.652  0.2507E-40  0.2000E+02
 -10.642  0.1222E-40  0.2000E+02
 -10.632  0.5945E-41  0.2000E+02
 -10.622  0.2883E-41  0.2000E+02
 -10.612  0.1395E-41  0.2000E+02
 -10.602  0.6728E-42  0.2000E+02
 -10.592  0.3237E-42  0.2000E+02
 -10.582  0.1553E-42  0.2000E+02
 -10.572  0.7432E-43  0.2000E+02
 -10.562  0.3547E-43  0.2000E+02
 -10.552  0.1688E-43  0.2000E+02
 -10.542  0.8013E-44  0.2000E+02
 -10.532  0.3793E-44  0.2000E+02
 -10.522  0.1791E-44  0.2000E+02
 -10.512  0.8433E-45  0.2000E+02
 -10.502  0.3960E-45  0.2000E+02
 -10.492  0.1855E-45  0.2000E+02
 -10.482  0.8662E-46  0.2000E+02
 -10.472  0.4035E-46  0.2000E+02
 -10.462  0.1874E-46  0.2000E+02
 -10.452  0.8685E-47  0.2000E+02
 -10.442  0.4013E-47  0.2000E+02
 -10.432  0.1849E-47  0.2000E+02
 -10.422  0.8499E-48  0.2000E+02
 -10.412  0.3896E-48  0.2000E+02
 -10.402  0.1781E-48  0.2000E+02
 -10.392  0.8118E-49  0.2000E+02
 -10.382  0.3691E-49  0.2000E+02
 -10.372  0.1674E-49  0.2000E+02
 -10.362  0.7569E-50  0.2000E+02
 -10.352  0.3414E-50  0.2000E+02
 -10.342  0.1535E-50  0.2000E+02
 -10.332  0.6888E-51  0.2000E+02
 -10.322  0.3081E-51  0.2000E+02
 -10.312  0.1375E-51  0.2000E+02
 -10.302  0.6118E-52  0.2000E+02
 -10.292  0.2715E-52  0.2000E+02
 -10.282  0.1202E-52  0.2000E+02
 -10.272  0.5304E-53  0.2000E+02
 -10.262  0.2335E-53  0.2000E+02
 -10.252  0.1025E-53  0.2000E+02
 -10.242  0.4488E-54  0.2000E+02
 -10.232  0.1960E-54  0.2000E+02
 -10.222  0.8535E-55  0.2000E+02
 -10.212  0.3707E-55  0.2000E+02
 -10.202  0.1606E-55  0.2000E+02
 -10.192  0.6937E-56  0.2000E+02
 -10.182  0.2989E-56  0.2000E+02
 -10.172  0.1284E-56  0.2000E+02
 -10.162  0.5503E-57  0.2000E+02
 -10.152  0.2352E-57  0.2000E+02
 -10.142  0.1002E-57  0.2000E+02
 -10.132  0.4261E-58  0.2000E+02
 -10.122  0.1806E-58  0.2000E+02
 -10.112  0.7636E-59  0.2000E+02
 -10.102  0.3220E-59  0.2000E+02
 -10.092  0.1354E-59  0.2000E+02
 -10.082  0.5678E-60  0.2000E+02
 -10.072  0.2375E-60  0.2000E+02
 -10.062  0.9907E-61  0.2000E+02
 -10.052  0.4122E-61  0.2000E+02
 -10.042  0.1710E-61  0.2000E+02
 -10.032  0.7076E-62  0.2000E+02
 -10.022  0.2920E-62  0.2000E+02
 -10.012  0.1202E-62  0.2000E+02
 -10.002  0.4932E-63  0.2000E+02
  -9.992  0.2019E-63  0.2000E+02
  -9.982  0.8242E-64  0.2000E+02
  -9.972  0.3356E-64  0.2000E+02
  -9.962  0.1363E-64  0.2000E+02
  -9.952  0.5518E-65  0.2000E+02
  -9.942  0.2229E-65  0.2000E+02
  -9.932  0.8976E-66  0.2000E+02
  -9.922  0.3606E-66  0.2000E+02
  -9.912  0.1445E-66  0.2000E+02
  -9.902  0.5771E-67  0.2000E+02
  -9.892  0.2300E-67  0.2000E+02
  -9.882  0.9139E-68  0.2000E+02
  -9.872  0.3622E-68  0.2000E+02
  -9.862  0.1432E-68  0.2000E+02
  -9.852  0.5643E-69  0.2000E+02
  -9.842  0.2219E-69  0.2000E+02
  -9.832  0.8699E-70  0.2000E+02
  -9.822  0.3401E-70  0.2000E+02
  -9.812  0.1326E-70  0.2000E+02
  -9.802  0.5159E-71  0.2000E+02
  -9.792  0.2001E-71  0.2000E+02
  -9.782  0.7740E-72  0.2000E+02
  -9.772  0.2986E-72  0.2000E+02
  -9.762  0.1149E-72  0.2000E+02
  -9.752  0.4409E-73  0.2000E+02
  -9.742  0.1687E-73  0.2000E+02
  -9.732  0.6439E-74  0.2000E+02
  -9.722  0.2451E-74  0.2000E+02
  -9.712  0.9304E-75  0.2000E+02
  -9.702  0.3522E-75  0.2000E+02
  -9.692  0.1330E-75  0.2000E+02
  -9.682  0.5008E-76  0.2000E+02
  -9.672  0.1881E-76  0.2000E+02
  -9.662  0.7044E-77  0.2000E+02
  -9.652  0.2631E-77  0.2000E+02
  -9.642  0.9801E-78  0.2000E+02
  -9.632  0.3641E-78  0.2000E+02
  -9.622  0.1349E-78  0.2000E+02
  -9.612  0.4985E-79  0.2000E+02
  -9.602  0.1837E-79  0.2000E+02
  -9.592  0.6752E-80  0.2000E+02
  -9.582  0.2475E-80  0.2000E+02
  -9.572  0.9048E-81  0.2000E+02
  -9.562  0.3300E-81  0.2000E+02
  -9.552  0.1200E-81  0.2000E+02
  -9.542  0.4361E-82  0.2000E+02
  -9.532  0.1585E-82  0.2000E+02
  -9.522  0.5798E-83  0.2000E+02
  -9.512  0.2167E-83  0.2000E+02
  -9.502  0.8586E-84  0.2000E+02
  -9.492  0.3891E-84  0.2000E+02
  -9.482  0.2217E-84  0.2000E+02
  -9.472  0.1631E-84  0.2000E+02
  -9.462  0.1439E-84  0.2000E+02
  -9.452  0.1386E-84  0.2000E+02
  -9.442  0.1377E-84  0.2000E+02
  -9.432  0.1377E-84  0.2000E+02
  -9.422  0.1377E-84  0.2000E+02
  -9.412  0.1377E-84  0.2000E+02
  -9.402  0.1377E-84  0.2000E+02
  -9.392  0.1377E-84  0.2000E+02
  -9.382  0.1377E-84  0.2000E+02
  -9.372  0.1377E-84  0.2000E+02
  -9.362  0.1377E-84  0.2000E+02
  -9.352  0.1377E-84  0.2000E+02
  -9.342  0.1377E-84  0.2000E+02
  -9.332  0.1377E-84  0.2000E+02
  -9.322  0.1377E-84  0.2000E+02
  -9.312  0.1377E-84  0.2000E+02
  -9.302  0.1377E-84  0.2000E+02
  -9.292  0.1377E-84  0.2000E+02
  -9.282  0.1377E-84  0.2000E+02
  -9.272  0.1377E-84  0.2000E+02
  -9.262  0.1377E-84  0.2000E+02
  -9.252  0.1377E-84  0.2000E+02
  -9.242  0.1377E-84  0.2000E+02
  -9.232  0.1377E-84  0.2000E+02
  -9.222  0.1377E-84  0.2000E+02
  -9.212  0.1377E-84  0.2000E+02
  -9.202  0.1377E-84  0.2000E+02
  -9.192  0.1377E-84  0.2000E+02
  -9.182  0.1377E-84  0.2000E+02
  -9.172  0.1377E-84  0.2000E+02
  -9.162  0.1377E-84  0.2000E+02
  -9.152  0.1377E-84  0.2000E+02
  -9.142  0.1377E-84  0.2000E+02
  -9.132  0.1377E-84  0.2000E+02
  -9.122  0.1377E-84  0.2000E+02
  -9.112  0.1377E-84  0.2000E+02
  -9.102  0.1377E-84  0.2000E+02
  -9.092  0.1377E-84  0.2000E+02
  -9.082  0.1377E-84  0.2000E+02
  -9.072  0.1377E-84  0.2000E+02
  -9.062  0.1377E-84  0.2000E+02
  -9.052  0.1377E-84  0.2000E+02
  -9.042  0.1377E-84  0.2000E+02
  -9.032  0.1377E-84  0.2000E+02
  -9.022  0.1377E-84  0.2000E+02
  -9.012  0.1377E-84  0.2000E+02
  -9.002  0.1377E-84  0.2000E+02
  -8.992  0.1377E-84  0.2000E+02
  -8.982  0.1377E-84  0.2000E+02
  -8.972  0.1377E-84  0.2000E+02
  -8.962  0.1377E-84  0.2000E+02
  -8.952  0.1377E-84  0.2000E+02
  -8.942  0.1377E-84  0.2000E+02
  -8.932  0.1377E-84  0.2000E+02
  -8.922  0.1377E-84  0.2000E+02
  -8.912  0.1377E-84  0.2000E+02
  -8.902  0.1377E-84  0.2000E+02
  -8.892  0.1377E-84  0.2000E+02
  -8.882  0.1377E-84  0.2000E+02
  -8.872  0.1377E-84  0.2000E+02
  -8.862  0.1377E-84  0.2000E+02
  -8.852  0.1377E-84  0.2000E+02
  -8.842  0.1377E-84  0.2000E+02
  -8.832  0.1377E-84  0.2000E+02
  -8.822  0.1377E-84  0.2000E+02
  -8.812  0.1377E-84  0.2000E+02
  -8.802  0.1377E-84  0.2000E+02
  -8.792  0.1377E-84  0.2000E+02
  -8.782  0.1377E-84  0.2000E+02
  -8.772  0.1377E-84  0.2000E+02
  -8.762  0.1377E-84  0.2000E+02
  -8.752  0.1377E-84  0.2000E+02
  -8.742  0.1377E-84  0.2000E+02
  -8.732  0.1377E-84  0.2000E+02
  -8.722  0.1377E-84  0.2000E+02
  -8.712  0.1377E-84  0.2000E+02
  -8.702  0.1377E-84  0.2000E+02
  -8.692  0.1377E-84  0.2000E+02
  -8.682  0.1377E-84  0.2000E+02
  -8.672  0.1377E-84  0.2000E+02
  -8.662  0.1377E-84  0.2000E+02
  -8.652  0.1377E-84  0.2000E+02
  -8.642  0.1377E-84  0.2000E+02
  -8.632  0.1377E-84  0.2000E+02
  -8.622  0.1377E-84  0.2000E+02
  -8.612  0.1377E-84  0.2000E+02
  -8.602  0.1377E-84  0.2000E+02
  -8.592  0.1377E-84  0.2000E+02
  -8.582  0.1377E-84  0.2000E+02
  -8.572  0.1377E-84  0.2000E+02
  -8.562  0.1377E-84  0.2000E+02
  -8.552  0.1377E-84  0.2000E+02
  -8.542  0.1377E-84  0.2000E+02
  -8.532  0.1377E-84  0.2000E+02
  -8.522  0.1377E-84  0.2000E+02
  -8.512  0.1377E-84  0.2000E+02
  -8.502  0.1377E-84  0.2000E+02
  -8.492  0.1377E-84  0.2000E+02
  -8.482  0.1377E-84  0.2000E+02
  -8.472  0.1377E-84  0.2000E+02
  -8.462  0.1377E-84  0.2000E+02
  -8.452  0.1377E-84  0.2000E+02
  -8.442  0.1377E-84  0.2000E+02
  -8.432  0.1377E-84  0.2000E+02
  -8.422  0.1377E-84  0.2000E+02
  -8.412  0.1377E-84  0.2000E+02
  -8.402  0.1377E-84  0.2000E+02
  -8.392  0.1377E-84  0.2000E+02
  -8.382  0.1377E-84  0.2000E+02
  -8.372  0.1377E-84  0.2000E+02
  -8.362  0.1377E-84  0.2000E+02
  -8.352  0.1377E-84  0.2000E+02
  -8.342  0.1377E-84  0.2000E+02
  -8.332  0.1377E-84  0.2000E+02
  -8.322  0.1377E-84  0.2000E+02
  -8.312  0.1377E-84  0.2000E+02
  -8.302  0.1377E-84  0.2000E+02
  -8.292  0.1377E-84  0.2000E+02
  -8.282  0.1377E-84  0.2000E+02
  -8.272  0.1377E-84  0.2000E+02
  -8.262  0.1377E-84  0.2000E+02
  -8.252  0.1377E-84  0.2000E+02
  -8.242  0.1377E-84  0.2000E+02
  -8.232  0.1377E-84  0.2000E+02
  -8.222  0.1377E-84  0.2000E+02
  -8.212  0.1377E-84  0.2000E+02
  -8.202  0.1377E-84  0.2000E+02
  -8.192  0.1377E-84  0.2000E+02
  -8.182  0.1377E-84  0.2000E+02
  -8.172  0.1377E-84  0.2000E+02
  -8.162  0.1377E-84  0.2000E+02
  -8.152  0.1377E-84  0.2000E+02
  -8.142  0.1377E-84  0.2000E+02
  -8.132  0.1377E-84  0.2000E+02
  -8.122  0.1377E-84  0.2000E+02
  -8.112  0.1377E-84  0.2000E+02
  -8.102  0.1377E-84  0.2000E+02
  -8.092  0.1377E-84  0.2000E+02
  -8.082  0.1377E-84  0.2000E+02
  -8.072  0.1377E-84  0.2000E+02
  -8.062  0.1377E-84  0.2000E+02
  -8.052  0.1377E-84  0.2000E+02
  -8.042  0.1377E-84  0.2000E+02
  -8.032  0.1377E-84  0.2000E+02
  -8.022  0.1377E-84  0.2000E+02
  -8.012  0.1377E-84  0.2000E+02
  -8.002  0.1377E-84  0.2000E+02
  -7.992  0.1377E-84  0.2000E+02
  -7.982  0.1377E-84  0.2000E+02
  -7.972  0.1377E-84  0.2000E+02
  -7.962  0.1377E-84  0.2000E+02
  -7.952  0.1377E-84  0.2000E+02
  -7.942  0.1377E-84  0.2000E+02
  -7.932  0.1377E-84  0.2000E+02
  -7.922  0.1377E-84  0.2000E+02
  -7.912  0.1377E-84  0.2000E+02
  -7.902  0.1377E-84  0.2000E+02
  -7.892  0.1377E-84  0.2000E+02
  -7.882  0.1377E-84  0.2000E+02
  -7.872  0.1377E-84  0.2000E+02
  -7.862  0.1377E-84  0.2000E+02
  -7.852  0.1377E-84  0.2000E+02
  -7.842  0.1377E-84  0.2000E+02
  -7.832  0.1377E-84  0.2000E+02
  -7.822  0.1377E-84  0.2000E+02
  -7.812  0.1377E-84  0.2000E+02
  -7.802  0.1377E-84  0.2000E+02
  -7.792  0.1377E-84  0.2000E+02
  -7.782  0.1377E-84  0.2000E+02
  -7.772  0.1377E-84  0.2000E+02
  -7.762  0.1377E-84  0.2000E+02
  -7.752  0.1377E-84  0.2000E+02
  -7.742  0.1377E-84  0.2000E+02
  -7.732  0.1377E-84  0.2000E+02
  -7.722  0.1377E-84  0.2000E+02
  -7.712  0.1377E-84  0.2000E+02
  -7.702  0.1377E-84  0.2000E+02
  -7.692  0.1377E-84  0.2000E+02
  -7.682  0.1377E-84  0.2000E+02
  -7.672  0.1377E-84  0.2000E+02
  -7.662  0.1377E-84  0.2000E+02
  -7.652  0.1377E-84  0.2000E+02
  -7.642  0.1377E-84  0.2000E+02
  -7.632  0.1377E-84  0.2000E+02
  -7.622  0.1377E-84  0.2000E+02
  -7.612  0.1377E-84  0.2000E+02
  -7.602  0.1377E-84  0.2000E+02
  -7.592  0.1377E-84  0.2000E+02
  -7.582  0.1377E-84  0.2000E+02
  -7.572  0.1377E-84  0.2000E+02
  -7.562  0.1377E-84  0.2000E+02
  -7.552  0.1377E-84  0.2000E+02
  -7.542  0.1377E-84  0.2000E+02
  -7.532  0.1377E-84  0.2000E+02
  -7.522  0.1377E-84  0.2000E+02
  -7.512  0.1377E-84  0.2000E+02
  -7.502  0.1377E-84  0.2000E+02
  -7.492  0.1377E-84  0.2000E+02
  -7.482  0.1377E-84  0.2000E+02
  -7.472  0.1377E-84  0.2000E+02
  -7.462  0.1377E-84  0.2000E+02
  -7.452  0.1377E-84  0.2000E+02
  -7.442  0.1377E-84  0.2000E+02
  -7.432  0.1377E-84  0.2000E+02
  -7.422  0.1377E-84  0.2000E+02
  -7.412  0.1377E-84  0.2000E+02
  -7.402  0.1377E-84  0.2000E+02
  -7.392  0.1377E-84  0.2000E+02
  -7.382  0.1377E-84  0.2000E+02
  -7.372  0.1377E-84  0.2000E+02
  -7.362  0.1377E-84  0.2000E+02
  -7.352  0.1377E-84  0.2000E+02
  -7.342  0.1377E-84  0.2000E+02
  -7.332  0.1377E-84  0.2000E+02
  -7.322  0.1377E-84  0.2000E+02
  -7.312  0.1377E-84  0.2000E+02
  -7.302  0.1377E-84  0.2000E+02
  -7.292  0.1377E-84  0.2000E+02
  -7.282  0.1377E-84  0.2000E+02
  -7.272  0.1377E-84  0.2000E+02
  -7.262  0.1377E-84  0.2000E+02
  -7.252  0.1377E-84  0.2000E+02
  -7.242  0.1377E-84  0.2000E+02
  -7.232  0.1377E-84  0.2000E+02
  -7.222  0.1377E-84  0.2000E+02
  -7.212  0.1377E-84  0.2000E+02
  -7.202  0.1377E-84  0.2000E+02
  -7.192  0.1377E-84  0.2000E+02
  -7.182  0.1377E-84  0.2000E+02
  -7.172  0.1377E-84  0.2000E+02
  -7.162  0.1377E-84  0.2000E+02
  -7.152  0.1377E-84  0.2000E+02
  -7.142  0.1377E-84  0.2000E+02
  -7.132  0.1377E-84  0.2000E+02
  -7.122  0.1377E-84  0.2000E+02
  -7.112  0.1377E-84  0.2000E+02
  -7.102  0.1377E-84  0.2000E+02
  -7.092  0.1377E-84  0.2000E+02
  -7.082  0.1377E-84  0.2000E+02
  -7.072  0.1377E-84  0.2000E+02
  -7.062  0.1377E-84  0.2000E+02
  -7.052  0.1377E-84  0.2000E+02
  -7.042  0.1377E-84  0.2000E+02
  -7.032  0.1377E-84  0.2000E+02
  -7.022  0.1377E-84  0.2000E+02
  -7.012  0.1377E-84  0.2000E+02
  -7.002  0.1377E-84  0.2000E+02
  -6.992  0.1377E-84  0.2000E+02
  -6.982  0.1377E-84  0.2000E+02
  -6.972  0.1377E-84  0.2000E+02
  -6.962  0.1377E-84  0.2000E+02
  -6.952  0.1377E-84  0.2000E+02
  -6.942  0.1377E-84  0.2000E+02
  -6.932  0.1377E-84  0.2000E+02
  -6.922  0.1377E-84  0.2000E+02
  -6.912  0.1377E-84  0.2000E+02
  -6.902  0.1377E-84  0.2000E+02
  -6.892  0.1377E-84  0.2000E+02
  -6.882  0.1377E-84  0.2000E+02
  -6.872  0.1377E-84  0.2000E+02
  -6.862  0.1377E-84  0.2000E+02
  -6.852  0.1377E-84  0.2000E+02
  -6.842  0.1377E-84  0.2000E+02
  -6.832  0.1377E-84  0.2000E+02
  -6.822  0.1377E-84  0.2000E+02
  -6.812  0.1377E-84  0.2000E+02
  -6.802  0.1377E-84  0.2000E+02
  -6.792  0.1377E-84  0.2000E+02
  -6.782  0.1377E-84  0.2000E+02
  -6.772  0.1377E-84  0.2000E+02
  -6.762  0.1377E-84  0.2000E+02
  -6.752  0.1377E-84  0.2000E+02
  -6.742  0.1377E-84  0.2000E+02
  -6.732  0.1377E-84  0.2000E+02
  -6.722  0.1377E-84  0.2000E+02
  -6.712  0.1377E-84  0.2000E+02
  -6.702  0.1377E-84  0.2000E+02
  -6.692  0.1377E-84  0.2000E+02
  -6.682  0.1377E-84  0.2000E+02
  -6.672  0.1377E-84  0.2000E+02
  -6.662  0.1377E-84  0.2000E+02
  -6.652  0.1377E-84  0.2000E+02
  -6.642  0.1377E-84  0.2000E+02
  -6.632  0.1377E-84  0.2000E+02
  -6.622  0.1377E-84  0.2000E+02
  -6.612  0.1377E-84  0.2000E+02
  -6.602  0.1377E-84  0.2000E+02
  -6.592  0.1377E-84  0.2000E+02
  -6.582  0.1377E-84  0.2000E+02
  -6.572  0.1377E-84  0.2000E+02
  -6.562  0.1377E-84  0.2000E+02
  -6.552  0.1378E-84  0.2000E+02
  -6.542  0.1379E-84  0.2000E+02
  -6.532  0.1382E-84  0.2000E+02
  -6.522  0.1390E-84  0.2000E+02
  -6.512  0.1414E-84  0.2000E+02
  -6.502  0.1478E-84  0.2000E+02
  -6.492  0.1657E-84  0.2000E+02
  -6.482  0.2149E-84  0.2000E+02
  -6.472  0.3499E-84  0.2000E+02
  -6.462  0.7195E-84  0.2000E+02
  -6.452  0.1729E-83  0.2000E+02
  -6.442  0.4477E-83  0.2000E+02
  -6.432  0.1194E-82  0.2000E+02
  -6.422  0.3215E-82  0.2000E+02
  -6.412  0.8675E-82  0.2000E+02
  -6.402  0.2338E-81  0.2000E+02
  -6.392  0.6290E-81  0.2000E+02
  -6.382  0.1688E-80  0.2000E+02
  -6.372  0.4517E-80  0.2000E+02
  -6.362  0.1206E-79  0.2000E+02
  -6.352  0.3210E-79  0.2000E+02
  -6.342  0.8522E-79  0.2000E+02
  -6.332  0.2256E-78  0.2000E+02
  -6.322  0.5959E-78  0.2000E+02
  -6.312  0.1569E-77  0.2000E+02
  -6.302  0.4122E-77  0.2000E+02
  -6.292  0.1080E-76  0.2000E+02
  -6.282  0.2821E-76  0.2000E+02
  -6.272  0.7351E-76  0.2000E+02
  -6.262  0.1910E-75  0.2000E+02
  -6.252  0.4951E-75  0.2000E+02
  -6.242  0.1280E-74  0.2000E+02
  -6.232  0.3298E-74  0.2000E+02
  -6.222  0.8480E-74  0.2000E+02
  -6.212  0.2174E-73  0.2000E+02
  -6.202  0.5559E-73  0.2000E+02
  -6.192  0.1418E-72  0.2000E+02
  -6.182  0.3606E-72  0.2000E+02
  -6.172  0.9147E-72  0.2000E+02
  -6.162  0.2314E-71  0.2000E+02
  -6.152  0.5838E-71  0.2000E+02
  -6.142  0.1469E-70  0.2000E+02
  -6.132  0.3687E-70  0.2000E+02
  -6.122  0.9227E-70  0.2000E+02
  -6.112  0.2303E-69  0.2000E+02
  -6.102  0.5734E-69  0.2000E+02
  -6.092  0.1424E-68  0.2000E+02
  -6.082  0.3525E-68  0.2000E+02
  -6.072  0.8704E-68  0.2000E+02
  -6.062  0.2144E-67  0.2000E+02
  -6.052  0.5266E-67  0.2000E+02
  -6.042  0.1290E-66  0.2000E+02
  -6.032  0.3152E-66  0.2000E+02
  -6.022  0.7679E-66  0.2000E+02
  -6.012  0.1866E-65  0.2000E+02
  -6.002  0.4523E-65  0.2000E+02
  -5.992  0.1093E-64  0.2000E+02
  -5.982  0.2635E-64  0.2000E+02
  -5.972  0.6336E-64  0.2000E+02
  -5.962  0.1519E-63  0.2000E+02
  -5.952  0.3633E-63  0.2000E+02
  -5.942  0.8664E-63  0.2000E+02
  -5.932  0.2061E-62  0.2000E+02
  -5.922  0.4889E-62  0.2000E+02
  -5.912  0.1157E-61  0.2000E+02
  -5.902  0.2729E-61  0.2000E+02
  -5.892  0.6423E-61  0.2000E+02
  -5.882  0.1507E-60  0.2000E+02
  -5.872  0.3528E-60  0.2000E+02
  -5.862  0.8236E-60  0.2000E+02
  -5.852  0.1918E-59  0.2000E+02
  -5.842  0.4453E-59  0.2000E+02
  -5.832  0.1031E-58  0.2000E+02
  -5.822  0.2381E-58  0.2000E+02
  -5.812  0.5485E-58  0.2000E+02
  -5.802  0.1260E-57  0.2000E+02
  -5.792  0.2887E-57  0.2000E+02
  -5.782  0.6597E-57  0.2000E+02
  -5.772  0.1503E-56  0.2000E+02
  -5.762  0.3417E-56  0.2000E+02
  -5.752  0.7746E-56  0.2000E+02
  -5.742  0.1751E-55  0.2000E+02
  -5.732  0.3948E-55  0.2000E+02
  -5.722  0.8878E-55  0.2000E+02
  -5.712  0.1991E-54  0.2000E+02
  -5.702  0.4453E-54  0.2000E+02
  -5.692  0.9933E-54  0.2000E+02
  -5.682  0.2210E-53  0.2000E+02
  -5.672  0.4903E-53  0.2000E+02
  -5.662  0.1085E-52  0.2000E+02
  -5.652  0.2395E-52  0.2000E+02
  -5.642  0.5271E-52  0.2000E+02
  -5.632  0.1157E-51  0.2000E+02
  -5.622  0.2533E-51  0.2000E+02
  -5.612  0.5531E-51  0.2000E+02
  -5.602  0.1205E-50  0.2000E+02
  -5.592  0.2616E-50  0.2000E+02
  -5.582  0.5667E-50  0.2000E+02
  -5.572  0.1224E-49  0.2000E+02
  -5.562  0.2638E-49  0.2000E+02
  -5.552  0.5668E-49  0.2000E+02
  -5.542  0.1215E-48  0.2000E+02
  -5.532  0.2596E-48  0.2000E+02
  -5.522  0.5534E-48  0.2000E+02
  -5.512  0.1177E-47  0.2000E+02
  -5.502  0.2495E-47  0.2000E+02
  -5.492  0.5275E-47  0.2000E+02
  -5.482  0.1113E-46  0.2000E+02
  -5.472  0.2340E-46  0.2000E+02
  -5.462  0.4910E-46  0.2000E+02
  -5.452  0.1027E-45  0.2000E+02
  -5.442  0.2143E-45  0.2000E+02
  -5.432  0.4461E-45  0.2000E+02
  -5.422  0.9258E-45  0.2000E+02
  -5.412  0.1917E-44  0.2000E+02
  -5.402  0.3957E-44  0.2000E+02
  -5.392  0.8147E-44  0.2000E+02
  -5.382  0.1673E-43  0.2000E+02
  -5.372  0.3427E-43  0.2000E+02
  -5.362  0.6999E-43  0.2000E+02
  -5.352  0.1426E-42  0.2000E+02
  -5.342  0.2897E-42  0.2000E+02
  -5.332  0.5870E-42  0.2000E+02
  -5.322  0.1186E-41  0.2000E+02
  -5.312  0.2391E-41  0.2000E+02
  -5.302  0.4807E-41  0.2000E+02
  -5.292  0.9638E-41  0.2000E+02
  -5.282  0.1927E-40  0.2000E+02
  -5.272  0.3843E-40  0.2000E+02
  -5.262  0.7644E-40  0.2000E+02
  -5.252  0.1516E-39  0.2000E+02
  -5.242  0.3000E-39  0.2000E+02
  -5.232  0.5919E-39  0.2000E+02
  -5.222  0.1165E-38  0.2000E+02
  -5.212  0.2286E-38  0.2000E+02
  -5.202  0.4475E-38  0.2000E+02
  -5.192  0.8736E-38  0.2000E+02
  -5.182  0.1701E-37  0.2000E+02
  -5.172  0.3303E-37  0.2000E+02
  -5.162  0.6397E-37  0.2000E+02
  -5.152  0.1236E-36  0.2000E+02
  -5.142  0.2380E-36  0.2000E+02
  -5.132  0.4573E-36  0.2000E+02
  -5.122  0.8763E-36  0.2000E+02
  -5.112  0.1675E-35  0.2000E+02
  -5.102  0.3192E-35  0.2000E+02
  -5.092  0.6068E-35  0.2000E+02
  -5.082  0.1150E-34  0.2000E+02
  -5.072  0.2175E-34  0.2000E+02
  -5.062  0.4103E-34  0.2000E+02
  -5.052  0.7716E-34  0.2000E+02
  -5.042  0.1447E-33  0.2000E+02
  -5.032  0.2708E-33  0.2000E+02
  -5.022  0.5053E-33  0.2000E+02
  -5.012  0.9404E-33  0.2000E+02
  -5.002  0.1745E-32  0.2000E+02
  -4.992  0.3231E-32  0.2000E+02
  -4.982  0.5965E-32  0.2000E+02
  -4.972  0.1098E-31  0.2000E+02
  -4.962  0.2017E-31  0.2000E+02
  -4.952  0.3694E-31  0.2000E+02
  -4.942  0.6748E-31  0.2000E+02
  -4.932  0.1229E-30  0.2000E+02
  -4.922  0.2234E-30  0.2000E+02
  -4.912  0.4048E-30  0.2000E+02
  -4.902  0.7317E-30  0.2000E+02
  -4.892  0.1319E-29  0.2000E+02
  -4.882  0.2371E-29  0.2000E+02
  -4.872  0.4252E-29  0.2000E+02
  -4.862  0.7603E-29  0.2000E+02
  -4.852  0.1356E-28  0.2000E+02
  -4.842  0.2412E-28  0.2000E+02
  -4.832  0.4280E-28  0.2000E+02
  -4.822  0.7573E-28  0.2000E+02
  -4.812  0.1336E-27  0.2000E+02
  -4.802  0.2352E-27  0.2000E+02
  -4.792  0.4129E-27  0.2000E+02
  -4.782  0.7229E-27  0.2000E+02
  -4.772  0.1262E-26  0.2000E+02
  -4.762  0.2198E-26  0.2000E+02
  -4.752  0.3818E-26  0.2000E+02
  -4.742  0.6614E-26  0.2000E+02
  -4.732  0.1143E-25  0.2000E+02
  -4.722  0.1969E-25  0.2000E+02
  -4.712  0.3384E-25  0.2000E+02
  -4.702  0.5800E-25  0.2000E+02
  -4.692  0.9914E-25  0.2000E+02
  -4.682  0.1690E-24  0.2000E+02
  -4.672  0.2874E-24  0.2000E+02
  -4.662  0.4875E-24  0.2000E+02
  -4.652  0.8245E-24  0.2000E+02
  -4.642  0.1391E-23  0.2000E+02
  -4.632  0.2340E-23  0.2000E+02
  -4.622  0.3927E-23  0.2000E+02
  -4.612  0.6572E-23  0.2000E+02
  -4.602  0.1097E-22  0.2000E+02
  -4.592  0.1826E-22  0.2000E+02
  -4.582  0.3032E-22  0.2000E+02
  -4.572  0.5022E-22  0.2000E+02
  -4.562  0.8294E-22  0.2000E+02
  -4.552  0.1366E-21  0.2000E+02
  -4.542  0.2245E-21  0.2000E+02
  -4.532  0.3678E-21  0.2000E+02
  -4.522  0.6010E-21  0.2000E+02
  -4.512  0.9796E-21  0.2000E+02
  -4.502  0.1592E-20  0.2000E+02
  -4.492  0.2582E-20  0.2000E+02
  -4.482  0.4175E-20  0.2000E+02
  -4.472  0.6733E-20  0.2000E+02
  -4.462  0.1083E-19  0.2000E+02
  -4.452  0.1737E-19  0.2000E+02
  -4.442  0.2780E-19  0.2000E+02
  -4.432  0.4436E-19  0.2000E+02
  -4.422  0.7060E-19  0.2000E+02
  -4.412  0.1121E-18  0.2000E+02
  -4.402  0.1774E-18  0.2000E+02
  -4.392  0.2802E-18  0.2000E+02
  -4.382  0.4412E-18  0.2000E+02
  -4.372  0.6930E-18  0.2000E+02
  -4.362  0.1086E-17  0.2000E+02
  -4.352  0.1696E-17  0.2000E+02
  -4.342  0.2643E-17  0.2000E+02
  -4.332  0.4108E-17  0.2000E+02
  -4.322  0.6368E-17  0.2000E+02
  -4.312  0.9845E-17  0.2000E+02
  -4.302  0.1518E-16  0.2000E+02
  -4.292  0.2335E-16  0.2000E+02
  -4.282  0.3581E-16  0.2000E+02
  -4.272  0.5478E-16  0.2000E+02
  -4.262  0.8358E-16  0.2000E+02
  -4.252  0.1272E-15  0.2000E+02
  -4.242  0.1930E-15  0.2000E+02
  -4.232  0.2922E-15  0.2000E+02
  -4.222  0.4412E-15  0.2000E+02
  -4.212  0.6643E-15  0.2000E+02
  -4.202  0.9976E-15  0.2000E+02
  -4.192  0.1494E-14  0.2000E+02
  -4.182  0.2232E-14  0.2000E+02
  -4.172  0.3326E-14  0.2000E+02
  -4.162  0.4943E-14  0.2000E+02
  -4.152  0.7327E-14  0.2000E+02
  -4.142  0.1083E-13  0.2000E+02
  -4.132  0.1597E-13  0.2000E+02
  -4.122  0.2349E-13  0.2000E+02
  -4.112  0.3445E-13  0.2000E+02
  -4.102  0.5039E-13  0.2000E+02
  -4.092  0.7352E-13  0.2000E+02
  -4.082  0.1070E-12  0.2000E+02
  -4.072  0.1553E-12  0.2000E+02
  -4.062  0.2248E-12  0.2000E+02
  -4.052  0.3245E-12  0.2000E+02
  -4.042  0.4673E-12  0.2000E+02
  -4.032  0.6712E-12  0.2000E+02
  -4.022  0.9614E-12  0.2000E+02
  -4.012  0.1374E-11  0.2000E+02
  -4.002  0.1957E-11  0.2000E+02
  -3.992  0.2782E-11  0.2000E+02
  -3.982  0.3943E-11  0.2000E+02
  -3.972  0.5575E-11  0.2000E+02
  -3.962  0.7862E-11  0.2000E+02
  -3.952  0.1106E-10  0.2000E+02
  -3.942  0.1551E-10  0.2000E+02
  -3.932  0.2170E-10  0.2000E+02
  -3.922  0.3029E-10  0.2000E+02
  -3.912  0.4216E-10  0.2000E+02
  -3.902  0.5852E-10  0.2000E+02
  -3.892  0.8103E-10  0.2000E+02
  -3.882  0.1119E-09  0.2000E+02
  -3.872  0.1541E-09  0.2000E+02
  -3.862  0.2118E-09  0.2000E+02
  -3.852  0.2902E-09  0.2000E+02
  -3.842  0.3966E-09  0.2000E+02
  -3.832  0.5407E-09  0.2000E+02
  -3.822  0.7351E-09  0.2000E+02
  -3.812  0.9969E-09  0.2000E+02
  -3.802  0.1348E-08  0.2000E+02
  -3.792  0.1819E-08  0.2000E+02
  -3.782  0.2448E-08  0.2000E+02
  -3.772  0.3285E-08  0.2000E+02
  -3.762  0.4398E-08  0.2000E+02
  -3.752  0.5872E-08  0.2000E+02
  -3.742  0.7820E-08  0.2000E+02
  -3.732  0.1039E-07  0.2000E+02
  -3.722  0.1376E-07  0.2000E+02
  -3.712  0.1819E-07  0.2000E+02
  -3.702  0.2397E-07  0.2000E+02
  -3.692  0.3152E-07  0.2000E+02
  -3.682  0.4133E-07  0.2000E+02
  -3.672  0.5406E-07  0.2000E+02
  -3.662  0.7052E-07  0.2000E+02
  -3.652  0.9177E-07  0.2000E+02
  -3.642  0.1191E-06  0.2000E+02
  -3.632  0.1542E-06  0.2000E+02
  -3.622  0.1991E-06  0.2000E+02
  -3.612  0.2565E-06  0.2000E+02
  -3.602  0.3295E-06  0.2000E+02
  -3.592  0.4222E-06  0.2000E+02
  -3.582  0.5397E-06  0.2000E+02
  -3.572  0.6881E-06  0.2000E+02
  -3.562  0.8751E-06  0.2000E+02
  -3.552  0.1110E-05  0.2000E+02
  -3.542  0.1404E-05  0.2000E+02
  -3.532  0.1773E-05  0.2000E+02
  -3.522  0.2231E-05  0.2000E+02
  -3.512  0.2802E-05  0.2000E+02
  -3.502  0.3510E-05  0.2000E+02
  -3.492  0.4385E-05  0.2000E+02
  -3.482  0.5464E-05  0.2000E+02
  -3.472  0.6793E-05  0.2000E+02
  -3.462  0.8423E-05  0.2000E+02
  -3.452  0.1042E-04  0.2000E+02
  -3.442  0.1285E-04  0.2000E+02
  -3.432  0.1582E-04  0.2000E+02
  -3.422  0.1942E-04  0.2000E+02
  -3.412  0.2378E-04  0.2000E+02
  -3.402  0.2905E-04  0.2000E+02
  -3.392  0.3540E-04  0.2000E+02
  -3.382  0.4304E-04  0.2000E+02
  -3.372  0.5218E-04  0.2000E+02
  -3.362  0.6312E-04  0.2000E+02
  -3.352  0.7615E-04  0.2000E+02
  -3.342  0.9166E-04  0.2000E+02
  -3.332  0.1101E-03  0.2000E+02
  -3.322  0.1318E-03  0.2000E+02
  -3.312  0.1575E-03  0.2000E+02
  -3.302  0.1877E-03  0.2000E+02
  -3.292  0.2232E-03  0.2000E+02
  -3.282  0.2647E-03  0.2000E+02
  -3.272  0.3132E-03  0.2000E+02
  -3.262  0.3698E-03  0.2000E+02
  -3.252  0.4354E-03  0.2000E+02
  -3.242  0.5115E-03  0.2000E+02
  -3.232  0.5995E-03  0.2000E+02
  -3.222  0.7009E-03  0.2000E+02
  -3.212  0.8175E-03  0.2000E+02
  -3.202  0.9512E-03  0.2000E+02
  -3.192  0.1104E-02  0.2000E+02
  -3.182  0.1279E-02  0.2000E+02
  -3.172  0.1478E-02  0.2000E+02
  -3.162  0.1703E-02  0.2000E+02
  -3.152  0.1959E-02  0.2000E+02
  -3.142  0.2248E-02  0.2000E+02
  -3.132  0.2573E-02  0.2000E+02
  -3.122  0.2939E-02  0.2000E+02
  -3.112  0.3349E-02  0.2000E+02
  -3.102  0.3807E-02  0.2000E+02
  -3.092  0.4319E-02  0.2000E+02
  -3.082  0.4888E-02  0.2000E+02
  -3.072  0.5520E-02  0.2000E+02
  -3.062  0.6219E-02  0.2000E+02
  -3.052  0.6992E-02  0.2000E+02
  -3.042  0.7843E-02  0.2000E+02
  -3.032  0.8778E-02  0.2000E+02
  -3.022  0.9804E-02  0.2000E+02
  -3.012  0.1093E-01  0.2000E+02
  -3.002  0.1215E-01  0.2000E+02
  -2.992  0.1348E-01  0.2000E+02
  -2.982  0.1493E-01  0.2000E+02
  -2.972  0.1649E-01  0.2000E+02
  -2.962  0.1818E-01  0.2000E+02
  -2.952  0.2001E-01  0.2000E+02
  -2.942  0.2197E-01  0.2000E+02
  -2.932  0.2407E-01  0.2000E+02
  -2.922  0.2632E-01  0.2000E+02
  -2.912  0.2873E-01  0.2000E+02
  -2.902  0.3129E-01  0.2000E+02
  -2.892  0.3401E-01  0.2000E+02
  -2.882  0.3690E-01  0.2000E+02
  -2.872  0.3995E-01  0.2000E+02
  -2.862  0.4317E-01  0.2000E+02
  -2.852  0.4657E-01  0.2001E+02
  -2.842  0.5014E-01  0.2001E+02
  -2.832  0.5388E-01  0.2001E+02
  -2.822  0.5779E-01  0.2001E+02
  -2.812  0.6188E-01  0.2001E+02
  -2.802  0.6613E-01  0.2001E+02
  -2.792  0.7056E-01  0.2001E+02
  -2.782  0.7515E-01  0.2001E+02
  -2.772  0.7990E-01  0.2001E+02
  -2.762  0.8481E-01  0.2001E+02
  -2.752  0.8987E-01  0.2001E+02
  -2.742  0.9508E-01  0.2001E+02
  -2.732  0.1004E+00  0.2001E+02
  -2.722  0.1059E+00  0.2002E+02
  -2.712  0.1115E+00  0.2002E+02
  -2.702  0.1172E+00  0.2002E+02
  -2.692  0.1231E+00  0.2002E+02
  -2.682  0.1290E+00  0.2002E+02
  -2.672  0.1351E+00  0.2002E+02
  -2.662  0.1412E+00  0.2002E+02
  -2.652  0.1474E+00  0.2002E+02
  -2.642  0.1536E+00  0.2003E+02
  -2.632  0.1599E+00  0.2003E+02
  -2.622  0.1663E+00  0.2003E+02
  -2.612  0.1727E+00  0.2003E+02
  -2.602  0.1791E+00  0.2003E+02
  -2.592  0.1856E+00  0.2003E+02
  -2.582  0.1920E+00  0.2004E+02
  -2.572  0.1985E+00  0.2004E+02
  -2.562  0.2049E+00  0.2004E+02
  -2.552  0.2114E+00  0.2004E+02
  -2.542  0.2178E+00  0.2004E+02
  -2.532  0.2242E+00  0.2005E+02
  -2.522  0.2306E+00  0.2005E+02
  -2.512  0.2370E+00  0.2005E+02
  -2.502  0.2433E+00  0.2005E+02
  -2.492  0.2495E+00  0.2006E+02
  -2.482  0.2557E+00  0.2006E+02
  -2.472  0.2619E+00  0.2006E+02
  -2.462  0.2680E+00  0.2006E+02
  -2.452  0.2740E+00  0.2007E+02
  -2.442  0.2800E+00  0.2007E+02
  -2.432  0.2859E+00  0.2007E+02
  -2.422  0.2918E+00  0.2008E+02
  -2.412  0.2976E+00  0.2008E+02
  -2.402  0.3033E+00  0.2008E+02
  -2.392  0.3089E+00  0.2008E+02
  -2.382  0.3145E+00  0.2009E+02
  -2.372  0.3201E+00  0.2009E+02
  -2.362  0.3255E+00  0.2009E+02
  -2.352  0.3309E+00  0.2010E+02
  -2.342  0.3363E+00  0.2010E+02
  -2.332  0.3415E+00  0.2010E+02
  -2.322  0.3468E+00  0.2011E+02
  -2.312  0.3519E+00  0.2011E+02
  -2.302  0.3571E+00  0.2011E+02
  -2.292  0.3621E+00  0.2012E+02
  -2.282  0.3671E+00  0.2012E+02
  -2.272  0.3721E+00  0.2013E+02
  -2.262  0.3770E+00  0.2013E+02
  -2.252  0.3819E+00  0.2013E+02
  -2.242  0.3867E+00  0.2014E+02
  -2.232  0.3915E+00  0.2014E+02
  -2.222  0.3962E+00  0.2015E+02
  -2.212  0.4010E+00  0.2015E+02
  -2.202  0.4056E+00  0.2015E+02
  -2.192  0.4103E+00  0.2016E+02
  -2.182  0.4149E+00  0.2016E+02
  -2.172  0.4195E+00  0.2017E+02
  -2.162  0.4241E+00  0.2017E+02
  -2.152  0.4286E+00  0.2017E+02
  -2.142  0.4331E+00  0.2018E+02
  -2.132  0.4376E+00  0.2018E+02
  -2.122  0.4421E+00  0.2019E+02
  -2.112  0.4466E+00  0.2019E+02
  -2.102  0.4510E+00  0.2020E+02
  -2.092  0.4554E+00  0.2020E+02
  -2.082  0.4598E+00  0.2021E+02
  -2.072  0.4642E+00  0.2021E+02
  -2.062  0.4686E+00  0.2021E+02
  -2.052  0.4730E+00  0.2022E+02
  -2.042  0.4773E+00  0.2022E+02
  -2.032  0.4817E+00  0.2023E+02
  -2.022  0.4860E+00  0.2023E+02
  -2.012  0.4903E+00  0.2024E+02
  -2.002  0.4947E+00  0.2024E+02
  -1.992  0.4990E+00  0.2025E+02
  -1.982  0.5033E+00  0.2025E+02
  -1.972  0.5076E+00  0.2026E+02
  -1.962  0.5119E+00  0.2026E+02
  -1.952  0.5163E+00  0.2027E+02
  -1.942  0.5206E+00  0.2027E+02
  -1.932  0.5249E+00  0.2028E+02
  -1.922  0.5293E+00  0.2029E+02
  -1.912  0.5336E+00  0.2029E+02
  -1.902  0.5380E+00  0.2030E+02
  -1.892  0.5423E+00  0.2030E+02
  -1.882  0.5467E+00  0.2031E+02
  -1.872  0.5511E+00  0.2031E+02
  -1.862  0.5556E+00  0.2032E+02
  -1.852  0.5600E+00  0.2032E+02
  -1.842  0.5645E+00  0.2033E+02
  -1.832  0.5690E+00  0.2033E+02
  -1.822  0.5735E+00  0.2034E+02
  -1.812  0.5780E+00  0.2035E+02
  -1.802  0.5826E+00  0.2035E+02
  -1.792  0.5871E+00  0.2036E+02
  -1.782  0.5917E+00  0.2036E+02
  -1.772  0.5964E+00  0.2037E+02
  -1.762  0.6010E+00  0.2038E+02
  -1.752  0.6057E+00  0.2038E+02
  -1.742  0.6104E+00  0.2039E+02
  -1.732  0.6151E+00  0.2039E+02
  -1.722  0.6199E+00  0.2040E+02
  -1.712  0.6247E+00  0.2041E+02
  -1.702  0.6295E+00  0.2041E+02
  -1.692  0.6344E+00  0.2042E+02
  -1.682  0.6393E+00  0.2043E+02
  -1.672  0.6442E+00  0.2043E+02
  -1.662  0.6492E+00  0.2044E+02
  -1.652  0.6543E+00  0.2045E+02
  -1.642  0.6594E+00  0.2045E+02
  -1.632  0.6645E+00  0.2046E+02
  -1.622  0.6698E+00  0.2046E+02
  -1.612  0.6751E+00  0.2047E+02
  -1.602  0.6804E+00  0.2048E+02
  -1.592  0.6859E+00  0.2049E+02
  -1.582  0.6914E+00  0.2049E+02
  -1.572  0.6970E+00  0.2050E+02
  -1.562  0.7027E+00  0.2051E+02
  -1.552  0.7086E+00  0.2051E+02
  -1.542  0.7145E+00  0.2052E+02
  -1.532  0.7205E+00  0.2053E+02
  -1.522  0.7266E+00  0.2054E+02
  -1.512  0.7329E+00  0.2054E+02
  -1.502  0.7393E+00  0.2055E+02
  -1.492  0.7457E+00  0.2056E+02
  -1.482  0.7523E+00  0.2056E+02
  -1.472  0.7591E+00  0.2057E+02
  -1.462  0.7659E+00  0.2058E+02
  -1.452  0.7728E+00  0.2059E+02
  -1.442  0.7799E+00  0.2060E+02
  -1.432  0.7871E+00  0.2060E+02
  -1.422  0.7944E+00  0.2061E+02
  -1.412  0.8018E+00  0.2062E+02
  -1.402  0.8093E+00  0.2063E+02
  -1.392  0.8168E+00  0.2064E+02
  -1.382  0.8245E+00  0.2064E+02
  -1.372  0.8323E+00  0.2065E+02
  -1.362  0.8401E+00  0.2066E+02
  -1.352  0.8480E+00  0.2067E+02
  -1.342  0.8560E+00  0.2068E+02
  -1.332  0.8640E+00  0.2069E+02
  -1.322  0.8721E+00  0.2069E+02
  -1.312  0.8802E+00  0.2070E+02
  -1.302  0.8884E+00  0.2071E+02
  -1.292  0.8965E+00  0.2072E+02
  -1.282  0.9047E+00  0.2073E+02
  -1.272  0.9129E+00  0.2074E+02
  -1.262  0.9210E+00  0.2075E+02
  -1.252  0.9292E+00  0.2076E+02
  -1.242  0.9372E+00  0.2077E+02
  -1.232  0.9453E+00  0.2078E+02
  -1.222  0.9532E+00  0.2079E+02
  -1.212  0.9611E+00  0.2080E+02
  -1.202  0.9689E+00  0.2081E+02
  -1.192  0.9765E+00  0.2082E+02
  -1.182  0.9840E+00  0.2083E+02
  -1.172  0.9914E+00  0.2084E+02
  -1.162  0.9986E+00  0.2085E+02
  -1.152  0.1006E+01  0.2086E+02
  -1.142  0.1012E+01  0.2087E+02
  -1.132  0.1019E+01  0.2088E+02
  -1.122  0.1025E+01  0.2089E+02
  -1.112  0.1031E+01  0.2090E+02
  -1.102  0.1037E+01  0.2091E+02
  -1.092  0.1042E+01  0.2092E+02
  -1.082  0.1047E+01  0.2093E+02
  -1.072  0.1052E+01  0.2094E+02
  -1.062  0.1056E+01  0.2095E+02
  -1.052  0.1060E+01  0.2096E+02
  -1.042  0.1064E+01  0.2097E+02
  -1.032  0.1067E+01  0.2098E+02
  -1.022  0.1070E+01  0.2099E+02
  -1.012  0.1073E+01  0.2100E+02
  -1.002  0.1075E+01  0.2101E+02
  -0.992  0.1076E+01  0.2102E+02
  -0.982  0.1078E+01  0.2103E+02
  -0.972  0.1079E+01  0.2105E+02
  -0.962  0.1079E+01  0.2106E+02
  -0.952  0.1079E+01  0.2107E+02
  -0.942  0.1079E+01  0.2108E+02
  -0.932  0.1078E+01  0.2109E+02
  -0.922  0.1077E+01  0.2110E+02
  -0.912  0.1076E+01  0.2111E+02
  -0.902  0.1074E+01  0.2112E+02
  -0.892  0.1072E+01  0.2113E+02
  -0.882  0.1070E+01  0.2114E+02
  -0.872  0.1067E+01  0.2115E+02
  -0.862  0.1064E+01  0.2116E+02
  -0.852  0.1061E+01  0.2117E+02
  -0.842  0.1058E+01  0.2118E+02
  -0.832  0.1054E+01  0.2120E+02
  -0.822  0.1051E+01  0.2121E+02
  -0.812  0.1047E+01  0.2122E+02
  -0.802  0.1042E+01  0.2123E+02
  -0.792  0.1038E+01  0.2124E+02
  -0.782  0.1034E+01  0.2125E+02
  -0.772  0.1029E+01  0.2126E+02
  -0.762  0.1024E+01  0.2127E+02
  -0.752  0.1019E+01  0.2128E+02
  -0.742  0.1014E+01  0.2129E+02
  -0.732  0.1009E+01  0.2130E+02
  -0.722  0.1004E+01  0.2131E+02
  -0.712  0.9986E+00  0.2132E+02
  -0.702  0.9931E+00  0.2133E+02
  -0.692  0.9875E+00  0.2134E+02
  -0.682  0.9818E+00  0.2135E+02
  -0.672  0.9761E+00  0.2136E+02
  -0.662  0.9702E+00  0.2137E+02
  -0.652  0.9643E+00  0.2138E+02
  -0.642  0.9583E+00  0.2139E+02
  -0.632  0.9522E+00  0.2140E+02
  -0.622  0.9461E+00  0.2141E+02
  -0.612  0.9399E+00  0.2141E+02
  -0.602  0.9337E+00  0.2142E+02
  -0.592  0.9274E+00  0.2143E+02
  -0.582  0.9210E+00  0.2144E+02
  -0.572  0.9147E+00  0.2145E+02
  -0.562  0.9083E+00  0.2146E+02
  -0.552  0.9018E+00  0.2147E+02
  -0.542  0.8954E+00  0.2148E+02
  -0.532  0.8889E+00  0.2149E+02
  -0.522  0.8824E+00  0.2150E+02
  -0.512  0.8759E+00  0.2151E+02
  -0.502  0.8694E+00  0.2151E+02
  -0.492  0.8629E+00  0.2152E+02
  -0.482  0.8564E+00  0.2153E+02
  -0.472  0.8498E+00  0.2154E+02
  -0.462  0.8433E+00  0.2155E+02
  -0.452  0.8368E+00  0.2156E+02
  -0.442  0.8302E+00  0.2156E+02
  -0.432  0.8237E+00  0.2157E+02
  -0.422  0.8171E+00  0.2158E+02
  -0.412  0.8105E+00  0.2159E+02
  -0.402  0.8039E+00  0.2160E+02
  -0.392  0.7972E+00  0.2161E+02
  -0.382  0.7906E+00  0.2161E+02
  -0.372  0.7839E+00  0.2162E+02
  -0.362  0.7771E+00  0.2163E+02
  -0.352  0.7704E+00  0.2164E+02
  -0.342  0.7636E+00  0.2164E+02
  -0.332  0.7567E+00  0.2165E+02
  -0.322  0.7498E+00  0.2166E+02
  -0.312  0.7429E+00  0.2167E+02
  -0.302  0.7359E+00  0.2167E+02
  -0.292  0.7289E+00  0.2168E+02
  -0.282  0.7218E+00  0.2169E+02
  -0.272  0.7147E+00  0.2170E+02
  -0.262  0.7075E+00  0.2170E+02
  -0.252  0.7003E+00  0.2171E+02
  -0.242  0.6930E+00  0.2172E+02
  -0.232  0.6857E+00  0.2172E+02
  -0.222  0.6784E+00  0.2173E+02
  -0.212  0.6710E+00  0.2174E+02
  -0.202  0.6636E+00  0.2174E+02
  -0.192  0.6562E+00  0.2175E+02
  -0.182  0.6487E+00  0.2176E+02
  -0.172  0.6412E+00  0.2176E+02
  -0.162  0.6336E+00  0.2177E+02
  -0.152  0.6260E+00  0.2178E+02
  -0.142  0.6184E+00  0.2178E+02
  -0.132  0.6107E+00  0.2179E+02
  -0.122  0.6030E+00  0.2179E+02
  -0.112  0.5952E+00  0.2180E+02
  -0.102  0.5874E+00  0.2181E+02
  -0.092  0.5795E+00  0.2181E+02
  -0.082  0.5716E+00  0.2182E+02
  -0.072  0.5636E+00  0.2182E+02
  -0.062  0.5555E+00  0.2183E+02
  -0.052  0.5474E+00  0.2183E+02
  -0.042  0.5392E+00  0.2184E+02
  -0.032  0.5310E+00  0.2184E+02
  -0.022  0.5227E+00  0.2185E+02
  -0.012  0.5143E+00  0.2186E+02
  -0.002  0.5058E+00  0.2186E+02
   0.008  0.4973E+00  0.2187E+02
   0.018  0.4887E+00  0.2187E+02
   0.028  0.4800E+00  0.2187E+02
   0.038  0.4713E+00  0.2188E+02
   0.048  0.4626E+00  0.2188E+02
   0.058  0.4538E+00  0.2189E+02
   0.068  0.4450E+00  0.2189E+02
   0.078  0.4362E+00  0.2190E+02
   0.088  0.4274E+00  0.2190E+02
   0.098  0.4185E+00  0.2191E+02
   0.108  0.4097E+00  0.2191E+02
   0.118  0.4010E+00  0.2191E+02
   0.128  0.3922E+00  0.2192E+02
   0.138  0.3836E+00  0.2192E+02
   0.148  0.3750E+00  0.2193E+02
   0.158  0.3666E+00  0.2193E+02
   0.168  0.3582E+00  0.2193E+02
   0.178  0.3500E+00  0.2194E+02
   0.188  0.3419E+00  0.2194E+02
   0.198  0.3340E+00  0.2194E+02
   0.208  0.3263E+00  0.2195E+02
   0.218  0.3188E+00  0.2195E+02
   0.228  0.3115E+00  0.2195E+02
   0.238  0.3045E+00  0.2196E+02
   0.248  0.2976E+00  0.2196E+02
   0.258  0.2911E+00  0.2196E+02
   0.268  0.2848E+00  0.2196E+02
   0.278  0.2788E+00  0.2197E+02
   0.288  0.2731E+00  0.2197E+02
   0.298  0.2678E+00  0.2197E+02
   0.308  0.2627E+00  0.2198E+02
   0.318  0.2580E+00  0.2198E+02
   0.328  0.2537E+00  0.2198E+02
   0.338  0.2497E+00  0.2198E+02
   0.348  0.2460E+00  0.2199E+02
   0.358  0.2428E+00  0.2199E+02
   0.368  0.2399E+00  0.2199E+02
   0.378  0.2375E+00  0.2199E+02
   0.388  0.2354E+00  0.2199E+02
   0.398  0.2337E+00  0.2200E+02
   0.408  0.2325E+00  0.2200E+02
   0.418  0.2316E+00  0.2200E+02
   0.428  0.2312E+00  0.2200E+02
   0.438  0.2312E+00  0.2201E+02
   0.448  0.2317E+00  0.2201E+02
   0.458  0.2325E+00  0.2201E+02
   0.468  0.2338E+00  0.2201E+02
   0.478  0.2355E+00  0.2202E+02
   0.488  0.2376E+00  0.2202E+02
   0.498  0.2401E+00  0.2202E+02
   0.508  0.2430E+00  0.2202E+02
   0.518  0.2463E+00  0.2203E+02
   0.528  0.2500E+00  0.2203E+02
   0.538  0.2541E+00  0.2203E+02
   0.548  0.2586E+00  0.2203E+02
   0.558  0.2633E+00  0.2204E+02
   0.568  0.2685E+00  0.2204E+02
   0.578  0.2739E+00  0.2204E+02
   0.588  0.2796E+00  0.2204E+02
   0.598  0.2857E+00  0.2205E+02
   0.608  0.2919E+00  0.2205E+02
   0.618  0.2985E+00  0.2205E+02
   0.628  0.3052E+00  0.2206E+02
   0.638  0.3121E+00  0.2206E+02
   0.648  0.3193E+00  0.2206E+02
   0.658  0.3265E+00  0.2207E+02
   0.668  0.3340E+00  0.2207E+02
   0.678  0.3415E+00  0.2207E+02
   0.688  0.3491E+00  0.2208E+02
   0.698  0.3568E+00  0.2208E+02
   0.708  0.3646E+00  0.2208E+02
   0.718  0.3724E+00  0.2209E+02
   0.728  0.3802E+00  0.2209E+02
   0.738  0.3880E+00  0.2209E+02
   0.748  0.3959E+00  0.2210E+02
   0.758  0.4037E+00  0.2210E+02
   0.768  0.4115E+00  0.2211E+02
   0.778  0.4193E+00  0.2211E+02
   0.788  0.4270E+00  0.2211E+02
   0.798  0.4348E+00  0.2212E+02
   0.808  0.4424E+00  0.2212E+02
   0.818  0.4501E+00  0.2213E+02
   0.828  0.4577E+00  0.2213E+02
   0.838  0.4653E+00  0.2214E+02
   0.848  0.4728E+00  0.2214E+02
   0.858  0.4804E+00  0.2215E+02
   0.868  0.4879E+00  0.2215E+02
   0.878  0.4954E+00  0.2216E+02
   0.888  0.5029E+00  0.2216E+02
   0.898  0.5104E+00  0.2217E+02
   0.908  0.5180E+00  0.2217E+02
   0.918  0.5256E+00  0.2218E+02
   0.928  0.5332E+00  0.2218E+02
   0.938  0.5409E+00  0.2219E+02
   0.948  0.5486E+00  0.2219E+02
   0.958  0.5564E+00  0.2220E+02
   0.968  0.5642E+00  0.2220E+02
   0.978  0.5721E+00  0.2221E+02
   0.988  0.5801E+00  0.2222E+02
   0.998  0.5881E+00  0.2222E+02
   1.008  0.5963E+00  0.2223E+02
   1.018  0.6045E+00  0.2223E+02
   1.028  0.6127E+00  0.2224E+02
   1.038  0.6211E+00  0.2225E+02
   1.048  0.6295E+00  0.2225E+02
   1.058  0.6380E+00  0.2226E+02
   1.068  0.6465E+00  0.2227E+02
   1.078  0.6551E+00  0.2227E+02
   1.088  0.6638E+00  0.2228E+02
   1.098  0.6725E+00  0.2229E+02
   1.108  0.6813E+00  0.2229E+02
   1.118  0.6901E+00  0.2230E+02
   1.128  0.6990E+00  0.2231E+02
   1.138  0.7080E+00  0.2231E+02
   1.148  0.7169E+00  0.2232E+02
   1.158  0.7260E+00  0.2233E+02
   1.168  0.7351E+00  0.2234E+02
   1.178  0.7442E+00  0.2234E+02
   1.188  0.7535E+00  0.2235E+02
   1.198  0.7628E+00  0.2236E+02
   1.208  0.7721E+00  0.2237E+02
   1.218  0.7815E+00  0.2237E+02
   1.228  0.7911E+00  0.2238E+02
   1.238  0.8007E+00  0.2239E+02
   1.248  0.8104E+00  0.2240E+02
   1.258  0.8201E+00  0.2241E+02
   1.268  0.8300E+00  0.2241E+02
   1.278  0.8400E+00  0.2242E+02
   1.288  0.8500E+00  0.2243E+02
   1.298  0.8601E+00  0.2244E+02
   1.308  0.8703E+00  0.2245E+02
   1.318  0.8806E+00  0.2246E+02
   1.328  0.8909E+00  0.2247E+02
   1.338  0.9013E+00  0.2247E+02
   1.348  0.9116E+00  0.2248E+02
   1.358  0.9220E+00  0.2249E+02
   1.368  0.9323E+00  0.2250E+02
   1.378  0.9425E+00  0.2251E+02
   1.388  0.9526E+00  0.2252E+02
   1.398  0.9626E+00  0.2253E+02
   1.408  0.9723E+00  0.2254E+02
   1.418  0.9819E+00  0.2255E+02
   1.428  0.9912E+00  0.2256E+02
   1.438  0.1000E+01  0.2257E+02
   1.448  0.1009E+01  0.2258E+02
   1.458  0.1017E+01  0.2259E+02
   1.468  0.1025E+01  0.2260E+02
   1.478  0.1032E+01  0.2261E+02
   1.488  0.1039E+01  0.2262E+02
   1.498  0.1045E+01  0.2263E+02
   1.508  0.1050E+01  0.2264E+02
   1.518  0.1055E+01  0.2265E+02
   1.528  0.1059E+01  0.2266E+02
   1.538  0.1063E+01  0.2267E+02
   1.548  0.1066E+01  0.2268E+02
   1.558  0.1067E+01  0.2270E+02
   1.568  0.1069E+01  0.2271E+02
   1.578  0.1069E+01  0.2272E+02
   1.588  0.1069E+01  0.2273E+02
   1.598  0.1068E+01  0.2274E+02
   1.608  0.1066E+01  0.2275E+02
   1.618  0.1063E+01  0.2276E+02
   1.628  0.1060E+01  0.2277E+02
   1.638  0.1056E+01  0.2278E+02
   1.648  0.1051E+01  0.2279E+02
   1.658  0.1046E+01  0.2280E+02
   1.668  0.1040E+01  0.2281E+02
   1.678  0.1033E+01  0.2282E+02
   1.688  0.1026E+01  0.2283E+02
   1.698  0.1019E+01  0.2284E+02
   1.708  0.1011E+01  0.2285E+02
   1.718  0.1002E+01  0.2286E+02
   1.728  0.9937E+00  0.2287E+02
   1.738  0.9847E+00  0.2288E+02
   1.748  0.9753E+00  0.2289E+02
   1.758  0.9658E+00  0.2290E+02
   1.768  0.9560E+00  0.2291E+02
   1.778  0.9461E+00  0.2292E+02
   1.788  0.9360E+00  0.2293E+02
   1.798  0.9259E+00  0.2294E+02
   1.808  0.9157E+00  0.2295E+02
   1.818  0.9055E+00  0.2296E+02
   1.828  0.8953E+00  0.2297E+02
   1.838  0.8850E+00  0.2298E+02
   1.848  0.8748E+00  0.2298E+02
   1.858  0.8646E+00  0.2299E+02
   1.868  0.8545E+00  0.2300E+02
   1.878  0.8445E+00  0.2301E+02
   1.888  0.8345E+00  0.2302E+02
   1.898  0.8246E+00  0.2303E+02
   1.908  0.8148E+00  0.2304E+02
   1.918  0.8050E+00  0.2304E+02
   1.928  0.7954E+00  0.2305E+02
   1.938  0.7858E+00  0.2306E+02
   1.948  0.7763E+00  0.2307E+02
   1.958  0.7669E+00  0.2307E+02
   1.968  0.7576E+00  0.2308E+02
   1.978  0.7484E+00  0.2309E+02
   1.988  0.7393E+00  0.2310E+02
   1.998  0.7303E+00  0.2310E+02
   2.008  0.7214E+00  0.2311E+02
   2.018  0.7126E+00  0.2312E+02
   2.028  0.7038E+00  0.2313E+02
   2.038  0.6952E+00  0.2313E+02
   2.048  0.6868E+00  0.2314E+02
   2.058  0.6784E+00  0.2315E+02
   2.068  0.6702E+00  0.2315E+02
   2.078  0.6621E+00  0.2316E+02
   2.088  0.6541E+00  0.2317E+02
   2.098  0.6464E+00  0.2317E+02
   2.108  0.6388E+00  0.2318E+02
   2.118  0.6313E+00  0.2319E+02
   2.128  0.6241E+00  0.2319E+02
   2.138  0.6171E+00  0.2320E+02
   2.148  0.6102E+00  0.2320E+02
   2.158  0.6036E+00  0.2321E+02
   2.168  0.5972E+00  0.2322E+02
   2.178  0.5910E+00  0.2322E+02
   2.188  0.5851E+00  0.2323E+02
   2.198  0.5793E+00  0.2323E+02
   2.208  0.5738E+00  0.2324E+02
   2.218  0.5686E+00  0.2324E+02
   2.228  0.5635E+00  0.2325E+02
   2.238  0.5587E+00  0.2326E+02
   2.248  0.5541E+00  0.2326E+02
   2.258  0.5497E+00  0.2327E+02
   2.268  0.5455E+00  0.2327E+02
   2.278  0.5414E+00  0.2328E+02
   2.288  0.5376E+00  0.2328E+02
   2.298  0.5339E+00  0.2329E+02
   2.308  0.5303E+00  0.2329E+02
   2.318  0.5268E+00  0.2330E+02
   2.328  0.5234E+00  0.2330E+02
   2.338  0.5202E+00  0.2331E+02
   2.348  0.5169E+00  0.2331E+02
   2.358  0.5137E+00  0.2332E+02
   2.368  0.5106E+00  0.2332E+02
   2.378  0.5074E+00  0.2333E+02
   2.388  0.5043E+00  0.2334E+02
   2.398  0.5011E+00  0.2334E+02
   2.408  0.4978E+00  0.2335E+02
   2.418  0.4946E+00  0.2335E+02
   2.428  0.4912E+00  0.2335E+02
   2.438  0.4878E+00  0.2336E+02
   2.448  0.4843E+00  0.2336E+02
   2.458  0.4807E+00  0.2337E+02
   2.468  0.4770E+00  0.2337E+02
   2.478  0.4733E+00  0.2338E+02
   2.488  0.4694E+00  0.2338E+02
   2.498  0.4655E+00  0.2339E+02
   2.508  0.4615E+00  0.2339E+02
   2.518  0.4575E+00  0.2340E+02
   2.528  0.4533E+00  0.2340E+02
   2.538  0.4492E+00  0.2341E+02
   2.548  0.4449E+00  0.2341E+02
   2.558  0.4407E+00  0.2342E+02
   2.568  0.4365E+00  0.2342E+02
   2.578  0.4322E+00  0.2342E+02
   2.588  0.4280E+00  0.2343E+02
   2.598  0.4239E+00  0.2343E+02
   2.608  0.4197E+00  0.2344E+02
   2.618  0.4157E+00  0.2344E+02
   2.628  0.4117E+00  0.2345E+02
   2.638  0.4078E+00  0.2345E+02
   2.648  0.4040E+00  0.2345E+02
   2.658  0.4003E+00  0.2346E+02
   2.668  0.3968E+00  0.2346E+02
   2.678  0.3933E+00  0.2347E+02
   2.688  0.3900E+00  0.2347E+02
   2.698  0.3869E+00  0.2347E+02
   2.708  0.3839E+00  0.2348E+02
   2.718  0.3810E+00  0.2348E+02
   2.728  0.3783E+00  0.2348E+02
   2.738  0.3757E+00  0.2349E+02
   2.748  0.3733E+00  0.2349E+02
   2.758  0.3709E+00  0.2350E+02
   2.768  0.3688E+00  0.2350E+02
   2.778  0.3667E+00  0.2350E+02
   2.788  0.3648E+00  0.2351E+02
   2.798  0.3629E+00  0.2351E+02
   2.808  0.3612E+00  0.2351E+02
   2.818  0.3596E+00  0.2352E+02
   2.828  0.3580E+00  0.2352E+02
   2.838  0.3565E+00  0.2352E+02
   2.848  0.3550E+00  0.2353E+02
   2.858  0.3536E+00  0.2353E+02
   2.868  0.3522E+00  0.2354E+02
   2.878  0.3509E+00  0.2354E+02
   2.888  0.3495E+00  0.2354E+02
   2.898  0.3482E+00  0.2355E+02
   2.908  0.3468E+00  0.2355E+02
   2.918  0.3454E+00  0.2355E+02
   2.928  0.3440E+00  0.2356E+02
   2.938  0.3425E+00  0.2356E+02
   2.948  0.3410E+00  0.2356E+02
   2.958  0.3394E+00  0.2357E+02
   2.968  0.3377E+00  0.2357E+02
   2.978  0.3360E+00  0.2357E+02
   2.988  0.3342E+00  0.2358E+02
   2.998  0.3323E+00  0.2358E+02
   3.008  0.3303E+00  0.2358E+02
   3.018  0.3283E+00  0.2359E+02
   3.028  0.3261E+00  0.2359E+02
   3.038  0.3238E+00  0.2359E+02
   3.048  0.3215E+00  0.2360E+02
   3.058  0.3190E+00  0.2360E+02
   3.068  0.3165E+00  0.2360E+02
   3.078  0.3139E+00  0.2361E+02
   3.088  0.3112E+00  0.2361E+02
   3.098  0.3084E+00  0.2361E+02
   3.108  0.3056E+00  0.2361E+02
   3.118  0.3027E+00  0.2362E+02
   3.128  0.2998E+00  0.2362E+02
   3.138  0.2968E+00  0.2362E+02
   3.148  0.2938E+00  0.2363E+02
   3.158  0.2908E+00  0.2363E+02
   3.168  0.2878E+00  0.2363E+02
   3.178  0.2848E+00  0.2364E+02
   3.188  0.2818E+00  0.2364E+02
   3.198  0.2788E+00  0.2364E+02
   3.208  0.2759E+00  0.2364E+02
   3.218  0.2730E+00  0.2365E+02
   3.228  0.2702E+00  0.2365E+02
   3.238  0.2674E+00  0.2365E+02
   3.248  0.2648E+00  0.2365E+02
   3.258  0.2622E+00  0.2366E+02
   3.268  0.2597E+00  0.2366E+02
   3.278  0.2574E+00  0.2366E+02
   3.288  0.2552E+00  0.2366E+02
   3.298  0.2530E+00  0.2367E+02
   3.308  0.2511E+00  0.2367E+02
   3.318  0.2492E+00  0.2367E+02
   3.328  0.2475E+00  0.2367E+02
   3.338  0.2459E+00  0.2368E+02
   3.348  0.2444E+00  0.2368E+02
   3.358  0.2431E+00  0.2368E+02
   3.368  0.2419E+00  0.2368E+02
   3.378  0.2408E+00  0.2369E+02
   3.388  0.2398E+00  0.2369E+02
   3.398  0.2389E+00  0.2369E+02
   3.408  0.2381E+00  0.2369E+02
   3.418  0.2374E+00  0.2370E+02
   3.428  0.2368E+00  0.2370E+02
   3.438  0.2362E+00  0.2370E+02
   3.448  0.2357E+00  0.2370E+02
   3.458  0.2353E+00  0.2371E+02
   3.468  0.2348E+00  0.2371E+02
   3.478  0.2344E+00  0.2371E+02
   3.488  0.2340E+00  0.2371E+02
   3.498  0.2335E+00  0.2372E+02
   3.508  0.2331E+00  0.2372E+02
   3.518  0.2326E+00  0.2372E+02
   3.528  0.2321E+00  0.2372E+02
   3.538  0.2315E+00  0.2372E+02
   3.548  0.2309E+00  0.2373E+02
   3.558  0.2302E+00  0.2373E+02
   3.568  0.2295E+00  0.2373E+02
   3.578  0.2287E+00  0.2373E+02
   3.588  0.2277E+00  0.2374E+02
   3.598  0.2267E+00  0.2374E+02
   3.608  0.2257E+00  0.2374E+02
   3.618  0.2245E+00  0.2374E+02
   3.628  0.2232E+00  0.2374E+02
   3.638  0.2219E+00  0.2375E+02
   3.648  0.2205E+00  0.2375E+02
   3.658  0.2190E+00  0.2375E+02
   3.668  0.2174E+00  0.2375E+02
   3.678  0.2157E+00  0.2376E+02
   3.688  0.2140E+00  0.2376E+02
   3.698  0.2122E+00  0.2376E+02
   3.708  0.2103E+00  0.2376E+02
   3.718  0.2084E+00  0.2376E+02
   3.728  0.2064E+00  0.2377E+02
   3.738  0.2044E+00  0.2377E+02
   3.748  0.2024E+00  0.2377E+02
   3.758  0.2003E+00  0.2377E+02
   3.768  0.1983E+00  0.2377E+02
   3.778  0.1961E+00  0.2378E+02
   3.788  0.1940E+00  0.2378E+02
   3.798  0.1919E+00  0.2378E+02
   3.808  0.1898E+00  0.2378E+02
   3.818  0.1877E+00  0.2378E+02
   3.828  0.1856E+00  0.2379E+02
   3.838  0.1835E+00  0.2379E+02
   3.848  0.1815E+00  0.2379E+02
   3.858  0.1795E+00  0.2379E+02
   3.868  0.1775E+00  0.2379E+02
   3.878  0.1756E+00  0.2379E+02
   3.888  0.1738E+00  0.2380E+02
   3.898  0.1720E+00  0.2380E+02
   3.908  0.1703E+00  0.2380E+02
   3.918  0.1687E+00  0.2380E+02
   3.928  0.1672E+00  0.2380E+02
   3.938  0.1658E+00  0.2380E+02
   3.948  0.1645E+00  0.2381E+02
   3.958  0.1634E+00  0.2381E+02
   3.968  0.1624E+00  0.2381E+02
   3.978  0.1616E+00  0.2381E+02
   3.988  0.1609E+00  0.2381E+02
   3.998  0.1605E+00  0.2381E+02
   4.008  0.1603E+00  0.2382E+02
   4.018  0.1603E+00  0.2382E+02
   4.028  0.1606E+00  0.2382E+02
   4.038  0.1612E+00  0.2382E+02
   4.048  0.1621E+00  0.2382E+02
   4.058  0.1632E+00  0.2382E+02
   4.068  0.1648E+00  0.2383E+02
   4.078  0.1667E+00  0.2383E+02
   4.088  0.1690E+00  0.2383E+02
   4.098  0.1717E+00  0.2383E+02
   4.108  0.1748E+00  0.2383E+02
   4.118  0.1784E+00  0.2383E+02
   4.128  0.1825E+00  0.2384E+02
   4.138  0.1871E+00  0.2384E+02
   4.148  0.1922E+00  0.2384E+02
   4.158  0.1979E+00  0.2384E+02
   4.168  0.2042E+00  0.2384E+02
   4.178  0.2111E+00  0.2385E+02
   4.188  0.2186E+00  0.2385E+02
   4.198  0.2268E+00  0.2385E+02
   4.208  0.2357E+00  0.2385E+02
   4.218  0.2453E+00  0.2386E+02
   4.228  0.2555E+00  0.2386E+02
   4.238  0.2665E+00  0.2386E+02
   4.248  0.2783E+00  0.2386E+02
   4.258  0.2908E+00  0.2387E+02
   4.268  0.3041E+00  0.2387E+02
   4.278  0.3182E+00  0.2387E+02
   4.288  0.3331E+00  0.2388E+02
   4.298  0.3488E+00  0.2388E+02
   4.308  0.3653E+00  0.2388E+02
   4.318  0.3826E+00  0.2389E+02
   4.328  0.4007E+00  0.2389E+02
   4.338  0.4196E+00  0.2390E+02
   4.348  0.4393E+00  0.2390E+02
   4.358  0.4597E+00  0.2390E+02
   4.368  0.4809E+00  0.2391E+02
   4.378  0.5028E+00  0.2391E+02
   4.388  0.5254E+00  0.2392E+02
   4.398  0.5486E+00  0.2392E+02
   4.408  0.5725E+00  0.2393E+02
   4.418  0.5970E+00  0.2394E+02
   4.428  0.6220E+00  0.2394E+02
   4.438  0.6475E+00  0.2395E+02
   4.448  0.6735E+00  0.2396E+02
   4.458  0.6998E+00  0.2396E+02
   4.468  0.7265E+00  0.2397E+02
   4.478  0.7534E+00  0.2398E+02
   4.488  0.7806E+00  0.2399E+02
   4.498  0.8079E+00  0.2399E+02
   4.508  0.8353E+00  0.2400E+02
   4.518  0.8626E+00  0.2401E+02
   4.528  0.8899E+00  0.2402E+02
   4.538  0.9171E+00  0.2403E+02
   4.548  0.9441E+00  0.2404E+02
   4.558  0.9707E+00  0.2405E+02
   4.568  0.9970E+00  0.2406E+02
   4.578  0.1023E+01  0.2407E+02
   4.588  0.1048E+01  0.2408E+02
   4.598  0.1073E+01  0.2409E+02
   4.608  0.1097E+01  0.2410E+02
   4.618  0.1121E+01  0.2411E+02
   4.628  0.1144E+01  0.2412E+02
   4.638  0.1166E+01  0.2413E+02
   4.648  0.1187E+01  0.2415E+02
   4.658  0.1207E+01  0.2416E+02
   4.668  0.1227E+01  0.2417E+02
   4.678  0.1245E+01  0.2418E+02
   4.688  0.1263E+01  0.2420E+02
   4.698  0.1279E+01  0.2421E+02
   4.708  0.1295E+01  0.2422E+02
   4.718  0.1309E+01  0.2423E+02
   4.728  0.1323E+01  0.2425E+02
   4.738  0.1336E+01  0.2426E+02
   4.748  0.1347E+01  0.2427E+02
   4.758  0.1358E+01  0.2429E+02
   4.768  0.1367E+01  0.2430E+02
   4.778  0.1376E+01  0.2432E+02
   4.788  0.1384E+01  0.2433E+02
   4.798  0.1391E+01  0.2434E+02
   4.808  0.1397E+01  0.2436E+02
   4.818  0.1402E+01  0.2437E+02
   4.828  0.1407E+01  0.2439E+02
   4.838  0.1411E+01  0.2440E+02
   4.848  0.1414E+01  0.2441E+02
   4.858  0.1417E+01  0.2443E+02
   4.868  0.1420E+01  0.2444E+02
   4.878  0.1421E+01  0.2446E+02
   4.888  0.1423E+01  0.2447E+02
   4.898  0.1424E+01  0.2448E+02
   4.908  0.1425E+01  0.2450E+02
   4.918  0.1425E+01  0.2451E+02
   4.928  0.1426E+01  0.2453E+02
   4.938  0.1426E+01  0.2454E+02
   4.948  0.1426E+01  0.2456E+02
   4.958  0.1426E+01  0.2457E+02
   4.968  0.1427E+01  0.2458E+02
   4.978  0.1427E+01  0.2460E+02
   4.988  0.1427E+01  0.2461E+02
   4.998  0.1428E+01  0.2463E+02
   5.008  0.1429E+01  0.2464E+02
   5.018  0.1430E+01  0.2466E+02
   5.028  0.1431E+01  0.2467E+02
   5.038  0.1432E+01  0.2468E+02
   5.048  0.1434E+01  0.2470E+02
   5.058  0.1436E+01  0.2471E+02
   5.068  0.1438E+01  0.2473E+02
   5.078  0.1441E+01  0.2474E+02
   5.088  0.1443E+01  0.2476E+02
   5.098  0.1447E+01  0.2477E+02
   5.108  0.1450E+01  0.2479E+02
   5.118  0.1454E+01  0.2480E+02
   5.128  0.1458E+01  0.2481E+02
   5.138  0.1462E+01  0.2483E+02
   5.148  0.1467E+01  0.2484E+02
   5.158  0.1471E+01  0.2486E+02
   5.168  0.1476E+01  0.2487E+02
   5.178  0.1482E+01  0.2489E+02
   5.188  0.1487E+01  0.2490E+02
   5.198  0.1493E+01  0.2492E+02
   5.208  0.1499E+01  0.2493E+02
   5.218  0.1505E+01  0.2495E+02
   5.228  0.1511E+01  0.2496E+02
   5.238  0.1517E+01  0.2498E+02
   5.248  0.1523E+01  0.2499E+02
   5.258  0.1530E+01  0.2501E+02
   5.268  0.1536E+01  0.2502E+02
   5.278  0.1543E+01  0.2504E+02
   5.288  0.1550E+01  0.2506E+02
   5.298  0.1557E+01  0.2507E+02
   5.308  0.1563E+01  0.2509E+02
   5.318  0.1570E+01  0.2510E+02
   5.328  0.1577E+01  0.2512E+02
   5.338  0.1584E+01  0.2513E+02
   5.348  0.1591E+01  0.2515E+02
   5.358  0.1598E+01  0.2517E+02
   5.368  0.1606E+01  0.2518E+02
   5.378  0.1613E+01  0.2520E+02
   5.388  0.1620E+01  0.2521E+02
   5.398  0.1627E+01  0.2523E+02
   5.408  0.1634E+01  0.2525E+02
   5.418  0.1641E+01  0.2526E+02
   5.428  0.1648E+01  0.2528E+02
   5.438  0.1655E+01  0.2530E+02
   5.448  0.1662E+01  0.2531E+02
   5.458  0.1669E+01  0.2533E+02
   5.468  0.1676E+01  0.2535E+02
   5.478  0.1682E+01  0.2536E+02
   5.488  0.1689E+01  0.2538E+02
   5.498  0.1695E+01  0.2540E+02
   5.508  0.1701E+01  0.2541E+02
   5.518  0.1708E+01  0.2543E+02
   5.528  0.1713E+01  0.2545E+02
   5.538  0.1719E+01  0.2547E+02
   5.548  0.1725E+01  0.2548E+02
   5.558  0.1730E+01  0.2550E+02
   5.568  0.1735E+01  0.2552E+02
   5.578  0.1739E+01  0.2553E+02
   5.588  0.1744E+01  0.2555E+02
   5.598  0.1748E+01  0.2557E+02
   5.608  0.1751E+01  0.2559E+02
   5.618  0.1755E+01  0.2560E+02
   5.628  0.1758E+01  0.2562E+02
   5.638  0.1760E+01  0.2564E+02
   5.648  0.1763E+01  0.2566E+02
   5.658  0.1765E+01  0.2567E+02
   5.668  0.1766E+01  0.2569E+02
   5.678  0.1768E+01  0.2571E+02
   5.688  0.1769E+01  0.2573E+02
   5.698  0.1769E+01  0.2575E+02
   5.708  0.1769E+01  0.2576E+02
   5.718  0.1769E+01  0.2578E+02
   5.728  0.1769E+01  0.2580E+02
   5.738  0.1768E+01  0.2582E+02
   5.748  0.1767E+01  0.2583E+02
   5.758  0.1766E+01  0.2585E+02
   5.768  0.1764E+01  0.2587E+02
   5.778  0.1763E+01  0.2589E+02
   5.788  0.1760E+01  0.2590E+02
   5.798  0.1758E+01  0.2592E+02
   5.808  0.1756E+01  0.2594E+02
   5.818  0.1753E+01  0.2596E+02
   5.828  0.1750E+01  0.2597E+02
   5.838  0.1747E+01  0.2599E+02
   5.848  0.1743E+01  0.2601E+02
   5.858  0.1740E+01  0.2603E+02
   5.868  0.1736E+01  0.2604E+02
   5.878  0.1732E+01  0.2606E+02
   5.888  0.1727E+01  0.2608E+02
   5.898  0.1723E+01  0.2610E+02
   5.908  0.1718E+01  0.2611E+02
   5.918  0.1714E+01  0.2613E+02
   5.928  0.1709E+01  0.2615E+02
   5.938  0.1703E+01  0.2616E+02
   5.948  0.1698E+01  0.2618E+02
   5.958  0.1692E+01  0.2620E+02
   5.968  0.1687E+01  0.2622E+02
   5.978  0.1681E+01  0.2623E+02
   5.988  0.1675E+01  0.2625E+02
   5.998  0.1668E+01  0.2627E+02
   6.008  0.1662E+01  0.2628E+02
   6.018  0.1655E+01  0.2630E+02
   6.028  0.1649E+01  0.2632E+02
   6.038  0.1642E+01  0.2633E+02
   6.048  0.1635E+01  0.2635E+02
   6.058  0.1629E+01  0.2636E+02
   6.068  0.1622E+01  0.2638E+02
   6.078  0.1615E+01  0.2640E+02
   6.088  0.1608E+01  0.2641E+02
   6.098  0.1601E+01  0.2643E+02
   6.108  0.1595E+01  0.2644E+02
   6.118  0.1588E+01  0.2646E+02
   6.128  0.1582E+01  0.2648E+02
   6.138  0.1576E+01  0.2649E+02
   6.148  0.1570E+01  0.2651E+02
   6.158  0.1564E+01  0.2652E+02
   6.168  0.1558E+01  0.2654E+02
   6.178  0.1553E+01  0.2655E+02
   6.188  0.1548E+01  0.2657E+02
   6.198  0.1543E+01  0.2659E+02
   6.208  0.1539E+01  0.2660E+02
   6.218  0.1535E+01  0.2662E+02
   6.228  0.1531E+01  0.2663E+02
   6.238  0.1527E+01  0.2665E+02
   6.248  0.1524E+01  0.2666E+02
   6.258  0.1521E+01  0.2668E+02
   6.268  0.1518E+01  0.2669E+02
   6.278  0.1515E+01  0.2671E+02
   6.288  0.1513E+01  0.2672E+02
   6.298  0.1510E+01  0.2674E+02
   6.308  0.1508E+01  0.2675E+02
   6.318  0.1506E+01  0.2677E+02
   6.328  0.1504E+01  0.2678E+02
   6.338  0.1502E+01  0.2680E+02
   6.348  0.1500E+01  0.2681E+02
   6.358  0.1498E+01  0.2683E+02
   6.368  0.1495E+01  0.2684E+02
   6.378  0.1493E+01  0.2686E+02
   6.388  0.1491E+01  0.2687E+02
   6.398  0.1488E+01  0.2689E+02
   6.408  0.1485E+01  0.2690E+02
   6.418  0.1482E+01  0.2692E+02
   6.428  0.1479E+01  0.2693E+02
   6.438  0.1476E+01  0.2695E+02
   6.448  0.1472E+01  0.2696E+02
   6.458  0.1468E+01  0.2698E+02
   6.468  0.1463E+01  0.2699E+02
   6.478  0.1458E+01  0.2701E+02
   6.488  0.1453E+01  0.2702E+02
   6.498  0.1448E+01  0.2703E+02
   6.508  0.1442E+01  0.2705E+02
   6.518  0.1435E+01  0.2706E+02
   6.528  0.1429E+01  0.2708E+02
   6.538  0.1422E+01  0.2709E+02
   6.548  0.1414E+01  0.2711E+02
   6.558  0.1406E+01  0.2712E+02
   6.568  0.1398E+01  0.2713E+02
   6.578  0.1390E+01  0.2715E+02
   6.588  0.1381E+01  0.2716E+02
   6.598  0.1371E+01  0.2718E+02
   6.608  0.1362E+01  0.2719E+02
   6.618  0.1352E+01  0.2720E+02
   6.628  0.1342E+01  0.2722E+02
   6.638  0.1331E+01  0.2723E+02
   6.648  0.1320E+01  0.2724E+02
   6.658  0.1309E+01  0.2726E+02
   6.668  0.1297E+01  0.2727E+02
   6.678  0.1286E+01  0.2728E+02
   6.688  0.1274E+01  0.2729E+02
   6.698  0.1262E+01  0.2731E+02
   6.708  0.1249E+01  0.2732E+02
   6.718  0.1237E+01  0.2733E+02
   6.728  0.1224E+01  0.2734E+02
   6.738  0.1211E+01  0.2736E+02
   6.748  0.1198E+01  0.2737E+02
   6.758  0.1184E+01  0.2738E+02
   6.768  0.1171E+01  0.2739E+02
   6.778  0.1157E+01  0.2740E+02
   6.788  0.1143E+01  0.2741E+02
   6.798  0.1129E+01  0.2743E+02
   6.808  0.1115E+01  0.2744E+02
   6.818  0.1101E+01  0.2745E+02
   6.828  0.1087E+01  0.2746E+02
   6.838  0.1073E+01  0.2747E+02
   6.848  0.1059E+01  0.2748E+02
   6.858  0.1044E+01  0.2749E+02
   6.868  0.1030E+01  0.2750E+02
   6.878  0.1015E+01  0.2751E+02
   6.888  0.1001E+01  0.2752E+02
   6.898  0.9860E+00  0.2753E+02
   6.908  0.9713E+00  0.2754E+02
   6.918  0.9567E+00  0.2755E+02
   6.928  0.9421E+00  0.2756E+02
   6.938  0.9275E+00  0.2757E+02
   6.948  0.9129E+00  0.2758E+02
   6.958  0.8984E+00  0.2759E+02
   6.968  0.8839E+00  0.2760E+02
   6.978  0.8694E+00  0.2760E+02
   6.988  0.8550E+00  0.2761E+02
   6.998  0.8407E+00  0.2762E+02
   7.008  0.8265E+00  0.2763E+02
   7.018  0.8124E+00  0.2764E+02
   7.028  0.7983E+00  0.2765E+02
   7.038  0.7845E+00  0.2765E+02
   7.048  0.7707E+00  0.2766E+02
   7.058  0.7571E+00  0.2767E+02
   7.068  0.7436E+00  0.2768E+02
   7.078  0.7303E+00  0.2768E+02
   7.088  0.7172E+00  0.2769E+02
   7.098  0.7042E+00  0.2770E+02
   7.108  0.6915E+00  0.2771E+02
   7.118  0.6789E+00  0.2771E+02
   7.128  0.6666E+00  0.2772E+02
   7.138  0.6545E+00  0.2773E+02
   7.148  0.6425E+00  0.2773E+02
   7.158  0.6308E+00  0.2774E+02
   7.168  0.6194E+00  0.2774E+02
   7.178  0.6081E+00  0.2775E+02
   7.188  0.5971E+00  0.2776E+02
   7.198  0.5863E+00  0.2776E+02
   7.208  0.5758E+00  0.2777E+02
   7.218  0.5654E+00  0.2777E+02
   7.228  0.5553E+00  0.2778E+02
   7.238  0.5454E+00  0.2778E+02
   7.248  0.5357E+00  0.2779E+02
   7.258  0.5263E+00  0.2779E+02
   7.268  0.5170E+00  0.2780E+02
   7.278  0.5079E+00  0.2781E+02
   7.288  0.4991E+00  0.2781E+02
   7.298  0.4904E+00  0.2782E+02
   7.308  0.4819E+00  0.2782E+02
   7.318  0.4735E+00  0.2782E+02
   7.328  0.4653E+00  0.2783E+02
   7.338  0.4573E+00  0.2783E+02
   7.348  0.4493E+00  0.2784E+02
   7.358  0.4416E+00  0.2784E+02
   7.368  0.4339E+00  0.2785E+02
   7.378  0.4263E+00  0.2785E+02
   7.388  0.4189E+00  0.2786E+02
   7.398  0.4115E+00  0.2786E+02
   7.408  0.4042E+00  0.2786E+02
   7.418  0.3970E+00  0.2787E+02
   7.428  0.3899E+00  0.2787E+02
   7.438  0.3828E+00  0.2788E+02
   7.448  0.3758E+00  0.2788E+02
   7.458  0.3688E+00  0.2788E+02
   7.468  0.3619E+00  0.2789E+02
   7.478  0.3551E+00  0.2789E+02
   7.488  0.3482E+00  0.2789E+02
   7.498  0.3415E+00  0.2790E+02
   7.508  0.3347E+00  0.2790E+02
   7.518  0.3280E+00  0.2790E+02
   7.528  0.3214E+00  0.2791E+02
   7.538  0.3148E+00  0.2791E+02
   7.548  0.3083E+00  0.2791E+02
   7.558  0.3018E+00  0.2792E+02
   7.568  0.2953E+00  0.2792E+02
   7.578  0.2890E+00  0.2792E+02
   7.588  0.2827E+00  0.2792E+02
   7.598  0.2764E+00  0.2793E+02
   7.608  0.2703E+00  0.2793E+02
   7.618  0.2642E+00  0.2793E+02
   7.628  0.2582E+00  0.2794E+02
   7.638  0.2523E+00  0.2794E+02
   7.648  0.2465E+00  0.2794E+02
   7.658  0.2408E+00  0.2794E+02
   7.668  0.2352E+00  0.2795E+02
   7.678  0.2298E+00  0.2795E+02
   7.688  0.2244E+00  0.2795E+02
   7.698  0.2192E+00  0.2795E+02
   7.708  0.2141E+00  0.2795E+02
   7.718  0.2091E+00  0.2796E+02
   7.728  0.2042E+00  0.2796E+02
   7.738  0.1995E+00  0.2796E+02
   7.748  0.1948E+00  0.2796E+02
   7.758  0.1904E+00  0.2796E+02
   7.768  0.1860E+00  0.2797E+02
   7.778  0.1817E+00  0.2797E+02
   7.788  0.1776E+00  0.2797E+02
   7.798  0.1736E+00  0.2797E+02
   7.808  0.1697E+00  0.2797E+02
   7.818  0.1659E+00  0.2797E+02
   7.828  0.1623E+00  0.2798E+02
   7.838  0.1587E+00  0.2798E+02
   7.848  0.1553E+00  0.2798E+02
   7.858  0.1519E+00  0.2798E+02
   7.868  0.1487E+00  0.2798E+02
   7.878  0.1456E+00  0.2798E+02
   7.888  0.1426E+00  0.2799E+02
   7.898  0.1397E+00  0.2799E+02
   7.908  0.1369E+00  0.2799E+02
   7.918  0.1342E+00  0.2799E+02
   7.928  0.1316E+00  0.2799E+02
   7.938  0.1291E+00  0.2799E+02
   7.948  0.1268E+00  0.2799E+02
   7.958  0.1246E+00  0.2799E+02
   7.968  0.1225E+00  0.2800E+02
   7.978  0.1206E+00  0.2800E+02
   7.988  0.1189E+00  0.2800E+02
   7.998  0.1173E+00  0.2800E+02
   8.008  0.1158E+00  0.2800E+02
   8.018  0.1146E+00  0.2800E+02
   8.028  0.1136E+00  0.2800E+02
   8.038  0.1127E+00  0.2800E+02
   8.048  0.1121E+00  0.2800E+02
   8.058  0.1117E+00  0.2801E+02
   8.068  0.1116E+00  0.2801E+02
   8.078  0.1117E+00  0.2801E+02
   8.088  0.1121E+00  0.2801E+02
   8.098  0.1127E+00  0.2801E+02
   8.108  0.1136E+00  0.2801E+02
   8.118  0.1149E+00  0.2801E+02
   8.128  0.1164E+00  0.2801E+02
   8.138  0.1182E+00  0.2802E+02
   8.148  0.1204E+00  0.2802E+02
   8.158  0.1228E+00  0.2802E+02
   8.168  0.1256E+00  0.2802E+02
   8.178  0.1287E+00  0.2802E+02
   8.188  0.1320E+00  0.2802E+02
   8.198  0.1357E+00  0.2802E+02
   8.208  0.1397E+00  0.2802E+02
   8.218  0.1441E+00  0.2803E+02
   8.228  0.1486E+00  0.2803E+02
   8.238  0.1535E+00  0.2803E+02
   8.248  0.1587E+00  0.2803E+02
   8.258  0.1641E+00  0.2803E+02
   8.268  0.1697E+00  0.2803E+02
   8.278  0.1756E+00  0.2804E+02
   8.288  0.1817E+00  0.2804E+02
   8.298  0.1880E+00  0.2804E+02
   8.308  0.1945E+00  0.2804E+02
   8.318  0.2011E+00  0.2804E+02
   8.328  0.2080E+00  0.2804E+02
   8.338  0.2149E+00  0.2805E+02
   8.348  0.2220E+00  0.2805E+02
   8.358  0.2292E+00  0.2805E+02
   8.368  0.2366E+00  0.2805E+02
   8.378  0.2440E+00  0.2806E+02
   8.388  0.2515E+00  0.2806E+02
   8.398  0.2591E+00  0.2806E+02
   8.408  0.2668E+00  0.2806E+02
   8.418  0.2746E+00  0.2807E+02
   8.428  0.2824E+00  0.2807E+02
   8.438  0.2904E+00  0.2807E+02
   8.448  0.2984E+00  0.2808E+02
   8.458  0.3065E+00  0.2808E+02
   8.468  0.3148E+00  0.2808E+02
   8.478  0.3232E+00  0.2809E+02
   8.488  0.3317E+00  0.2809E+02
   8.498  0.3403E+00  0.2809E+02
   8.508  0.3492E+00  0.2810E+02
   8.518  0.3582E+00  0.2810E+02
   8.528  0.3675E+00  0.2810E+02
   8.538  0.3770E+00  0.2811E+02
   8.548  0.3867E+00  0.2811E+02
   8.558  0.3967E+00  0.2811E+02
   8.568  0.4071E+00  0.2812E+02
   8.578  0.4178E+00  0.2812E+02
   8.588  0.4288E+00  0.2813E+02
   8.598  0.4403E+00  0.2813E+02
   8.608  0.4521E+00  0.2814E+02
   8.618  0.4644E+00  0.2814E+02
   8.628  0.4771E+00  0.2815E+02
   8.638  0.4903E+00  0.2815E+02
   8.648  0.5040E+00  0.2816E+02
   8.658  0.5182E+00  0.2816E+02
   8.668  0.5329E+00  0.2817E+02
   8.678  0.5481E+00  0.2817E+02
   8.688  0.5639E+00  0.2818E+02
   8.698  0.5802E+00  0.2818E+02
   8.708  0.5971E+00  0.2819E+02
   8.718  0.6146E+00  0.2819E+02
   8.728  0.6326E+00  0.2820E+02
   8.738  0.6511E+00  0.2821E+02
   8.748  0.6702E+00  0.2821E+02
   8.758  0.6899E+00  0.2822E+02
   8.768  0.7100E+00  0.2823E+02
   8.778  0.7307E+00  0.2824E+02
   8.788  0.7519E+00  0.2824E+02
   8.798  0.7735E+00  0.2825E+02
   8.808  0.7956E+00  0.2826E+02
   8.818  0.8181E+00  0.2827E+02
   8.828  0.8410E+00  0.2828E+02
   8.838  0.8642E+00  0.2828E+02
   8.848  0.8879E+00  0.2829E+02
   8.858  0.9118E+00  0.2830E+02
   8.868  0.9360E+00  0.2831E+02
   8.878  0.9604E+00  0.2832E+02
   8.888  0.9851E+00  0.2833E+02
   8.898  0.1010E+01  0.2834E+02
   8.908  0.1035E+01  0.2835E+02
   8.918  0.1060E+01  0.2836E+02
   8.928  0.1085E+01  0.2837E+02
   8.938  0.1110E+01  0.2838E+02
   8.948  0.1135E+01  0.2840E+02
   8.958  0.1160E+01  0.2841E+02
   8.968  0.1185E+01  0.2842E+02
   8.978  0.1210E+01  0.2843E+02
   8.988  0.1235E+01  0.2844E+02
   8.998  0.1260E+01  0.2846E+02
   9.008  0.1284E+01  0.2847E+02
   9.018  0.1308E+01  0.2848E+02
   9.028  0.1332E+01  0.2849E+02
   9.038  0.1356E+01  0.2851E+02
   9.048  0.1379E+01  0.2852E+02
   9.058  0.1402E+01  0.2854E+02
   9.068  0.1425E+01  0.2855E+02
   9.078  0.1447E+01  0.2856E+02
   9.088  0.1469E+01  0.2858E+02
   9.098  0.1491E+01  0.2859E+02
   9.108  0.1512E+01  0.2861E+02
   9.118  0.1532E+01  0.2862E+02
   9.128  0.1552E+01  0.2864E+02
   9.138  0.1572E+01  0.2866E+02
   9.148  0.1591E+01  0.2867E+02
   9.158  0.1610E+01  0.2869E+02
   9.168  0.1628E+01  0.2870E+02
   9.178  0.1646E+01  0.2872E+02
   9.188  0.1663E+01  0.2874E+02
   9.198  0.1680E+01  0.2875E+02
   9.208  0.1696E+01  0.2877E+02
   9.218  0.1711E+01  0.2879E+02
   9.228  0.1726E+01  0.2881E+02
   9.238  0.1740E+01  0.2882E+02
   9.248  0.1753E+01  0.2884E+02
   9.258  0.1766E+01  0.2886E+02
   9.268  0.1777E+01  0.2888E+02
   9.278  0.1788E+01  0.2889E+02
   9.288  0.1799E+01  0.2891E+02
   9.298  0.1808E+01  0.2893E+02
   9.308  0.1816E+01  0.2895E+02
   9.318  0.1824E+01  0.2897E+02
   9.328  0.1830E+01  0.2898E+02
   9.338  0.1836E+01  0.2900E+02
   9.348  0.1840E+01  0.2902E+02
   9.358  0.1844E+01  0.2904E+02
   9.368  0.1846E+01  0.2906E+02
   9.378  0.1847E+01  0.2908E+02
   9.388  0.1847E+01  0.2910E+02
   9.398  0.1846E+01  0.2911E+02
   9.408  0.1844E+01  0.2913E+02
   9.418  0.1840E+01  0.2915E+02
   9.428  0.1835E+01  0.2917E+02
   9.438  0.1830E+01  0.2919E+02
   9.448  0.1823E+01  0.2921E+02
   9.458  0.1815E+01  0.2922E+02
   9.468  0.1805E+01  0.2924E+02
   9.478  0.1795E+01  0.2926E+02
   9.488  0.1784E+01  0.2928E+02
   9.498  0.1772E+01  0.2930E+02
   9.508  0.1758E+01  0.2931E+02
   9.518  0.1744E+01  0.2933E+02
   9.528  0.1730E+01  0.2935E+02
   9.538  0.1714E+01  0.2936E+02
   9.548  0.1698E+01  0.2938E+02
   9.558  0.1681E+01  0.2940E+02
   9.568  0.1664E+01  0.2942E+02
   9.578  0.1647E+01  0.2943E+02
   9.588  0.1629E+01  0.2945E+02
   9.598  0.1611E+01  0.2946E+02
   9.608  0.1593E+01  0.2948E+02
   9.618  0.1576E+01  0.2950E+02
   9.628  0.1558E+01  0.2951E+02
   9.638  0.1540E+01  0.2953E+02
   9.648  0.1523E+01  0.2954E+02
   9.658  0.1507E+01  0.2956E+02
   9.668  0.1491E+01  0.2957E+02
   9.678  0.1475E+01  0.2959E+02
   9.688  0.1460E+01  0.2960E+02
   9.698  0.1446E+01  0.2962E+02
   9.708  0.1433E+01  0.2963E+02
   9.718  0.1421E+01  0.2964E+02
   9.728  0.1409E+01  0.2966E+02
   9.738  0.1398E+01  0.2967E+02
   9.748  0.1389E+01  0.2969E+02
   9.758  0.1380E+01  0.2970E+02
   9.768  0.1372E+01  0.2971E+02
   9.778  0.1365E+01  0.2973E+02
   9.788  0.1359E+01  0.2974E+02
   9.798  0.1354E+01  0.2975E+02
   9.808  0.1350E+01  0.2977E+02
   9.818  0.1347E+01  0.2978E+02
   9.828  0.1345E+01  0.2979E+02
   9.838  0.1343E+01  0.2981E+02
   9.848  0.1342E+01  0.2982E+02
   9.858  0.1341E+01  0.2984E+02
   9.868  0.1341E+01  0.2985E+02
   9.878  0.1342E+01  0.2986E+02
   9.888  0.1342E+01  0.2988E+02
   9.898  0.1343E+01  0.2989E+02
   9.908  0.1344E+01  0.2990E+02
   9.918  0.1346E+01  0.2992E+02
   9.928  0.1347E+01  0.2993E+02
   9.938  0.1348E+01  0.2994E+02
   9.948  0.1349E+01  0.2996E+02
   9.958  0.1349E+01  0.2997E+02
   9.968  0.1349E+01  0.2998E+02
   9.978  0.1349E+01  0.3000E+02
   9.988  0.1348E+01  0.3001E+02
   9.998  0.1347E+01  0.3002E+02
  10.008  0.1344E+01  0.3004E+02
  10.018  0.1342E+01  0.3005E+02
  10.028  0.1338E+01  0.3006E+02
  10.038  0.1333E+01  0.3008E+02
  10.048  0.1328E+01  0.3009E+02
  10.058  0.1322E+01  0.3010E+02
  10.068  0.1315E+01  0.3012E+02
  10.078  0.1307E+01  0.3013E+02
  10.088  0.1298E+01  0.3014E+02
  10.098  0.1288E+01  0.3016E+02
  10.108  0.1278E+01  0.3017E+02
  10.118  0.1266E+01  0.3018E+02
  10.128  0.1254E+01  0.3019E+02
  10.138  0.1241E+01  0.3021E+02
  10.148  0.1228E+01  0.3022E+02
  10.158  0.1213E+01  0.3023E+02
  10.168  0.1199E+01  0.3024E+02
  10.178  0.1184E+01  0.3025E+02
  10.188  0.1168E+01  0.3027E+02
  10.198  0.1153E+01  0.3028E+02
  10.208  0.1137E+01  0.3029E+02
  10.218  0.1121E+01  0.3030E+02
  10.228  0.1105E+01  0.3031E+02
  10.238  0.1090E+01  0.3032E+02
  10.248  0.1075E+01  0.3033E+02
  10.258  0.1060E+01  0.3034E+02
  10.268  0.1045E+01  0.3035E+02
  10.278  0.1032E+01  0.3036E+02
  10.288  0.1019E+01  0.3037E+02
  10.298  0.1007E+01  0.3038E+02
  10.308  0.9958E+00  0.3039E+02
  10.318  0.9858E+00  0.3040E+02
  10.328  0.9770E+00  0.3041E+02
  10.338  0.9694E+00  0.3042E+02
  10.348  0.9632E+00  0.3043E+02
  10.358  0.9583E+00  0.3044E+02
  10.368  0.9549E+00  0.3045E+02
  10.378  0.9531E+00  0.3046E+02
  10.388  0.9528E+00  0.3047E+02
  10.398  0.9541E+00  0.3048E+02
  10.408  0.9570E+00  0.3049E+02
  10.418  0.9615E+00  0.3050E+02
  10.428  0.9677E+00  0.3051E+02
  10.438  0.9756E+00  0.3052E+02
  10.448  0.9850E+00  0.3053E+02
  10.458  0.9960E+00  0.3054E+02
  10.468  0.1009E+01  0.3055E+02
  10.478  0.1023E+01  0.3056E+02
  10.488  0.1038E+01  0.3057E+02
  10.498  0.1055E+01  0.3058E+02
  10.508  0.1073E+01  0.3059E+02
  10.518  0.1093E+01  0.3060E+02
  10.528  0.1113E+01  0.3061E+02
  10.538  0.1135E+01  0.3062E+02
  10.548  0.1157E+01  0.3064E+02
  10.558  0.1180E+01  0.3065E+02
  10.568  0.1204E+01  0.3066E+02
  10.578  0.1229E+01  0.3067E+02
  10.588  0.1254E+01  0.3069E+02
  10.598  0.1279E+01  0.3070E+02
  10.608  0.1304E+01  0.3071E+02
  10.618  0.1330E+01  0.3072E+02
  10.628  0.1356E+01  0.3074E+02
  10.638  0.1381E+01  0.3075E+02
  10.648  0.1406E+01  0.3077E+02
  10.658  0.1431E+01  0.3078E+02
  10.668  0.1455E+01  0.3079E+02
  10.678  0.1479E+01  0.3081E+02
  10.688  0.1502E+01  0.3082E+02
  10.698  0.1525E+01  0.3084E+02
  10.708  0.1546E+01  0.3086E+02
  10.718  0.1566E+01  0.3087E+02
  10.728  0.1586E+01  0.3089E+02
  10.738  0.1604E+01  0.3090E+02
  10.748  0.1622E+01  0.3092E+02
  10.758  0.1638E+01  0.3094E+02
  10.768  0.1653E+01  0.3095E+02
  10.778  0.1666E+01  0.3097E+02
  10.788  0.1679E+01  0.3099E+02
  10.798  0.1690E+01  0.3100E+02
  10.808  0.1700E+01  0.3102E+02
  10.818  0.1708E+01  0.3104E+02
  10.828  0.1715E+01  0.3105E+02
  10.838  0.1721E+01  0.3107E+02
  10.848  0.1726E+01  0.3109E+02
  10.858  0.1729E+01  0.3111E+02
  10.868  0.1731E+01  0.3112E+02
  10.878  0.1732E+01  0.3114E+02
  10.888  0.1732E+01  0.3116E+02
  10.898  0.1731E+01  0.3117E+02
  10.908  0.1729E+01  0.3119E+02
  10.918  0.1726E+01  0.3121E+02
  10.928  0.1722E+01  0.3123E+02
  10.938  0.1717E+01  0.3124E+02
  10.948  0.1711E+01  0.3126E+02
  10.958  0.1705E+01  0.3128E+02
  10.968  0.1698E+01  0.3129E+02
  10.978  0.1691E+01  0.3131E+02
  10.988  0.1684E+01  0.3133E+02
  10.998  0.1675E+01  0.3134E+02
  11.008  0.1667E+01  0.3136E+02
  11.018  0.1659E+01  0.3138E+02
  11.028  0.1650E+01  0.3139E+02
  11.038  0.1641E+01  0.3141E+02
  11.048  0.1632E+01  0.3143E+02
  11.058  0.1624E+01  0.3144E+02
  11.068  0.1615E+01  0.3146E+02
  11.078  0.1607E+01  0.3148E+02
  11.088  0.1599E+01  0.3149E+02
  11.098  0.1591E+01  0.3151E+02
  11.108  0.1583E+01  0.3152E+02
  11.118  0.1575E+01  0.3154E+02
  11.128  0.1568E+01  0.3156E+02
  11.138  0.1562E+01  0.3157E+02
  11.148  0.1555E+01  0.3159E+02
  11.158  0.1550E+01  0.3160E+02
  11.168  0.1544E+01  0.3162E+02
  11.178  0.1539E+01  0.3163E+02
  11.188  0.1534E+01  0.3165E+02
  11.198  0.1530E+01  0.3166E+02
  11.208  0.1526E+01  0.3168E+02
  11.218  0.1523E+01  0.3169E+02
  11.228  0.1520E+01  0.3171E+02
  11.238  0.1517E+01  0.3172E+02
  11.248  0.1514E+01  0.3174E+02
  11.258  0.1512E+01  0.3175E+02
  11.268  0.1511E+01  0.3177E+02
  11.278  0.1509E+01  0.3178E+02
  11.288  0.1508E+01  0.3180E+02
  11.298  0.1507E+01  0.3181E+02
  11.308  0.1506E+01  0.3183E+02
  11.318  0.1506E+01  0.3184E+02
  11.328  0.1505E+01  0.3186E+02
  11.338  0.1505E+01  0.3187E+02
  11.348  0.1505E+01  0.3189E+02
  11.358  0.1505E+01  0.3190E+02
  11.368  0.1505E+01  0.3192E+02
  11.378  0.1505E+01  0.3194E+02
  11.388  0.1505E+01  0.3195E+02
  11.398  0.1505E+01  0.3197E+02
  11.408  0.1505E+01  0.3198E+02
  11.418  0.1505E+01  0.3200E+02
  11.428  0.1505E+01  0.3201E+02
  11.438  0.1505E+01  0.3203E+02
  11.448  0.1504E+01  0.3204E+02
  11.458  0.1504E+01  0.3206E+02
  11.468  0.1503E+01  0.3207E+02
  11.478  0.1502E+01  0.3209E+02
  11.488  0.1501E+01  0.3210E+02
  11.498  0.1500E+01  0.3212E+02
  11.508  0.1498E+01  0.3213E+02
  11.518  0.1497E+01  0.3215E+02
  11.528  0.1495E+01  0.3216E+02
  11.538  0.1492E+01  0.3218E+02
  11.548  0.1490E+01  0.3219E+02
  11.558  0.1487E+01  0.3221E+02
  11.568  0.1485E+01  0.3222E+02
  11.578  0.1482E+01  0.3223E+02
  11.588  0.1478E+01  0.3225E+02
  11.598  0.1475E+01  0.3226E+02
  11.608  0.1472E+01  0.3228E+02
  11.618  0.1469E+01  0.3229E+02
  11.628  0.1465E+01  0.3231E+02
  11.638  0.1462E+01  0.3232E+02
  11.648  0.1459E+01  0.3234E+02
  11.658  0.1456E+01  0.3235E+02
  11.668  0.1454E+01  0.3237E+02
  11.678  0.1451E+01  0.3238E+02
  11.688  0.1449E+01  0.3240E+02
  11.698  0.1448E+01  0.3241E+02
  11.708  0.1447E+01  0.3242E+02
  11.718  0.1447E+01  0.3244E+02
  11.728  0.1448E+01  0.3245E+02
  11.738  0.1449E+01  0.3247E+02
  11.748  0.1451E+01  0.3248E+02
  11.758  0.1454E+01  0.3250E+02
  11.768  0.1458E+01  0.3251E+02
  11.778  0.1463E+01  0.3253E+02
  11.788  0.1469E+01  0.3254E+02
  11.798  0.1476E+01  0.3256E+02
  11.808  0.1484E+01  0.3257E+02
  11.818  0.1493E+01  0.3259E+02
  11.828  0.1504E+01  0.3260E+02
  11.838  0.1515E+01  0.3262E+02
  11.848  0.1527E+01  0.3263E+02
  11.858  0.1541E+01  0.3265E+02
  11.868  0.1555E+01  0.3266E+02
  11.878  0.1570E+01  0.3268E+02
  11.888  0.1586E+01  0.3269E+02
  11.898  0.1603E+01  0.3271E+02
  11.908  0.1620E+01  0.3273E+02
  11.918  0.1638E+01  0.3274E+02
  11.928  0.1656E+01  0.3276E+02
  11.938  0.1675E+01  0.3278E+02
  11.948  0.1694E+01  0.3279E+02
  11.958  0.1713E+01  0.3281E+02
  11.968  0.1732E+01  0.3283E+02
  11.978  0.1751E+01  0.3284E+02
  11.988  0.1769E+01  0.3286E+02
  11.998  0.1787E+01  0.3288E+02
  12.008  0.1805E+01  0.3290E+02
  12.018  0.1822E+01  0.3292E+02
  12.028  0.1838E+01  0.3293E+02
  12.038  0.1853E+01  0.3295E+02
  12.048  0.1867E+01  0.3297E+02
  12.058  0.1880E+01  0.3299E+02
  12.068  0.1892E+01  0.3301E+02
  12.078  0.1902E+01  0.3303E+02
  12.088  0.1911E+01  0.3305E+02
  12.098  0.1919E+01  0.3307E+02
  12.108  0.1925E+01  0.3309E+02
  12.118  0.1929E+01  0.3311E+02
  12.128  0.1932E+01  0.3312E+02
  12.138  0.1933E+01  0.3314E+02
  12.148  0.1933E+01  0.3316E+02
  12.158  0.1930E+01  0.3318E+02
  12.168  0.1926E+01  0.3320E+02
  12.178  0.1921E+01  0.3322E+02
  12.188  0.1913E+01  0.3324E+02
  12.198  0.1904E+01  0.3326E+02
  12.208  0.1894E+01  0.3328E+02
  12.218  0.1882E+01  0.3330E+02
  12.228  0.1868E+01  0.3332E+02
  12.238  0.1853E+01  0.3333E+02
  12.248  0.1837E+01  0.3335E+02
  12.258  0.1820E+01  0.3337E+02
  12.268  0.1802E+01  0.3339E+02
  12.278  0.1782E+01  0.3341E+02
  12.288  0.1762E+01  0.3342E+02
  12.298  0.1741E+01  0.3344E+02
  12.308  0.1720E+01  0.3346E+02
  12.318  0.1698E+01  0.3348E+02
  12.328  0.1675E+01  0.3349E+02
  12.338  0.1653E+01  0.3351E+02
  12.348  0.1630E+01  0.3353E+02
  12.358  0.1608E+01  0.3354E+02
  12.368  0.1586E+01  0.3356E+02
  12.378  0.1563E+01  0.3357E+02
  12.388  0.1542E+01  0.3359E+02
  12.398  0.1521E+01  0.3360E+02
  12.408  0.1500E+01  0.3362E+02
  12.418  0.1481E+01  0.3363E+02
  12.428  0.1462E+01  0.3365E+02
  12.438  0.1444E+01  0.3366E+02
  12.448  0.1427E+01  0.3368E+02
  12.458  0.1411E+01  0.3369E+02
  12.468  0.1396E+01  0.3370E+02
  12.478  0.1382E+01  0.3372E+02
  12.488  0.1369E+01  0.3373E+02
  12.498  0.1358E+01  0.3375E+02
  12.508  0.1347E+01  0.3376E+02
  12.518  0.1338E+01  0.3377E+02
  12.528  0.1330E+01  0.3379E+02
  12.538  0.1323E+01  0.3380E+02
  12.548  0.1317E+01  0.3381E+02
  12.558  0.1312E+01  0.3383E+02
  12.568  0.1308E+01  0.3384E+02
  12.578  0.1305E+01  0.3385E+02
  12.588  0.1303E+01  0.3386E+02
  12.598  0.1302E+01  0.3388E+02
  12.608  0.1301E+01  0.3389E+02
  12.618  0.1301E+01  0.3390E+02
  12.628  0.1302E+01  0.3392E+02
  12.638  0.1303E+01  0.3393E+02
  12.648  0.1305E+01  0.3394E+02
  12.658  0.1307E+01  0.3396E+02
  12.668  0.1309E+01  0.3397E+02
  12.678  0.1311E+01  0.3398E+02
  12.688  0.1314E+01  0.3400E+02
  12.698  0.1317E+01  0.3401E+02
  12.708  0.1319E+01  0.3402E+02
  12.718  0.1322E+01  0.3403E+02
  12.728  0.1325E+01  0.3405E+02
  12.738  0.1327E+01  0.3406E+02
  12.748  0.1329E+01  0.3407E+02
  12.758  0.1331E+01  0.3409E+02
  12.768  0.1333E+01  0.3410E+02
  12.778  0.1335E+01  0.3411E+02
  12.788  0.1336E+01  0.3413E+02
  12.798  0.1337E+01  0.3414E+02
  12.808  0.1338E+01  0.3415E+02
  12.818  0.1338E+01  0.3417E+02
  12.828  0.1339E+01  0.3418E+02
  12.838  0.1339E+01  0.3419E+02
  12.848  0.1338E+01  0.3421E+02
  12.858  0.1338E+01  0.3422E+02
  12.868  0.1337E+01  0.3424E+02
  12.878  0.1337E+01  0.3425E+02
  12.888  0.1336E+01  0.3426E+02
  12.898  0.1335E+01  0.3428E+02
  12.908  0.1334E+01  0.3429E+02
  12.918  0.1333E+01  0.3430E+02
  12.928  0.1332E+01  0.3432E+02
  12.938  0.1331E+01  0.3433E+02
  12.948  0.1330E+01  0.3434E+02
  12.958  0.1330E+01  0.3436E+02
  12.968  0.1329E+01  0.3437E+02
  12.978  0.1328E+01  0.3438E+02
  12.988  0.1328E+01  0.3439E+02
  12.998  0.1328E+01  0.3441E+02
  13.008  0.1328E+01  0.3442E+02
  13.018  0.1328E+01  0.3443E+02
  13.028  0.1329E+01  0.3445E+02
  13.038  0.1329E+01  0.3446E+02
  13.048  0.1330E+01  0.3447E+02
  13.058  0.1331E+01  0.3449E+02
  13.068  0.1332E+01  0.3450E+02
  13.078  0.1333E+01  0.3451E+02
  13.088  0.1335E+01  0.3453E+02
  13.098  0.1336E+01  0.3454E+02
  13.108  0.1338E+01  0.3455E+02
  13.118  0.1339E+01  0.3457E+02
  13.128  0.1341E+01  0.3458E+02
  13.138  0.1343E+01  0.3459E+02
  13.148  0.1344E+01  0.3461E+02
  13.158  0.1346E+01  0.3462E+02
  13.168  0.1347E+01  0.3464E+02
  13.178  0.1348E+01  0.3465E+02
  13.188  0.1350E+01  0.3466E+02
  13.198  0.1350E+01  0.3468E+02
  13.208  0.1351E+01  0.3469E+02
  13.218  0.1351E+01  0.3470E+02
  13.228  0.1351E+01  0.3472E+02
  13.238  0.1351E+01  0.3473E+02
  13.248  0.1350E+01  0.3474E+02
  13.258  0.1349E+01  0.3476E+02
  13.268  0.1348E+01  0.3477E+02
  13.278  0.1346E+01  0.3478E+02
  13.288  0.1344E+01  0.3480E+02
  13.298  0.1341E+01  0.3481E+02
  13.308  0.1338E+01  0.3482E+02
  13.318  0.1334E+01  0.3484E+02
  13.328  0.1330E+01  0.3485E+02
  13.338  0.1325E+01  0.3486E+02
  13.348  0.1321E+01  0.3488E+02
  13.358  0.1315E+01  0.3489E+02
  13.368  0.1310E+01  0.3490E+02
  13.378  0.1304E+01  0.3492E+02
  13.388  0.1298E+01  0.3493E+02
  13.398  0.1291E+01  0.3494E+02
  13.408  0.1284E+01  0.3496E+02
  13.418  0.1278E+01  0.3497E+02
  13.428  0.1271E+01  0.3498E+02
  13.438  0.1263E+01  0.3499E+02
  13.448  0.1256E+01  0.3501E+02
  13.458  0.1249E+01  0.3502E+02
  13.468  0.1242E+01  0.3503E+02
  13.478  0.1234E+01  0.3504E+02
  13.488  0.1227E+01  0.3506E+02
  13.498  0.1220E+01  0.3507E+02
  13.508  0.1214E+01  0.3508E+02
  13.518  0.1207E+01  0.3509E+02
  13.528  0.1201E+01  0.3510E+02
  13.538  0.1195E+01  0.3512E+02
  13.548  0.1189E+01  0.3513E+02
  13.558  0.1184E+01  0.3514E+02
  13.568  0.1179E+01  0.3515E+02
  13.578  0.1174E+01  0.3516E+02
  13.588  0.1170E+01  0.3517E+02
  13.598  0.1166E+01  0.3519E+02
  13.608  0.1162E+01  0.3520E+02
  13.618  0.1159E+01  0.3521E+02
  13.628  0.1157E+01  0.3522E+02
  13.638  0.1155E+01  0.3523E+02
  13.648  0.1153E+01  0.3524E+02
  13.658  0.1152E+01  0.3526E+02
  13.668  0.1151E+01  0.3527E+02
  13.678  0.1150E+01  0.3528E+02
  13.688  0.1150E+01  0.3529E+02
  13.698  0.1151E+01  0.3530E+02
  13.708  0.1151E+01  0.3531E+02
  13.718  0.1152E+01  0.3532E+02
  13.728  0.1154E+01  0.3534E+02
  13.738  0.1155E+01  0.3535E+02
  13.748  0.1157E+01  0.3536E+02
  13.758  0.1159E+01  0.3537E+02
  13.768  0.1162E+01  0.3538E+02
  13.778  0.1165E+01  0.3539E+02
  13.788  0.1168E+01  0.3541E+02
  13.798  0.1171E+01  0.3542E+02
  13.808  0.1174E+01  0.3543E+02
  13.818  0.1178E+01  0.3544E+02
  13.828  0.1181E+01  0.3545E+02
  13.838  0.1185E+01  0.3546E+02
  13.848  0.1189E+01  0.3548E+02
  13.858  0.1193E+01  0.3549E+02
  13.868  0.1197E+01  0.3550E+02
  13.878  0.1201E+01  0.3551E+02
  13.888  0.1205E+01  0.3552E+02
  13.898  0.1209E+01  0.3554E+02
  13.908  0.1213E+01  0.3555E+02
  13.918  0.1218E+01  0.3556E+02
  13.928  0.1222E+01  0.3557E+02
  13.938  0.1226E+01  0.3559E+02
  13.948  0.1230E+01  0.3560E+02
  13.958  0.1235E+01  0.3561E+02
  13.968  0.1239E+01  0.3562E+02
  13.978  0.1243E+01  0.3563E+02
  13.988  0.1247E+01  0.3565E+02
  13.998  0.1251E+01  0.3566E+02
  14.008  0.1256E+01  0.3567E+02
  14.018  0.1260E+01  0.3569E+02
  14.028  0.1264E+01  0.3570E+02
  14.038  0.1268E+01  0.3571E+02
  14.048  0.1271E+01  0.3572E+02
  14.058  0.1275E+01  0.3574E+02
  14.068  0.1279E+01  0.3575E+02
  14.078  0.1283E+01  0.3576E+02
  14.088  0.1287E+01  0.3577E+02
  14.098  0.1290E+01  0.3579E+02
  14.108  0.1294E+01  0.3580E+02
  14.118  0.1297E+01  0.3581E+02
  14.128  0.1301E+01  0.3583E+02
  14.138  0.1305E+01  0.3584E+02
  14.148  0.1308E+01  0.3585E+02
  14.158  0.1312E+01  0.3587E+02
  14.168  0.1315E+01  0.3588E+02
  14.178  0.1319E+01  0.3589E+02
  14.188  0.1322E+01  0.3590E+02
  14.198  0.1326E+01  0.3592E+02
  14.208  0.1329E+01  0.3593E+02
  14.218  0.1333E+01  0.3594E+02
  14.228  0.1336E+01  0.3596E+02
  14.238  0.1340E+01  0.3597E+02
  14.248  0.1343E+01  0.3599E+02
  14.258  0.1346E+01  0.3600E+02
  14.268  0.1350E+01  0.3601E+02
  14.278  0.1353E+01  0.3603E+02
  14.288  0.1356E+01  0.3604E+02
  14.298  0.1359E+01  0.3605E+02
  14.308  0.1362E+01  0.3607E+02
  14.318  0.1365E+01  0.3608E+02
  14.328  0.1368E+01  0.3609E+02
  14.338  0.1370E+01  0.3611E+02
  14.348  0.1373E+01  0.3612E+02
  14.358  0.1375E+01  0.3613E+02
  14.368  0.1378E+01  0.3615E+02
  14.378  0.1380E+01  0.3616E+02
  14.388  0.1382E+01  0.3618E+02
  14.398  0.1383E+01  0.3619E+02
  14.408  0.1385E+01  0.3620E+02
  14.418  0.1387E+01  0.3622E+02
  14.428  0.1388E+01  0.3623E+02
  14.438  0.1390E+01  0.3625E+02
  14.448  0.1391E+01  0.3626E+02
  14.458  0.1392E+01  0.3627E+02
  14.468  0.1394E+01  0.3629E+02
  14.478  0.1395E+01  0.3630E+02
  14.488  0.1397E+01  0.3632E+02
  14.498  0.1399E+01  0.3633E+02
  14.508  0.1401E+01  0.3634E+02
  14.518  0.1403E+01  0.3636E+02
  14.528  0.1406E+01  0.3637E+02
  14.538  0.1409E+01  0.3639E+02
  14.548  0.1412E+01  0.3640E+02
  14.558  0.1416E+01  0.3641E+02
  14.568  0.1421E+01  0.3643E+02
  14.578  0.1426E+01  0.3644E+02
  14.588  0.1431E+01  0.3646E+02
  14.598  0.1438E+01  0.3647E+02
  14.608  0.1445E+01  0.3649E+02
  14.618  0.1452E+01  0.3650E+02
  14.628  0.1461E+01  0.3651E+02
  14.638  0.1470E+01  0.3653E+02
  14.648  0.1479E+01  0.3654E+02
  14.658  0.1490E+01  0.3656E+02
  14.668  0.1501E+01  0.3657E+02
  14.678  0.1512E+01  0.3659E+02
  14.688  0.1525E+01  0.3660E+02
  14.698  0.1538E+01  0.3662E+02
  14.708  0.1551E+01  0.3664E+02
  14.718  0.1565E+01  0.3665E+02
  14.728  0.1579E+01  0.3667E+02
  14.738  0.1593E+01  0.3668E+02
  14.748  0.1608E+01  0.3670E+02
  14.758  0.1622E+01  0.3671E+02
  14.768  0.1637E+01  0.3673E+02
  14.778  0.1652E+01  0.3675E+02
  14.788  0.1666E+01  0.3676E+02
  14.798  0.1680E+01  0.3678E+02
  14.808  0.1695E+01  0.3680E+02
  14.818  0.1708E+01  0.3682E+02
  14.828  0.1721E+01  0.3683E+02
  14.838  0.1734E+01  0.3685E+02
  14.848  0.1746E+01  0.3687E+02
  14.858  0.1757E+01  0.3688E+02
  14.868  0.1768E+01  0.3690E+02
  14.878  0.1778E+01  0.3692E+02
  14.888  0.1787E+01  0.3694E+02
  14.898  0.1795E+01  0.3696E+02
  14.908  0.1802E+01  0.3697E+02
  14.918  0.1809E+01  0.3699E+02
  14.928  0.1814E+01  0.3701E+02
  14.938  0.1819E+01  0.3703E+02
  14.948  0.1822E+01  0.3705E+02
  14.958  0.1825E+01  0.3706E+02
  14.968  0.1827E+01  0.3708E+02
  14.978  0.1828E+01  0.3710E+02
  14.988  0.1828E+01  0.3712E+02
  14.998  0.1828E+01  0.3714E+02
  15.008  0.1826E+01  0.3716E+02
  15.018  0.1824E+01  0.3717E+02
  15.028  0.1822E+01  0.3719E+02
  15.038  0.1818E+01  0.3721E+02
  15.048  0.1815E+01  0.3723E+02
  15.058  0.1810E+01  0.3725E+02
  15.068  0.1805E+01  0.3727E+02
  15.078  0.1800E+01  0.3728E+02
  15.088  0.1795E+01  0.3730E+02
  15.098  0.1789E+01  0.3732E+02
  15.108  0.1783E+01  0.3734E+02
  15.118  0.1776E+01  0.3735E+02
  15.128  0.1770E+01  0.3737E+02
  15.138  0.1763E+01  0.3739E+02
  15.148  0.1756E+01  0.3741E+02
  15.158  0.1750E+01  0.3743E+02
  15.168  0.1743E+01  0.3744E+02
  15.178  0.1736E+01  0.3746E+02
  15.188  0.1730E+01  0.3748E+02
  15.198  0.1723E+01  0.3749E+02
  15.208  0.1717E+01  0.3751E+02
  15.218  0.1710E+01  0.3753E+02
  15.228  0.1704E+01  0.3755E+02
  15.238  0.1699E+01  0.3756E+02
  15.248  0.1693E+01  0.3758E+02
  15.258  0.1688E+01  0.3760E+02
  15.268  0.1683E+01  0.3761E+02
  15.278  0.1678E+01  0.3763E+02
  15.288  0.1674E+01  0.3765E+02
  15.298  0.1670E+01  0.3766E+02
  15.308  0.1667E+01  0.3768E+02
  15.318  0.1664E+01  0.3770E+02
  15.328  0.1662E+01  0.3771E+02
  15.338  0.1660E+01  0.3773E+02
  15.348  0.1658E+01  0.3775E+02
  15.358  0.1658E+01  0.3776E+02
  15.368  0.1657E+01  0.3778E+02
  15.378  0.1658E+01  0.3780E+02
  15.388  0.1658E+01  0.3781E+02
  15.398  0.1660E+01  0.3783E+02
  15.408  0.1662E+01  0.3785E+02
  15.418  0.1665E+01  0.3786E+02
  15.428  0.1668E+01  0.3788E+02
  15.438  0.1672E+01  0.3790E+02
  15.448  0.1676E+01  0.3791E+02
  15.458  0.1681E+01  0.3793E+02
  15.468  0.1686E+01  0.3795E+02
  15.478  0.1692E+01  0.3796E+02
  15.488  0.1699E+01  0.3798E+02
  15.498  0.1706E+01  0.3800E+02
  15.508  0.1713E+01  0.3801E+02
  15.518  0.1720E+01  0.3803E+02
  15.528  0.1728E+01  0.3805E+02
  15.538  0.1735E+01  0.3807E+02
  15.548  0.1743E+01  0.3808E+02
  15.558  0.1751E+01  0.3810E+02
  15.568  0.1758E+01  0.3812E+02
  15.578  0.1766E+01  0.3814E+02
  15.588  0.1773E+01  0.3815E+02
  15.598  0.1780E+01  0.3817E+02
  15.608  0.1787E+01  0.3819E+02
  15.618  0.1793E+01  0.3821E+02
  15.628  0.1799E+01  0.3823E+02
  15.638  0.1804E+01  0.3824E+02
  15.648  0.1809E+01  0.3826E+02
  15.658  0.1812E+01  0.3828E+02
  15.668  0.1816E+01  0.3830E+02
  15.678  0.1818E+01  0.3832E+02
  15.688  0.1820E+01  0.3833E+02
  15.698  0.1821E+01  0.3835E+02
  15.708  0.1821E+01  0.3837E+02
  15.718  0.1820E+01  0.3839E+02
  15.728  0.1819E+01  0.3841E+02
  15.738  0.1816E+01  0.3843E+02
  15.748  0.1814E+01  0.3844E+02
  15.758  0.1810E+01  0.3846E+02
  15.768  0.1806E+01  0.3848E+02
  15.778  0.1801E+01  0.3850E+02
  15.788  0.1796E+01  0.3852E+02
  15.798  0.1790E+01  0.3853E+02
  15.808  0.1784E+01  0.3855E+02
  15.818  0.1778E+01  0.3857E+02
  15.828  0.1771E+01  0.3859E+02
  15.838  0.1764E+01  0.3860E+02
  15.848  0.1757E+01  0.3862E+02
  15.858  0.1750E+01  0.3864E+02
  15.868  0.1743E+01  0.3866E+02
  15.878  0.1736E+01  0.3867E+02
  15.888  0.1729E+01  0.3869E+02
  15.898  0.1722E+01  0.3871E+02
  15.908  0.1715E+01  0.3873E+02
  15.918  0.1709E+01  0.3874E+02
  15.928  0.1703E+01  0.3876E+02
  15.938  0.1697E+01  0.3878E+02
  15.948  0.1692E+01  0.3879E+02
  15.958  0.1687E+01  0.3881E+02
  15.968  0.1682E+01  0.3883E+02
  15.978  0.1678E+01  0.3884E+02
  15.988  0.1674E+01  0.3886E+02
  15.998  0.1671E+01  0.3888E+02
  16.008  0.1668E+01  0.3890E+02
  16.018  0.1665E+01  0.3891E+02
  16.028  0.1663E+01  0.3893E+02
  16.038  0.1661E+01  0.3894E+02
  16.048  0.1660E+01  0.3896E+02
  16.058  0.1659E+01  0.3898E+02
  16.068  0.1658E+01  0.3899E+02
  16.078  0.1658E+01  0.3901E+02
  16.088  0.1658E+01  0.3903E+02
  16.098  0.1658E+01  0.3904E+02
  16.108  0.1659E+01  0.3906E+02
  16.118  0.1659E+01  0.3908E+02
  16.128  0.1660E+01  0.3909E+02
  16.138  0.1661E+01  0.3911E+02
  16.148  0.1663E+01  0.3913E+02
  16.158  0.1664E+01  0.3914E+02
  16.168  0.1666E+01  0.3916E+02
  16.178  0.1668E+01  0.3918E+02
  16.188  0.1670E+01  0.3919E+02
  16.198  0.1672E+01  0.3921E+02
  16.208  0.1675E+01  0.3923E+02
  16.218  0.1678E+01  0.3924E+02
  16.228  0.1680E+01  0.3926E+02
  16.238  0.1683E+01  0.3928E+02
  16.248  0.1687E+01  0.3929E+02
  16.258  0.1690E+01  0.3931E+02
  16.268  0.1694E+01  0.3933E+02
  16.278  0.1698E+01  0.3935E+02
  16.288  0.1702E+01  0.3936E+02
  16.298  0.1706E+01  0.3938E+02
  16.308  0.1710E+01  0.3940E+02
  16.318  0.1715E+01  0.3941E+02
  16.328  0.1720E+01  0.3943E+02
  16.338  0.1725E+01  0.3945E+02
  16.348  0.1730E+01  0.3947E+02
  16.358  0.1736E+01  0.3948E+02
  16.368  0.1741E+01  0.3950E+02
  16.378  0.1747E+01  0.3952E+02
  16.388  0.1753E+01  0.3954E+02
  16.398  0.1759E+01  0.3955E+02
  16.408  0.1765E+01  0.3957E+02
  16.418  0.1771E+01  0.3959E+02
  16.428  0.1777E+01  0.3961E+02
  16.438  0.1783E+01  0.3962E+02
  16.448  0.1788E+01  0.3964E+02
  16.458  0.1794E+01  0.3966E+02
  16.468  0.1800E+01  0.3968E+02
  16.478  0.1806E+01  0.3970E+02
  16.488  0.1811E+01  0.3971E+02
  16.498  0.1816E+01  0.3973E+02
  16.508  0.1821E+01  0.3975E+02
  16.518  0.1826E+01  0.3977E+02
  16.528  0.1830E+01  0.3979E+02
  16.538  0.1834E+01  0.3981E+02
  16.548  0.1838E+01  0.3982E+02
  16.558  0.1842E+01  0.3984E+02
  16.568  0.1845E+01  0.3986E+02
  16.578  0.1848E+01  0.3988E+02
  16.588  0.1851E+01  0.3990E+02
  16.598  0.1853E+01  0.3992E+02
  16.608  0.1855E+01  0.3993E+02
  16.618  0.1857E+01  0.3995E+02
  16.628  0.1859E+01  0.3997E+02
  16.638  0.1861E+01  0.3999E+02
  16.648  0.1862E+01  0.4001E+02
  16.658  0.1863E+01  0.4003E+02
  16.668  0.1865E+01  0.4005E+02
  16.678  0.1866E+01  0.4007E+02
  16.688  0.1867E+01  0.4008E+02
  16.698  0.1869E+01  0.4010E+02
  16.708  0.1870E+01  0.4012E+02
  16.718  0.1872E+01  0.4014E+02
  16.728  0.1873E+01  0.4016E+02
  16.738  0.1875E+01  0.4018E+02
  16.748  0.1877E+01  0.4020E+02
  16.758  0.1880E+01  0.4021E+02
  16.768  0.1882E+01  0.4023E+02
  16.778  0.1885E+01  0.4025E+02
  16.788  0.1889E+01  0.4027E+02
  16.798  0.1892E+01  0.4029E+02
  16.808  0.1896E+01  0.4031E+02
  16.818  0.1900E+01  0.4033E+02
  16.828  0.1904E+01  0.4035E+02
  16.838  0.1909E+01  0.4037E+02
  16.848  0.1914E+01  0.4039E+02
  16.858  0.1919E+01  0.4040E+02
  16.868  0.1925E+01  0.4042E+02
  16.878  0.1930E+01  0.4044E+02
  16.888  0.1936E+01  0.4046E+02
  16.898  0.1942E+01  0.4048E+02
  16.908  0.1948E+01  0.4050E+02
  16.918  0.1954E+01  0.4052E+02
  16.928  0.1960E+01  0.4054E+02
  16.938  0.1966E+01  0.4056E+02
  16.948  0.1972E+01  0.4058E+02
  16.958  0.1978E+01  0.4060E+02
  16.968  0.1984E+01  0.4062E+02
  16.978  0.1990E+01  0.4064E+02
  16.988  0.1995E+01  0.4066E+02
  16.998  0.2001E+01  0.4068E+02
  17.008  0.2006E+01  0.4070E+02
  17.018  0.2011E+01  0.4072E+02
  17.028  0.2015E+01  0.4074E+02
  17.038  0.2020E+01  0.4076E+02
  17.048  0.2024E+01  0.4078E+02
  17.058  0.2027E+01  0.4080E+02
  17.068  0.2031E+01  0.4082E+02
  17.078  0.2033E+01  0.4084E+02
  17.088  0.2036E+01  0.4086E+02
  17.098  0.2038E+01  0.4088E+02
  17.108  0.2040E+01  0.4090E+02
  17.118  0.2041E+01  0.4092E+02
  17.128  0.2042E+01  0.4094E+02
  17.138  0.2042E+01  0.4096E+02
  17.148  0.2041E+01  0.4098E+02
