#  E (eV)   dos(E)     Int dos(E) EFermi =   7.986 eV
 -15.070  0.5433E-03  0.5433E-05
 -15.060  0.6321E-03  0.1175E-04
 -15.050  0.7345E-03  0.1910E-04
 -15.040  0.8525E-03  0.2762E-04
 -15.030  0.9884E-03  0.3751E-04
 -15.020  0.1145E-02  0.4895E-04
 -15.010  0.1324E-02  0.6219E-04
 -15.000  0.1529E-02  0.7748E-04
 -14.990  0.1765E-02  0.9513E-04
 -14.980  0.2034E-02  0.1155E-03
 -14.970  0.2342E-02  0.1389E-03
 -14.960  0.2694E-02  0.1658E-03
 -14.950  0.3094E-02  0.1968E-03
 -14.940  0.3550E-02  0.2323E-03
 -14.930  0.4068E-02  0.2730E-03
 -14.920  0.4657E-02  0.3195E-03
 -14.910  0.5325E-02  0.3728E-03
 -14.900  0.6081E-02  0.4336E-03
 -14.890  0.6937E-02  0.5030E-03
 -14.880  0.7905E-02  0.5820E-03
 -14.870  0.8997E-02  0.6720E-03
 -14.860  0.1023E-01  0.7743E-03
 -14.850  0.1161E-01  0.8904E-03
 -14.840  0.1317E-01  0.1022E-02
 -14.830  0.1492E-01  0.1171E-02
 -14.820  0.1689E-01  0.1340E-02
 -14.810  0.1909E-01  0.1531E-02
 -14.800  0.2156E-01  0.1747E-02
 -14.790  0.2431E-01  0.1990E-02
 -14.780  0.2739E-01  0.2264E-02
 -14.770  0.3082E-01  0.2572E-02
 -14.760  0.3464E-01  0.2918E-02
 -14.750  0.3888E-01  0.3307E-02
 -14.740  0.4361E-01  0.3743E-02
 -14.730  0.4884E-01  0.4232E-02
 -14.720  0.5465E-01  0.4778E-02
 -14.710  0.6108E-01  0.5389E-02
 -14.700  0.6819E-01  0.6071E-02
 -14.690  0.7604E-01  0.6831E-02
 -14.680  0.8470E-01  0.7678E-02
 -14.670  0.9423E-01  0.8620E-02
 -14.660  0.1047E+00  0.9668E-02
 -14.650  0.1163E+00  0.1083E-01
 -14.640  0.1289E+00  0.1212E-01
 -14.630  0.1428E+00  0.1355E-01
 -14.620  0.1580E+00  0.1513E-01
 -14.610  0.1746E+00  0.1687E-01
 -14.600  0.1928E+00  0.1880E-01
 -14.590  0.2126E+00  0.2093E-01
 -14.580  0.2342E+00  0.2327E-01
 -14.570  0.2576E+00  0.2585E-01
 -14.560  0.2832E+00  0.2868E-01
 -14.550  0.3109E+00  0.3179E-01
 -14.540  0.3410E+00  0.3520E-01
 -14.530  0.3735E+00  0.3893E-01
 -14.520  0.4087E+00  0.4302E-01
 -14.510  0.4468E+00  0.4749E-01
 -14.500  0.4878E+00  0.5236E-01
 -14.490  0.5321E+00  0.5769E-01
 -14.480  0.5797E+00  0.6348E-01
 -14.470  0.6310E+00  0.6979E-01
 -14.460  0.6860E+00  0.7665E-01
 -14.450  0.7450E+00  0.8410E-01
 -14.440  0.8082E+00  0.9218E-01
 -14.430  0.8758E+00  0.1009E+00
 -14.420  0.9481E+00  0.1104E+00
 -14.410  0.1025E+01  0.1207E+00
 -14.400  0.1108E+01  0.1318E+00
 -14.390  0.1195E+01  0.1437E+00
 -14.380  0.1288E+01  0.1566E+00
 -14.370  0.1387E+01  0.1705E+00
 -14.360  0.1492E+01  0.1854E+00
 -14.350  0.1603E+01  0.2014E+00
 -14.340  0.1721E+01  0.2186E+00
 -14.330  0.1845E+01  0.2371E+00
 -14.320  0.1977E+01  0.2568E+00
 -14.310  0.2115E+01  0.2780E+00
 -14.300  0.2261E+01  0.3006E+00
 -14.290  0.2415E+01  0.3248E+00
 -14.280  0.2576E+01  0.3505E+00
 -14.270  0.2745E+01  0.3780E+00
 -14.260  0.2922E+01  0.4072E+00
 -14.250  0.3108E+01  0.4383E+00
 -14.240  0.3302E+01  0.4713E+00
 -14.230  0.3505E+01  0.5063E+00
 -14.220  0.3716E+01  0.5435E+00
 -14.210  0.3936E+01  0.5829E+00
 -14.200  0.4165E+01  0.6245E+00
 -14.190  0.4403E+01  0.6685E+00
 -14.180  0.4650E+01  0.7150E+00
 -14.170  0.4905E+01  0.7641E+00
 -14.160  0.5170E+01  0.8158E+00
 -14.150  0.5444E+01  0.8702E+00
 -14.140  0.5727E+01  0.9275E+00
 -14.130  0.6018E+01  0.9877E+00
 -14.120  0.6319E+01  0.1051E+01
 -14.110  0.6628E+01  0.1117E+01
 -14.100  0.6945E+01  0.1187E+01
 -14.090  0.7270E+01  0.1259E+01
 -14.080  0.7604E+01  0.1335E+01
 -14.070  0.7945E+01  0.1415E+01
 -14.060  0.8294E+01  0.1498E+01
 -14.050  0.8650E+01  0.1584E+01
 -14.040  0.9013E+01  0.1674E+01
 -14.030  0.9382E+01  0.1768E+01
 -14.020  0.9758E+01  0.1866E+01
 -14.010  0.1014E+02  0.1967E+01
 -14.000  0.1053E+02  0.2072E+01
 -13.990  0.1092E+02  0.2182E+01
 -13.980  0.1131E+02  0.2295E+01
 -13.970  0.1171E+02  0.2412E+01
 -13.960  0.1211E+02  0.2533E+01
 -13.950  0.1252E+02  0.2658E+01
 -13.940  0.1292E+02  0.2787E+01
 -13.930  0.1333E+02  0.2921E+01
 -13.920  0.1374E+02  0.3058E+01
 -13.910  0.1415E+02  0.3200E+01
 -13.900  0.1456E+02  0.3345E+01
 -13.890  0.1497E+02  0.3495E+01
 -13.880  0.1537E+02  0.3649E+01
 -13.870  0.1577E+02  0.3806E+01
 -13.860  0.1617E+02  0.3968E+01
 -13.850  0.1657E+02  0.4134E+01
 -13.840  0.1696E+02  0.4303E+01
 -13.830  0.1734E+02  0.4477E+01
 -13.820  0.1772E+02  0.4654E+01
 -13.810  0.1809E+02  0.4835E+01
 -13.800  0.1845E+02  0.5019E+01
 -13.790  0.1881E+02  0.5207E+01
 -13.780  0.1915E+02  0.5399E+01
 -13.770  0.1949E+02  0.5594E+01
 -13.760  0.1981E+02  0.5792E+01
 -13.750  0.2013E+02  0.5993E+01
 -13.740  0.2043E+02  0.6198E+01
 -13.730  0.2072E+02  0.6405E+01
 -13.720  0.2099E+02  0.6615E+01
 -13.710  0.2126E+02  0.6827E+01
 -13.700  0.2150E+02  0.7042E+01
 -13.690  0.2174E+02  0.7260E+01
 -13.680  0.2196E+02  0.7479E+01
 -13.670  0.2216E+02  0.7701E+01
 -13.660  0.2234E+02  0.7924E+01
 -13.650  0.2251E+02  0.8149E+01
 -13.640  0.2266E+02  0.8376E+01
 -13.630  0.2280E+02  0.8604E+01
 -13.620  0.2291E+02  0.8833E+01
 -13.610  0.2301E+02  0.9063E+01
 -13.600  0.2309E+02  0.9294E+01
 -13.590  0.2315E+02  0.9526E+01
 -13.580  0.2319E+02  0.9758E+01
 -13.570  0.2322E+02  0.9990E+01
 -13.560  0.2322E+02  0.1022E+02
 -13.550  0.2321E+02  0.1045E+02
 -13.540  0.2318E+02  0.1069E+02
 -13.530  0.2312E+02  0.1092E+02
 -13.520  0.2305E+02  0.1115E+02
 -13.510  0.2297E+02  0.1138E+02
 -13.500  0.2286E+02  0.1161E+02
 -13.490  0.2273E+02  0.1183E+02
 -13.480  0.2259E+02  0.1206E+02
 -13.470  0.2243E+02  0.1228E+02
 -13.460  0.2225E+02  0.1251E+02
 -13.450  0.2206E+02  0.1273E+02
 -13.440  0.2185E+02  0.1294E+02
 -13.430  0.2162E+02  0.1316E+02
 -13.420  0.2138E+02  0.1337E+02
 -13.410  0.2112E+02  0.1359E+02
 -13.400  0.2085E+02  0.1379E+02
 -13.390  0.2056E+02  0.1400E+02
 -13.380  0.2026E+02  0.1420E+02
 -13.370  0.1995E+02  0.1440E+02
 -13.360  0.1962E+02  0.1460E+02
 -13.350  0.1929E+02  0.1479E+02
 -13.340  0.1894E+02  0.1498E+02
 -13.330  0.1859E+02  0.1517E+02
 -13.320  0.1822E+02  0.1535E+02
 -13.310  0.1785E+02  0.1553E+02
 -13.300  0.1747E+02  0.1570E+02
 -13.290  0.1708E+02  0.1587E+02
 -13.280  0.1669E+02  0.1604E+02
 -13.270  0.1629E+02  0.1620E+02
 -13.260  0.1589E+02  0.1636E+02
 -13.250  0.1548E+02  0.1652E+02
 -13.240  0.1507E+02  0.1667E+02
 -13.230  0.1466E+02  0.1681E+02
 -13.220  0.1424E+02  0.1696E+02
 -13.210  0.1383E+02  0.1709E+02
 -13.200  0.1341E+02  0.1723E+02
 -13.190  0.1300E+02  0.1736E+02
 -13.180  0.1259E+02  0.1748E+02
 -13.170  0.1217E+02  0.1761E+02
 -13.160  0.1176E+02  0.1772E+02
 -13.150  0.1136E+02  0.1784E+02
 -13.140  0.1096E+02  0.1795E+02
 -13.130  0.1056E+02  0.1805E+02
 -13.120  0.1017E+02  0.1815E+02
 -13.110  0.9779E+01  0.1825E+02
 -13.100  0.9397E+01  0.1835E+02
 -13.090  0.9022E+01  0.1844E+02
 -13.080  0.8653E+01  0.1852E+02
 -13.070  0.8291E+01  0.1861E+02
 -13.060  0.7937E+01  0.1868E+02
 -13.050  0.7591E+01  0.1876E+02
 -13.040  0.7252E+01  0.1883E+02
 -13.030  0.6922E+01  0.1890E+02
 -13.020  0.6601E+01  0.1897E+02
 -13.010  0.6288E+01  0.1903E+02
 -13.000  0.5984E+01  0.1909E+02
 -12.990  0.5689E+01  0.1915E+02
 -12.980  0.5404E+01  0.1920E+02
 -12.970  0.5127E+01  0.1925E+02
 -12.960  0.4860E+01  0.1930E+02
 -12.950  0.4602E+01  0.1935E+02
 -12.940  0.4354E+01  0.1939E+02
 -12.930  0.4114E+01  0.1943E+02
 -12.920  0.3884E+01  0.1947E+02
 -12.910  0.3663E+01  0.1951E+02
 -12.900  0.3451E+01  0.1954E+02
 -12.890  0.3248E+01  0.1958E+02
 -12.880  0.3054E+01  0.1961E+02
 -12.870  0.2868E+01  0.1963E+02
 -12.860  0.2691E+01  0.1966E+02
 -12.850  0.2523E+01  0.1969E+02
 -12.840  0.2362E+01  0.1971E+02
 -12.830  0.2209E+01  0.1973E+02
 -12.820  0.2064E+01  0.1975E+02
 -12.810  0.1927E+01  0.1977E+02
 -12.800  0.1797E+01  0.1979E+02
 -12.790  0.1673E+01  0.1981E+02
 -12.780  0.1557E+01  0.1982E+02
 -12.770  0.1447E+01  0.1984E+02
 -12.760  0.1344E+01  0.1985E+02
 -12.750  0.1246E+01  0.1986E+02
 -12.740  0.1155E+01  0.1987E+02
 -12.730  0.1069E+01  0.1989E+02
 -12.720  0.9880E+00  0.1990E+02
 -12.710  0.9125E+00  0.1990E+02
 -12.700  0.8418E+00  0.1991E+02
 -12.690  0.7757E+00  0.1992E+02
 -12.680  0.7141E+00  0.1993E+02
 -12.670  0.6567E+00  0.1993E+02
 -12.660  0.6032E+00  0.1994E+02
 -12.650  0.5535E+00  0.1995E+02
 -12.640  0.5073E+00  0.1995E+02
 -12.630  0.4645E+00  0.1996E+02
 -12.620  0.4248E+00  0.1996E+02
 -12.610  0.3881E+00  0.1996E+02
 -12.600  0.3541E+00  0.1997E+02
 -12.590  0.3228E+00  0.1997E+02
 -12.580  0.2940E+00  0.1997E+02
 -12.570  0.2674E+00  0.1998E+02
 -12.560  0.2429E+00  0.1998E+02
 -12.550  0.2205E+00  0.1998E+02
 -12.540  0.1999E+00  0.1998E+02
 -12.530  0.1810E+00  0.1998E+02
 -12.520  0.1637E+00  0.1999E+02
 -12.510  0.1479E+00  0.1999E+02
 -12.500  0.1335E+00  0.1999E+02
 -12.490  0.1204E+00  0.1999E+02
 -12.480  0.1084E+00  0.1999E+02
 -12.470  0.9751E-01  0.1999E+02
 -12.460  0.8761E-01  0.1999E+02
 -12.450  0.7863E-01  0.1999E+02
 -12.440  0.7050E-01  0.1999E+02
 -12.430  0.6313E-01  0.2000E+02
 -12.420  0.5647E-01  0.2000E+02
 -12.410  0.5045E-01  0.2000E+02
 -12.400  0.4503E-01  0.2000E+02
 -12.390  0.4014E-01  0.2000E+02
 -12.380  0.3575E-01  0.2000E+02
 -12.370  0.3180E-01  0.2000E+02
 -12.360  0.2825E-01  0.2000E+02
 -12.350  0.2507E-01  0.2000E+02
 -12.340  0.2222E-01  0.2000E+02
 -12.330  0.1968E-01  0.2000E+02
 -12.320  0.1740E-01  0.2000E+02
 -12.310  0.1538E-01  0.2000E+02
 -12.300  0.1357E-01  0.2000E+02
 -12.290  0.1196E-01  0.2000E+02
 -12.280  0.1053E-01  0.2000E+02
 -12.270  0.9259E-02  0.2000E+02
 -12.260  0.8134E-02  0.2000E+02
 -12.250  0.7137E-02  0.2000E+02
 -12.240  0.6255E-02  0.2000E+02
 -12.230  0.5475E-02  0.2000E+02
 -12.220  0.4788E-02  0.2000E+02
 -12.210  0.4182E-02  0.2000E+02
 -12.200  0.3648E-02  0.2000E+02
 -12.190  0.3179E-02  0.2000E+02
 -12.180  0.2767E-02  0.2000E+02
 -12.170  0.2406E-02  0.2000E+02
 -12.160  0.2089E-02  0.2000E+02
 -12.150  0.1812E-02  0.2000E+02
 -12.140  0.1570E-02  0.2000E+02
 -12.130  0.1359E-02  0.2000E+02
 -12.120  0.1174E-02  0.2000E+02
 -12.110  0.1014E-02  0.2000E+02
 -12.100  0.8744E-03  0.2000E+02
 -12.090  0.7532E-03  0.2000E+02
 -12.080  0.6481E-03  0.2000E+02
 -12.070  0.5570E-03  0.2000E+02
 -12.060  0.4781E-03  0.2000E+02
 -12.050  0.4100E-03  0.2000E+02
 -12.040  0.3511E-03  0.2000E+02
 -12.030  0.3004E-03  0.2000E+02
 -12.020  0.2566E-03  0.2000E+02
 -12.010  0.2190E-03  0.2000E+02
 -12.000  0.1867E-03  0.2000E+02
 -11.990  0.1590E-03  0.2000E+02
 -11.980  0.1352E-03  0.2000E+02
 -11.970  0.1149E-03  0.2000E+02
 -11.960  0.9747E-04  0.2000E+02
 -11.950  0.8260E-04  0.2000E+02
 -11.940  0.6993E-04  0.2000E+02
 -11.930  0.5913E-04  0.2000E+02
 -11.920  0.4994E-04  0.2000E+02
 -11.910  0.4213E-04  0.2000E+02
 -11.900  0.3549E-04  0.2000E+02
 -11.890  0.2987E-04  0.2000E+02
 -11.880  0.2511E-04  0.2000E+02
 -11.870  0.2109E-04  0.2000E+02
 -11.860  0.1768E-04  0.2000E+02
 -11.850  0.1481E-04  0.2000E+02
 -11.840  0.1239E-04  0.2000E+02
 -11.830  0.1036E-04  0.2000E+02
 -11.820  0.8646E-05  0.2000E+02
 -11.810  0.7209E-05  0.2000E+02
 -11.800  0.6004E-05  0.2000E+02
 -11.790  0.4994E-05  0.2000E+02
 -11.780  0.4149E-05  0.2000E+02
 -11.770  0.3443E-05  0.2000E+02
 -11.760  0.2854E-05  0.2000E+02
 -11.750  0.2363E-05  0.2000E+02
 -11.740  0.1954E-05  0.2000E+02
 -11.730  0.1614E-05  0.2000E+02
 -11.720  0.1332E-05  0.2000E+02
 -11.710  0.1097E-05  0.2000E+02
 -11.700  0.9031E-06  0.2000E+02
 -11.690  0.7425E-06  0.2000E+02
 -11.680  0.6097E-06  0.2000E+02
 -11.670  0.5000E-06  0.2000E+02
 -11.660  0.4096E-06  0.2000E+02
 -11.650  0.3352E-06  0.2000E+02
 -11.640  0.2739E-06  0.2000E+02
 -11.630  0.2236E-06  0.2000E+02
 -11.620  0.1823E-06  0.2000E+02
 -11.610  0.1485E-06  0.2000E+02
 -11.600  0.1208E-06  0.2000E+02
 -11.590  0.9813E-07  0.2000E+02
 -11.580  0.7964E-07  0.2000E+02
 -11.570  0.6455E-07  0.2000E+02
 -11.560  0.5226E-07  0.2000E+02
 -11.550  0.4226E-07  0.2000E+02
 -11.540  0.3413E-07  0.2000E+02
 -11.530  0.2754E-07  0.2000E+02
 -11.520  0.2219E-07  0.2000E+02
 -11.510  0.1786E-07  0.2000E+02
 -11.500  0.1436E-07  0.2000E+02
 -11.490  0.1153E-07  0.2000E+02
 -11.480  0.9244E-08  0.2000E+02
 -11.470  0.7405E-08  0.2000E+02
 -11.460  0.5925E-08  0.2000E+02
 -11.450  0.4735E-08  0.2000E+02
 -11.440  0.3779E-08  0.2000E+02
 -11.430  0.3013E-08  0.2000E+02
 -11.420  0.2399E-08  0.2000E+02
 -11.410  0.1908E-08  0.2000E+02
 -11.400  0.1516E-08  0.2000E+02
 -11.390  0.1203E-08  0.2000E+02
 -11.380  0.9535E-09  0.2000E+02
 -11.370  0.7548E-09  0.2000E+02
 -11.360  0.5968E-09  0.2000E+02
 -11.350  0.4713E-09  0.2000E+02
 -11.340  0.3718E-09  0.2000E+02
 -11.330  0.2929E-09  0.2000E+02
 -11.320  0.2305E-09  0.2000E+02
 -11.310  0.1812E-09  0.2000E+02
 -11.300  0.1422E-09  0.2000E+02
 -11.290  0.1115E-09  0.2000E+02
 -11.280  0.8735E-10  0.2000E+02
 -11.270  0.6833E-10  0.2000E+02
 -11.260  0.5339E-10  0.2000E+02
 -11.250  0.4167E-10  0.2000E+02
 -11.240  0.3248E-10  0.2000E+02
 -11.230  0.2529E-10  0.2000E+02
 -11.220  0.1967E-10  0.2000E+02
 -11.210  0.1528E-10  0.2000E+02
 -11.200  0.1185E-10  0.2000E+02
 -11.190  0.9183E-11  0.2000E+02
 -11.180  0.7107E-11  0.2000E+02
 -11.170  0.5494E-11  0.2000E+02
 -11.160  0.4242E-11  0.2000E+02
 -11.150  0.3272E-11  0.2000E+02
 -11.140  0.2520E-11  0.2000E+02
 -11.130  0.1939E-11  0.2000E+02
 -11.120  0.1490E-11  0.2000E+02
 -11.110  0.1144E-11  0.2000E+02
 -11.100  0.8768E-12  0.2000E+02
 -11.090  0.6714E-12  0.2000E+02
 -11.080  0.5135E-12  0.2000E+02
 -11.070  0.3923E-12  0.2000E+02
 -11.060  0.2993E-12  0.2000E+02
 -11.050  0.2281E-12  0.2000E+02
 -11.040  0.1736E-12  0.2000E+02
 -11.030  0.1320E-12  0.2000E+02
 -11.020  0.1002E-12  0.2000E+02
 -11.010  0.7604E-13  0.2000E+02
 -11.000  0.5760E-13  0.2000E+02
 -10.990  0.4359E-13  0.2000E+02
 -10.980  0.3294E-13  0.2000E+02
 -10.970  0.2487E-13  0.2000E+02
 -10.960  0.1875E-13  0.2000E+02
 -10.950  0.1412E-13  0.2000E+02
 -10.940  0.1062E-13  0.2000E+02
 -10.930  0.7979E-14  0.2000E+02
 -10.920  0.5987E-14  0.2000E+02
 -10.910  0.4488E-14  0.2000E+02
 -10.900  0.3359E-14  0.2000E+02
 -10.890  0.2512E-14  0.2000E+02
 -10.880  0.1876E-14  0.2000E+02
 -10.870  0.1399E-14  0.2000E+02
 -10.860  0.1043E-14  0.2000E+02
 -10.850  0.7759E-15  0.2000E+02
 -10.840  0.5767E-15  0.2000E+02
 -10.830  0.4281E-15  0.2000E+02
 -10.820  0.3175E-15  0.2000E+02
 -10.810  0.2351E-15  0.2000E+02
 -10.800  0.1739E-15  0.2000E+02
 -10.790  0.1285E-15  0.2000E+02
 -10.780  0.9484E-16  0.2000E+02
 -10.770  0.6990E-16  0.2000E+02
 -10.760  0.5146E-16  0.2000E+02
 -10.750  0.3784E-16  0.2000E+02
 -10.740  0.2780E-16  0.2000E+02
 -10.730  0.2039E-16  0.2000E+02
 -10.720  0.1494E-16  0.2000E+02
 -10.710  0.1093E-16  0.2000E+02
 -10.700  0.7992E-17  0.2000E+02
 -10.690  0.5835E-17  0.2000E+02
 -10.680  0.4255E-17  0.2000E+02
 -10.670  0.3099E-17  0.2000E+02
 -10.660  0.2255E-17  0.2000E+02
 -10.650  0.1638E-17  0.2000E+02
 -10.640  0.1189E-17  0.2000E+02
 -10.630  0.8619E-18  0.2000E+02
 -10.620  0.6241E-18  0.2000E+02
 -10.610  0.4513E-18  0.2000E+02
 -10.600  0.3260E-18  0.2000E+02
 -10.590  0.2352E-18  0.2000E+02
 -10.580  0.1695E-18  0.2000E+02
 -10.570  0.1220E-18  0.2000E+02
 -10.560  0.8768E-19  0.2000E+02
 -10.550  0.6295E-19  0.2000E+02
 -10.540  0.4515E-19  0.2000E+02
 -10.530  0.3234E-19  0.2000E+02
 -10.520  0.2314E-19  0.2000E+02
 -10.510  0.1653E-19  0.2000E+02
 -10.500  0.1180E-19  0.2000E+02
 -10.490  0.8411E-20  0.2000E+02
 -10.480  0.5989E-20  0.2000E+02
 -10.470  0.4259E-20  0.2000E+02
 -10.460  0.3026E-20  0.2000E+02
 -10.450  0.2147E-20  0.2000E+02
 -10.440  0.1521E-20  0.2000E+02
 -10.430  0.1077E-20  0.2000E+02
 -10.420  0.7611E-21  0.2000E+02
 -10.410  0.5374E-21  0.2000E+02
 -10.400  0.3790E-21  0.2000E+02
 -10.390  0.2670E-21  0.2000E+02
 -10.380  0.1878E-21  0.2000E+02
 -10.370  0.1320E-21  0.2000E+02
 -10.360  0.9265E-22  0.2000E+02
 -10.350  0.6496E-22  0.2000E+02
 -10.340  0.4548E-22  0.2000E+02
 -10.330  0.3181E-22  0.2000E+02
 -10.320  0.2222E-22  0.2000E+02
 -10.310  0.1550E-22  0.2000E+02
 -10.300  0.1080E-22  0.2000E+02
 -10.290  0.7520E-23  0.2000E+02
 -10.280  0.5228E-23  0.2000E+02
 -10.270  0.3630E-23  0.2000E+02
 -10.260  0.2518E-23  0.2000E+02
 -10.250  0.1744E-23  0.2000E+02
 -10.240  0.1207E-23  0.2000E+02
 -10.230  0.8340E-24  0.2000E+02
 -10.220  0.5757E-24  0.2000E+02
 -10.210  0.3969E-24  0.2000E+02
 -10.200  0.2733E-24  0.2000E+02
 -10.190  0.1880E-24  0.2000E+02
 -10.180  0.1291E-24  0.2000E+02
 -10.170  0.8860E-25  0.2000E+02
 -10.160  0.6072E-25  0.2000E+02
 -10.150  0.4156E-25  0.2000E+02
 -10.140  0.2841E-25  0.2000E+02
 -10.130  0.1940E-25  0.2000E+02
 -10.120  0.1323E-25  0.2000E+02
 -10.110  0.9015E-26  0.2000E+02
 -10.100  0.6134E-26  0.2000E+02
 -10.090  0.4169E-26  0.2000E+02
 -10.080  0.2830E-26  0.2000E+02
 -10.070  0.1918E-26  0.2000E+02
 -10.060  0.1299E-26  0.2000E+02
 -10.050  0.8787E-27  0.2000E+02
 -10.040  0.5936E-27  0.2000E+02
 -10.030  0.4005E-27  0.2000E+02
 -10.020  0.2699E-27  0.2000E+02
 -10.010  0.1817E-27  0.2000E+02
 -10.000  0.1222E-27  0.2000E+02
  -9.990  0.8203E-28  0.2000E+02
  -9.980  0.5502E-28  0.2000E+02
  -9.970  0.3686E-28  0.2000E+02
  -9.960  0.2466E-28  0.2000E+02
  -9.950  0.1648E-28  0.2000E+02
  -9.940  0.1100E-28  0.2000E+02
  -9.930  0.7336E-29  0.2000E+02
  -9.920  0.4885E-29  0.2000E+02
  -9.910  0.3249E-29  0.2000E+02
  -9.900  0.2159E-29  0.2000E+02
  -9.890  0.1432E-29  0.2000E+02
  -9.880  0.9493E-30  0.2000E+02
  -9.870  0.6284E-30  0.2000E+02
  -9.860  0.4155E-30  0.2000E+02
  -9.850  0.2744E-30  0.2000E+02
  -9.840  0.1810E-30  0.2000E+02
  -9.830  0.1192E-30  0.2000E+02
  -9.820  0.7845E-31  0.2000E+02
  -9.810  0.5156E-31  0.2000E+02
  -9.800  0.3384E-31  0.2000E+02
  -9.790  0.2219E-31  0.2000E+02
  -9.780  0.1453E-31  0.2000E+02
  -9.770  0.9504E-32  0.2000E+02
  -9.760  0.6209E-32  0.2000E+02
  -9.750  0.4052E-32  0.2000E+02
  -9.740  0.2641E-32  0.2000E+02
  -9.730  0.1719E-32  0.2000E+02
  -9.720  0.1118E-32  0.2000E+02
  -9.710  0.7258E-33  0.2000E+02
  -9.700  0.4708E-33  0.2000E+02
  -9.690  0.3050E-33  0.2000E+02
  -9.680  0.1973E-33  0.2000E+02
  -9.670  0.1275E-33  0.2000E+02
  -9.660  0.8233E-34  0.2000E+02
  -9.650  0.5309E-34  0.2000E+02
  -9.640  0.3419E-34  0.2000E+02
  -9.630  0.2199E-34  0.2000E+02
  -9.620  0.1413E-34  0.2000E+02
  -9.610  0.9065E-35  0.2000E+02
  -9.600  0.5810E-35  0.2000E+02
  -9.590  0.3719E-35  0.2000E+02
  -9.580  0.2378E-35  0.2000E+02
  -9.570  0.1519E-35  0.2000E+02
  -9.560  0.9686E-36  0.2000E+02
  -9.550  0.6171E-36  0.2000E+02
  -9.540  0.3927E-36  0.2000E+02
  -9.530  0.2496E-36  0.2000E+02
  -9.520  0.1584E-36  0.2000E+02
  -9.510  0.1004E-36  0.2000E+02
  -9.500  0.6361E-37  0.2000E+02
  -9.490  0.4024E-37  0.2000E+02
  -9.480  0.2542E-37  0.2000E+02
  -9.470  0.1604E-37  0.2000E+02
  -9.460  0.1011E-37  0.2000E+02
  -9.450  0.6364E-38  0.2000E+02
  -9.440  0.4002E-38  0.2000E+02
  -9.430  0.2513E-38  0.2000E+02
  -9.420  0.1576E-38  0.2000E+02
  -9.410  0.9875E-39  0.2000E+02
  -9.400  0.6179E-39  0.2000E+02
  -9.390  0.3862E-39  0.2000E+02
  -9.380  0.2411E-39  0.2000E+02
  -9.370  0.1503E-39  0.2000E+02
  -9.360  0.9362E-40  0.2000E+02
  -9.350  0.5823E-40  0.2000E+02
  -9.340  0.3618E-40  0.2000E+02
  -9.330  0.2245E-40  0.2000E+02
  -9.320  0.1391E-40  0.2000E+02
  -9.310  0.8613E-41  0.2000E+02
  -9.300  0.5325E-41  0.2000E+02
  -9.290  0.3289E-41  0.2000E+02
  -9.280  0.2029E-41  0.2000E+02
  -9.270  0.1250E-41  0.2000E+02
  -9.260  0.7691E-42  0.2000E+02
  -9.250  0.4727E-42  0.2000E+02
  -9.240  0.2902E-42  0.2000E+02
  -9.230  0.1779E-42  0.2000E+02
  -9.220  0.1090E-42  0.2000E+02
  -9.210  0.6664E-43  0.2000E+02
  -9.200  0.4072E-43  0.2000E+02
  -9.190  0.2485E-43  0.2000E+02
  -9.180  0.1514E-43  0.2000E+02
  -9.170  0.9218E-44  0.2000E+02
  -9.160  0.5605E-44  0.2000E+02
  -9.150  0.3404E-44  0.2000E+02
  -9.140  0.2065E-44  0.2000E+02
  -9.130  0.1251E-44  0.2000E+02
  -9.120  0.7569E-45  0.2000E+02
  -9.110  0.4575E-45  0.2000E+02
  -9.100  0.2762E-45  0.2000E+02
  -9.090  0.1665E-45  0.2000E+02
  -9.080  0.1003E-45  0.2000E+02
  -9.070  0.6032E-46  0.2000E+02
  -9.060  0.3624E-46  0.2000E+02
  -9.050  0.2175E-46  0.2000E+02
  -9.040  0.1303E-46  0.2000E+02
  -9.030  0.7802E-47  0.2000E+02
  -9.020  0.4665E-47  0.2000E+02
  -9.010  0.2786E-47  0.2000E+02
  -9.000  0.1662E-47  0.2000E+02
  -8.990  0.9901E-48  0.2000E+02
  -8.980  0.5892E-48  0.2000E+02
  -8.970  0.3502E-48  0.2000E+02
  -8.960  0.2079E-48  0.2000E+02
  -8.950  0.1232E-48  0.2000E+02
  -8.940  0.7299E-49  0.2000E+02
  -8.930  0.4317E-49  0.2000E+02
  -8.920  0.2551E-49  0.2000E+02
  -8.910  0.1505E-49  0.2000E+02
  -8.900  0.8871E-50  0.2000E+02
  -8.890  0.5222E-50  0.2000E+02
  -8.880  0.3071E-50  0.2000E+02
  -8.870  0.1803E-50  0.2000E+02
  -8.860  0.1058E-50  0.2000E+02
  -8.850  0.6197E-51  0.2000E+02
  -8.840  0.3626E-51  0.2000E+02
  -8.830  0.2119E-51  0.2000E+02
  -8.820  0.1237E-51  0.2000E+02
  -8.810  0.7214E-52  0.2000E+02
  -8.800  0.4201E-52  0.2000E+02
  -8.790  0.2444E-52  0.2000E+02
  -8.780  0.1420E-52  0.2000E+02
  -8.770  0.8238E-53  0.2000E+02
  -8.760  0.4775E-53  0.2000E+02
  -8.750  0.2764E-53  0.2000E+02
  -8.740  0.1598E-53  0.2000E+02
  -8.730  0.9230E-54  0.2000E+02
  -8.720  0.5324E-54  0.2000E+02
  -8.710  0.3067E-54  0.2000E+02
  -8.700  0.1765E-54  0.2000E+02
  -8.690  0.1014E-54  0.2000E+02
  -8.680  0.5823E-55  0.2000E+02
  -8.670  0.3339E-55  0.2000E+02
  -8.660  0.1912E-55  0.2000E+02
  -8.650  0.1094E-55  0.2000E+02
  -8.640  0.6249E-56  0.2000E+02
  -8.630  0.3566E-56  0.2000E+02
  -8.620  0.2032E-56  0.2000E+02
  -8.610  0.1157E-56  0.2000E+02
  -8.600  0.6578E-57  0.2000E+02
  -8.590  0.3736E-57  0.2000E+02
  -8.580  0.2119E-57  0.2000E+02
  -8.570  0.1200E-57  0.2000E+02
  -8.560  0.6793E-58  0.2000E+02
  -8.550  0.3839E-58  0.2000E+02
  -8.540  0.2167E-58  0.2000E+02
  -8.530  0.1222E-58  0.2000E+02
  -8.520  0.6882E-59  0.2000E+02
  -8.510  0.3871E-59  0.2000E+02
  -8.500  0.2175E-59  0.2000E+02
  -8.490  0.1220E-59  0.2000E+02
  -8.480  0.6840E-60  0.2000E+02
  -8.470  0.3829E-60  0.2000E+02
  -8.460  0.2141E-60  0.2000E+02
  -8.450  0.1196E-60  0.2000E+02
  -8.440  0.6668E-61  0.2000E+02
  -8.430  0.3715E-61  0.2000E+02
  -8.420  0.2067E-61  0.2000E+02
  -8.410  0.1149E-61  0.2000E+02
  -8.400  0.6378E-62  0.2000E+02
  -8.390  0.3536E-62  0.2000E+02
  -8.380  0.1958E-62  0.2000E+02
  -8.370  0.1083E-62  0.2000E+02
  -8.360  0.5985E-63  0.2000E+02
  -8.350  0.3302E-63  0.2000E+02
  -8.340  0.1820E-63  0.2000E+02
  -8.330  0.1002E-63  0.2000E+02
  -8.320  0.5509E-64  0.2000E+02
  -8.310  0.3025E-64  0.2000E+02
  -8.300  0.1659E-64  0.2000E+02
  -8.290  0.9092E-65  0.2000E+02
  -8.280  0.4975E-65  0.2000E+02
  -8.270  0.2719E-65  0.2000E+02
  -8.260  0.1484E-65  0.2000E+02
  -8.250  0.8093E-66  0.2000E+02
  -8.240  0.4407E-66  0.2000E+02
  -8.230  0.2397E-66  0.2000E+02
  -8.220  0.1302E-66  0.2000E+02
  -8.210  0.7067E-67  0.2000E+02
  -8.200  0.3830E-67  0.2000E+02
  -8.190  0.2073E-67  0.2000E+02
  -8.180  0.1121E-67  0.2000E+02
  -8.170  0.6054E-68  0.2000E+02
  -8.160  0.3265E-68  0.2000E+02
  -8.150  0.1759E-68  0.2000E+02
  -8.140  0.9466E-69  0.2000E+02
  -8.130  0.5088E-69  0.2000E+02
  -8.120  0.2731E-69  0.2000E+02
  -8.110  0.1464E-69  0.2000E+02
  -8.100  0.7842E-70  0.2000E+02
  -8.090  0.4194E-70  0.2000E+02
  -8.080  0.2241E-70  0.2000E+02
  -8.070  0.1196E-70  0.2000E+02
  -8.060  0.6373E-71  0.2000E+02
  -8.050  0.3392E-71  0.2000E+02
  -8.040  0.1804E-71  0.2000E+02
  -8.030  0.9580E-72  0.2000E+02
  -8.020  0.5083E-72  0.2000E+02
  -8.010  0.2696E-72  0.2000E+02
  -8.000  0.1433E-72  0.2000E+02
  -7.990  0.7689E-73  0.2000E+02
  -7.980  0.4277E-73  0.2000E+02
  -7.970  0.2665E-73  0.2000E+02
  -7.960  0.2174E-73  0.2000E+02
  -7.950  0.2588E-73  0.2000E+02
  -7.940  0.4065E-73  0.2000E+02
  -7.930  0.7195E-73  0.2000E+02
  -7.920  0.1323E-72  0.2000E+02
  -7.910  0.2458E-72  0.2000E+02
  -7.900  0.4575E-72  0.2000E+02
  -7.890  0.8515E-72  0.2000E+02
  -7.880  0.1583E-71  0.2000E+02
  -7.870  0.2941E-71  0.2000E+02
  -7.860  0.5456E-71  0.2000E+02
  -7.850  0.1011E-70  0.2000E+02
  -7.840  0.1871E-70  0.2000E+02
  -7.830  0.3459E-70  0.2000E+02
  -7.820  0.6386E-70  0.2000E+02
  -7.810  0.1178E-69  0.2000E+02
  -7.800  0.2169E-69  0.2000E+02
  -7.790  0.3991E-69  0.2000E+02
  -7.780  0.7334E-69  0.2000E+02
  -7.770  0.1346E-68  0.2000E+02
  -7.760  0.2468E-68  0.2000E+02
  -7.750  0.4518E-68  0.2000E+02
  -7.740  0.8263E-68  0.2000E+02
  -7.730  0.1509E-67  0.2000E+02
  -7.720  0.2754E-67  0.2000E+02
  -7.710  0.5019E-67  0.2000E+02
  -7.700  0.9135E-67  0.2000E+02
  -7.690  0.1661E-66  0.2000E+02
  -7.680  0.3016E-66  0.2000E+02
  -7.670  0.5469E-66  0.2000E+02
  -7.660  0.9908E-66  0.2000E+02
  -7.650  0.1793E-65  0.2000E+02
  -7.640  0.3240E-65  0.2000E+02
  -7.630  0.5848E-65  0.2000E+02
  -7.620  0.1054E-64  0.2000E+02
  -7.610  0.1899E-64  0.2000E+02
  -7.600  0.3415E-64  0.2000E+02
  -7.590  0.6134E-64  0.2000E+02
  -7.580  0.1101E-63  0.2000E+02
  -7.570  0.1973E-63  0.2000E+02
  -7.560  0.3531E-63  0.2000E+02
  -7.550  0.6314E-63  0.2000E+02
  -7.540  0.1127E-62  0.2000E+02
  -7.530  0.2011E-62  0.2000E+02
  -7.520  0.3583E-62  0.2000E+02
  -7.510  0.6375E-62  0.2000E+02
  -7.500  0.1133E-61  0.2000E+02
  -7.490  0.2011E-61  0.2000E+02
  -7.480  0.3566E-61  0.2000E+02
  -7.470  0.6316E-61  0.2000E+02
  -7.460  0.1117E-60  0.2000E+02
  -7.450  0.1974E-60  0.2000E+02
  -7.440  0.3483E-60  0.2000E+02
  -7.430  0.6139E-60  0.2000E+02
  -7.420  0.1081E-59  0.2000E+02
  -7.410  0.1900E-59  0.2000E+02
  -7.400  0.3338E-59  0.2000E+02
  -7.390  0.5855E-59  0.2000E+02
  -7.380  0.1026E-58  0.2000E+02
  -7.370  0.1795E-58  0.2000E+02
  -7.360  0.3138E-58  0.2000E+02
  -7.350  0.5478E-58  0.2000E+02
  -7.340  0.9553E-58  0.2000E+02
  -7.330  0.1664E-57  0.2000E+02
  -7.320  0.2894E-57  0.2000E+02
  -7.310  0.5029E-57  0.2000E+02
  -7.300  0.8728E-57  0.2000E+02
  -7.290  0.1513E-56  0.2000E+02
  -7.280  0.2620E-56  0.2000E+02
  -7.270  0.4530E-56  0.2000E+02
  -7.260  0.7824E-56  0.2000E+02
  -7.250  0.1350E-55  0.2000E+02
  -7.240  0.2326E-55  0.2000E+02
  -7.230  0.4003E-55  0.2000E+02
  -7.220  0.6882E-55  0.2000E+02
  -7.210  0.1182E-54  0.2000E+02
  -7.200  0.2026E-54  0.2000E+02
  -7.190  0.3471E-54  0.2000E+02
  -7.180  0.5938E-54  0.2000E+02
  -7.170  0.1015E-53  0.2000E+02
  -7.160  0.1732E-53  0.2000E+02
  -7.150  0.2953E-53  0.2000E+02
  -7.140  0.5028E-53  0.2000E+02
  -7.130  0.8550E-53  0.2000E+02
  -7.120  0.1452E-52  0.2000E+02
  -7.110  0.2464E-52  0.2000E+02
  -7.100  0.4176E-52  0.2000E+02
  -7.090  0.7069E-52  0.2000E+02
  -7.080  0.1195E-51  0.2000E+02
  -7.070  0.2018E-51  0.2000E+02
  -7.060  0.3404E-51  0.2000E+02
  -7.050  0.5734E-51  0.2000E+02
  -7.040  0.9648E-51  0.2000E+02
  -7.030  0.1621E-50  0.2000E+02
  -7.020  0.2722E-50  0.2000E+02
  -7.010  0.4563E-50  0.2000E+02
  -7.000  0.7641E-50  0.2000E+02
  -6.990  0.1278E-49  0.2000E+02
  -6.980  0.2135E-49  0.2000E+02
  -6.970  0.3563E-49  0.2000E+02
  -6.960  0.5938E-49  0.2000E+02
  -6.950  0.9885E-49  0.2000E+02
  -6.940  0.1644E-48  0.2000E+02
  -6.930  0.2730E-48  0.2000E+02
  -6.920  0.4528E-48  0.2000E+02
  -6.910  0.7501E-48  0.2000E+02
  -6.900  0.1241E-47  0.2000E+02
  -6.890  0.2052E-47  0.2000E+02
  -6.880  0.3387E-47  0.2000E+02
  -6.870  0.5585E-47  0.2000E+02
  -6.860  0.9198E-47  0.2000E+02
  -6.850  0.1513E-46  0.2000E+02
  -6.840  0.2486E-46  0.2000E+02
  -6.830  0.4080E-46  0.2000E+02
  -6.820  0.6688E-46  0.2000E+02
  -6.810  0.1095E-45  0.2000E+02
  -6.800  0.1790E-45  0.2000E+02
  -6.790  0.2924E-45  0.2000E+02
  -6.780  0.4770E-45  0.2000E+02
  -6.770  0.7773E-45  0.2000E+02
  -6.760  0.1265E-44  0.2000E+02
  -6.750  0.2056E-44  0.2000E+02
  -6.740  0.3339E-44  0.2000E+02
  -6.730  0.5414E-44  0.2000E+02
  -6.720  0.8770E-44  0.2000E+02
  -6.710  0.1419E-43  0.2000E+02
  -6.700  0.2293E-43  0.2000E+02
  -6.690  0.3700E-43  0.2000E+02
  -6.680  0.5965E-43  0.2000E+02
  -6.670  0.9605E-43  0.2000E+02
  -6.660  0.1545E-42  0.2000E+02
  -6.650  0.2481E-42  0.2000E+02
  -6.640  0.3981E-42  0.2000E+02
  -6.630  0.6380E-42  0.2000E+02
  -6.620  0.1021E-41  0.2000E+02
  -6.610  0.1633E-41  0.2000E+02
  -6.600  0.2607E-41  0.2000E+02
  -6.590  0.4158E-41  0.2000E+02
  -6.580  0.6623E-41  0.2000E+02
  -6.570  0.1054E-40  0.2000E+02
  -6.560  0.1675E-40  0.2000E+02
  -6.550  0.2659E-40  0.2000E+02
  -6.540  0.4215E-40  0.2000E+02
  -6.530  0.6675E-40  0.2000E+02
  -6.520  0.1056E-39  0.2000E+02
  -6.510  0.1668E-39  0.2000E+02
  -6.500  0.2632E-39  0.2000E+02
  -6.490  0.4148E-39  0.2000E+02
  -6.480  0.6530E-39  0.2000E+02
  -6.470  0.1027E-38  0.2000E+02
  -6.460  0.1612E-38  0.2000E+02
  -6.450  0.2529E-38  0.2000E+02
  -6.440  0.3963E-38  0.2000E+02
  -6.430  0.6201E-38  0.2000E+02
  -6.420  0.9692E-38  0.2000E+02
  -6.410  0.1513E-37  0.2000E+02
  -6.400  0.2359E-37  0.2000E+02
  -6.390  0.3675E-37  0.2000E+02
  -6.380  0.5716E-37  0.2000E+02
  -6.370  0.8882E-37  0.2000E+02
  -6.360  0.1378E-36  0.2000E+02
  -6.350  0.2137E-36  0.2000E+02
  -6.340  0.3308E-36  0.2000E+02
  -6.330  0.5115E-36  0.2000E+02
  -6.320  0.7901E-36  0.2000E+02
  -6.310  0.1219E-35  0.2000E+02
  -6.300  0.1878E-35  0.2000E+02
  -6.290  0.2891E-35  0.2000E+02
  -6.280  0.4444E-35  0.2000E+02
  -6.270  0.6823E-35  0.2000E+02
  -6.260  0.1046E-34  0.2000E+02
  -6.250  0.1603E-34  0.2000E+02
  -6.240  0.2452E-34  0.2000E+02
  -6.230  0.3747E-34  0.2000E+02
  -6.220  0.5719E-34  0.2000E+02
  -6.210  0.8719E-34  0.2000E+02
  -6.200  0.1328E-33  0.2000E+02
  -6.190  0.2019E-33  0.2000E+02
  -6.180  0.3067E-33  0.2000E+02
  -6.170  0.4654E-33  0.2000E+02
  -6.160  0.7053E-33  0.2000E+02
  -6.150  0.1068E-32  0.2000E+02
  -6.140  0.1614E-32  0.2000E+02
  -6.130  0.2438E-32  0.2000E+02
  -6.120  0.3677E-32  0.2000E+02
  -6.110  0.5539E-32  0.2000E+02
  -6.100  0.8335E-32  0.2000E+02
  -6.090  0.1253E-31  0.2000E+02
  -6.080  0.1881E-31  0.2000E+02
  -6.070  0.2820E-31  0.2000E+02
  -6.060  0.4223E-31  0.2000E+02
  -6.050  0.6317E-31  0.2000E+02
  -6.040  0.9437E-31  0.2000E+02
  -6.030  0.1408E-30  0.2000E+02
  -6.020  0.2099E-30  0.2000E+02
  -6.010  0.3125E-30  0.2000E+02
  -6.000  0.4647E-30  0.2000E+02
  -5.990  0.6902E-30  0.2000E+02
  -5.980  0.1024E-29  0.2000E+02
  -5.970  0.1517E-29  0.2000E+02
  -5.960  0.2245E-29  0.2000E+02
  -5.950  0.3319E-29  0.2000E+02
  -5.940  0.4900E-29  0.2000E+02
  -5.930  0.7227E-29  0.2000E+02
  -5.920  0.1064E-28  0.2000E+02
  -5.910  0.1566E-28  0.2000E+02
  -5.900  0.2301E-28  0.2000E+02
  -5.890  0.3378E-28  0.2000E+02
  -5.880  0.4951E-28  0.2000E+02
  -5.870  0.7250E-28  0.2000E+02
  -5.860  0.1060E-27  0.2000E+02
  -5.850  0.1549E-27  0.2000E+02
  -5.840  0.2260E-27  0.2000E+02
  -5.830  0.3294E-27  0.2000E+02
  -5.820  0.4794E-27  0.2000E+02
  -5.810  0.6970E-27  0.2000E+02
  -5.800  0.1012E-26  0.2000E+02
  -5.790  0.1468E-26  0.2000E+02
  -5.780  0.2127E-26  0.2000E+02
  -5.770  0.3078E-26  0.2000E+02
  -5.760  0.4448E-26  0.2000E+02
  -5.750  0.6421E-26  0.2000E+02
  -5.740  0.9259E-26  0.2000E+02
  -5.730  0.1333E-25  0.2000E+02
  -5.720  0.1918E-25  0.2000E+02
  -5.710  0.2756E-25  0.2000E+02
  -5.700  0.3955E-25  0.2000E+02
  -5.690  0.5669E-25  0.2000E+02
  -5.680  0.8115E-25  0.2000E+02
  -5.670  0.1160E-24  0.2000E+02
  -5.660  0.1658E-24  0.2000E+02
  -5.650  0.2365E-24  0.2000E+02
  -5.640  0.3369E-24  0.2000E+02
  -5.630  0.4795E-24  0.2000E+02
  -5.620  0.6817E-24  0.2000E+02
  -5.610  0.9679E-24  0.2000E+02
  -5.600  0.1373E-23  0.2000E+02
  -5.590  0.1944E-23  0.2000E+02
  -5.580  0.2751E-23  0.2000E+02
  -5.570  0.3888E-23  0.2000E+02
  -5.560  0.5487E-23  0.2000E+02
  -5.550  0.7736E-23  0.2000E+02
  -5.540  0.1089E-22  0.2000E+02
  -5.530  0.1532E-22  0.2000E+02
  -5.520  0.2152E-22  0.2000E+02
  -5.510  0.3020E-22  0.2000E+02
  -5.500  0.4233E-22  0.2000E+02
  -5.490  0.5926E-22  0.2000E+02
  -5.480  0.8285E-22  0.2000E+02
  -5.470  0.1157E-21  0.2000E+02
  -5.460  0.1614E-21  0.2000E+02
  -5.450  0.2249E-21  0.2000E+02
  -5.440  0.3129E-21  0.2000E+02
  -5.430  0.4350E-21  0.2000E+02
  -5.420  0.6039E-21  0.2000E+02
  -5.410  0.8374E-21  0.2000E+02
  -5.400  0.1160E-20  0.2000E+02
  -5.390  0.1605E-20  0.2000E+02
  -5.380  0.2217E-20  0.2000E+02
  -5.370  0.3060E-20  0.2000E+02
  -5.360  0.4218E-20  0.2000E+02
  -5.350  0.5808E-20  0.2000E+02
  -5.340  0.7988E-20  0.2000E+02
  -5.330  0.1097E-19  0.2000E+02
  -5.320  0.1506E-19  0.2000E+02
  -5.310  0.2063E-19  0.2000E+02
  -5.300  0.2824E-19  0.2000E+02
  -5.290  0.3861E-19  0.2000E+02
  -5.280  0.5273E-19  0.2000E+02
  -5.270  0.7192E-19  0.2000E+02
  -5.260  0.9798E-19  0.2000E+02
  -5.250  0.1333E-18  0.2000E+02
  -5.240  0.1812E-18  0.2000E+02
  -5.230  0.2460E-18  0.2000E+02
  -5.220  0.3336E-18  0.2000E+02
  -5.210  0.4518E-18  0.2000E+02
  -5.200  0.6112E-18  0.2000E+02
  -5.190  0.8258E-18  0.2000E+02
  -5.180  0.1115E-17  0.2000E+02
  -5.170  0.1502E-17  0.2000E+02
  -5.160  0.2023E-17  0.2000E+02
  -5.150  0.2720E-17  0.2000E+02
  -5.140  0.3654E-17  0.2000E+02
  -5.130  0.4903E-17  0.2000E+02
  -5.120  0.6570E-17  0.2000E+02
  -5.110  0.8794E-17  0.2000E+02
  -5.100  0.1176E-16  0.2000E+02
  -5.090  0.1570E-16  0.2000E+02
  -5.080  0.2094E-16  0.2000E+02
  -5.070  0.2790E-16  0.2000E+02
  -5.060  0.3712E-16  0.2000E+02
  -5.050  0.4934E-16  0.2000E+02
  -5.040  0.6551E-16  0.2000E+02
  -5.030  0.8686E-16  0.2000E+02
  -5.020  0.1150E-15  0.2000E+02
  -5.010  0.1522E-15  0.2000E+02
  -5.000  0.2011E-15  0.2000E+02
  -4.990  0.2654E-15  0.2000E+02
  -4.980  0.3498E-15  0.2000E+02
  -4.970  0.4606E-15  0.2000E+02
  -4.960  0.6058E-15  0.2000E+02
  -4.950  0.7958E-15  0.2000E+02
  -4.940  0.1044E-14  0.2000E+02
  -4.930  0.1368E-14  0.2000E+02
  -4.920  0.1791E-14  0.2000E+02
  -4.910  0.2342E-14  0.2000E+02
  -4.900  0.3058E-14  0.2000E+02
  -4.890  0.3989E-14  0.2000E+02
  -4.880  0.5197E-14  0.2000E+02
  -4.870  0.6763E-14  0.2000E+02
  -4.860  0.8791E-14  0.2000E+02
  -4.850  0.1141E-13  0.2000E+02
  -4.840  0.1480E-13  0.2000E+02
  -4.830  0.1917E-13  0.2000E+02
  -4.820  0.2480E-13  0.2000E+02
  -4.810  0.3205E-13  0.2000E+02
  -4.800  0.4137E-13  0.2000E+02
  -4.790  0.5333E-13  0.2000E+02
  -4.780  0.6868E-13  0.2000E+02
  -4.770  0.8833E-13  0.2000E+02
  -4.760  0.1135E-12  0.2000E+02
  -4.750  0.1456E-12  0.2000E+02
  -4.740  0.1866E-12  0.2000E+02
  -4.730  0.2389E-12  0.2000E+02
  -4.720  0.3055E-12  0.2000E+02
  -4.710  0.3902E-12  0.2000E+02
  -4.700  0.4978E-12  0.2000E+02
  -4.690  0.6343E-12  0.2000E+02
  -4.680  0.8074E-12  0.2000E+02
  -4.670  0.1026E-11  0.2000E+02
  -4.660  0.1303E-11  0.2000E+02
  -4.650  0.1653E-11  0.2000E+02
  -4.640  0.2094E-11  0.2000E+02
  -4.630  0.2650E-11  0.2000E+02
  -4.620  0.3349E-11  0.2000E+02
  -4.610  0.4228E-11  0.2000E+02
  -4.600  0.5331E-11  0.2000E+02
  -4.590  0.6715E-11  0.2000E+02
  -4.580  0.8447E-11  0.2000E+02
  -4.570  0.1061E-10  0.2000E+02
  -4.560  0.1332E-10  0.2000E+02
  -4.550  0.1670E-10  0.2000E+02
  -4.540  0.2091E-10  0.2000E+02
  -4.530  0.2616E-10  0.2000E+02
  -4.520  0.3268E-10  0.2000E+02
  -4.510  0.4078E-10  0.2000E+02
  -4.500  0.5082E-10  0.2000E+02
  -4.490  0.6327E-10  0.2000E+02
  -4.480  0.7868E-10  0.2000E+02
  -4.470  0.9772E-10  0.2000E+02
  -4.460  0.1212E-09  0.2000E+02
  -4.450  0.1502E-09  0.2000E+02
  -4.440  0.1860E-09  0.2000E+02
  -4.430  0.2299E-09  0.2000E+02
  -4.420  0.2839E-09  0.2000E+02
  -4.410  0.3502E-09  0.2000E+02
  -4.400  0.4314E-09  0.2000E+02
  -4.390  0.5309E-09  0.2000E+02
  -4.380  0.6526E-09  0.2000E+02
  -4.370  0.8013E-09  0.2000E+02
  -4.360  0.9827E-09  0.2000E+02
  -4.350  0.1204E-08  0.2000E+02
  -4.340  0.1473E-08  0.2000E+02
  -4.330  0.1800E-08  0.2000E+02
  -4.320  0.2197E-08  0.2000E+02
  -4.310  0.2679E-08  0.2000E+02
  -4.300  0.3263E-08  0.2000E+02
  -4.290  0.3970E-08  0.2000E+02
  -4.280  0.4823E-08  0.2000E+02
  -4.270  0.5854E-08  0.2000E+02
  -4.260  0.7097E-08  0.2000E+02
  -4.250  0.8595E-08  0.2000E+02
  -4.240  0.1040E-07  0.2000E+02
  -4.230  0.1256E-07  0.2000E+02
  -4.220  0.1516E-07  0.2000E+02
  -4.210  0.1827E-07  0.2000E+02
  -4.200  0.2200E-07  0.2000E+02
  -4.190  0.2645E-07  0.2000E+02
  -4.180  0.3178E-07  0.2000E+02
  -4.170  0.3813E-07  0.2000E+02
  -4.160  0.4570E-07  0.2000E+02
  -4.150  0.5471E-07  0.2000E+02
  -4.140  0.6542E-07  0.2000E+02
  -4.130  0.7814E-07  0.2000E+02
  -4.120  0.9323E-07  0.2000E+02
  -4.110  0.1111E-06  0.2000E+02
  -4.100  0.1322E-06  0.2000E+02
  -4.090  0.1572E-06  0.2000E+02
  -4.080  0.1867E-06  0.2000E+02
  -4.070  0.2215E-06  0.2000E+02
  -4.060  0.2625E-06  0.2000E+02
  -4.050  0.3107E-06  0.2000E+02
  -4.040  0.3673E-06  0.2000E+02
  -4.030  0.4338E-06  0.2000E+02
  -4.020  0.5117E-06  0.2000E+02
  -4.010  0.6029E-06  0.2000E+02
  -4.000  0.7095E-06  0.2000E+02
  -3.990  0.8341E-06  0.2000E+02
  -3.980  0.9794E-06  0.2000E+02
  -3.970  0.1149E-05  0.2000E+02
  -3.960  0.1346E-05  0.2000E+02
  -3.950  0.1575E-05  0.2000E+02
  -3.940  0.1841E-05  0.2000E+02
  -3.930  0.2150E-05  0.2000E+02
  -3.920  0.2508E-05  0.2000E+02
  -3.910  0.2921E-05  0.2000E+02
  -3.900  0.3400E-05  0.2000E+02
  -3.890  0.3952E-05  0.2000E+02
  -3.880  0.4589E-05  0.2000E+02
  -3.870  0.5322E-05  0.2000E+02
  -3.860  0.6166E-05  0.2000E+02
  -3.850  0.7135E-05  0.2000E+02
  -3.840  0.8248E-05  0.2000E+02
  -3.830  0.9524E-05  0.2000E+02
  -3.820  0.1098E-04  0.2000E+02
  -3.810  0.1265E-04  0.2000E+02
  -3.800  0.1456E-04  0.2000E+02
  -3.790  0.1674E-04  0.2000E+02
  -3.780  0.1922E-04  0.2000E+02
  -3.770  0.2205E-04  0.2000E+02
  -3.760  0.2526E-04  0.2000E+02
  -3.750  0.2891E-04  0.2000E+02
  -3.740  0.3305E-04  0.2000E+02
  -3.730  0.3774E-04  0.2000E+02
  -3.720  0.4305E-04  0.2000E+02
  -3.710  0.4905E-04  0.2000E+02
  -3.700  0.5582E-04  0.2000E+02
  -3.690  0.6347E-04  0.2000E+02
  -3.680  0.7208E-04  0.2000E+02
  -3.670  0.8177E-04  0.2000E+02
  -3.660  0.9266E-04  0.2000E+02
  -3.650  0.1049E-03  0.2000E+02
  -3.640  0.1186E-03  0.2000E+02
  -3.630  0.1339E-03  0.2000E+02
  -3.620  0.1511E-03  0.2000E+02
  -3.610  0.1703E-03  0.2000E+02
  -3.600  0.1918E-03  0.2000E+02
  -3.590  0.2156E-03  0.2000E+02
  -3.580  0.2422E-03  0.2000E+02
  -3.570  0.2718E-03  0.2000E+02
  -3.560  0.3047E-03  0.2000E+02
  -3.550  0.3412E-03  0.2000E+02
  -3.540  0.3817E-03  0.2000E+02
  -3.530  0.4265E-03  0.2000E+02
  -3.520  0.4760E-03  0.2000E+02
  -3.510  0.5307E-03  0.2000E+02
  -3.500  0.5911E-03  0.2000E+02
  -3.490  0.6577E-03  0.2000E+02
  -3.480  0.7310E-03  0.2000E+02
  -3.470  0.8116E-03  0.2000E+02
  -3.460  0.9001E-03  0.2000E+02
  -3.450  0.9972E-03  0.2000E+02
  -3.440  0.1104E-02  0.2000E+02
  -3.430  0.1220E-02  0.2000E+02
  -3.420  0.1348E-02  0.2000E+02
  -3.410  0.1487E-02  0.2000E+02
  -3.400  0.1639E-02  0.2000E+02
  -3.390  0.1804E-02  0.2000E+02
  -3.380  0.1984E-02  0.2000E+02
  -3.370  0.2180E-02  0.2000E+02
  -3.360  0.2393E-02  0.2000E+02
  -3.350  0.2623E-02  0.2000E+02
  -3.340  0.2873E-02  0.2000E+02
  -3.330  0.3144E-02  0.2000E+02
  -3.320  0.3436E-02  0.2000E+02
  -3.310  0.3752E-02  0.2000E+02
  -3.300  0.4093E-02  0.2000E+02
  -3.290  0.4461E-02  0.2000E+02
  -3.280  0.4856E-02  0.2000E+02
  -3.270  0.5281E-02  0.2000E+02
  -3.260  0.5738E-02  0.2000E+02
  -3.250  0.6228E-02  0.2000E+02
  -3.240  0.6752E-02  0.2000E+02
  -3.230  0.7314E-02  0.2000E+02
  -3.220  0.7915E-02  0.2000E+02
  -3.210  0.8557E-02  0.2000E+02
  -3.200  0.9241E-02  0.2000E+02
  -3.190  0.9971E-02  0.2000E+02
  -3.180  0.1075E-01  0.2000E+02
  -3.170  0.1157E-01  0.2000E+02
  -3.160  0.1245E-01  0.2000E+02
  -3.150  0.1338E-01  0.2000E+02
  -3.140  0.1437E-01  0.2000E+02
  -3.130  0.1541E-01  0.2000E+02
  -3.120  0.1652E-01  0.2000E+02
  -3.110  0.1769E-01  0.2000E+02
  -3.100  0.1892E-01  0.2000E+02
  -3.090  0.2022E-01  0.2000E+02
  -3.080  0.2159E-01  0.2000E+02
  -3.070  0.2303E-01  0.2000E+02
  -3.060  0.2454E-01  0.2000E+02
  -3.050  0.2613E-01  0.2000E+02
  -3.040  0.2780E-01  0.2000E+02
  -3.030  0.2954E-01  0.2000E+02
  -3.020  0.3137E-01  0.2000E+02
  -3.010  0.3328E-01  0.2000E+02
  -3.000  0.3528E-01  0.2001E+02
  -2.990  0.3736E-01  0.2001E+02
  -2.980  0.3953E-01  0.2001E+02
  -2.970  0.4179E-01  0.2001E+02
  -2.960  0.4414E-01  0.2001E+02
  -2.950  0.4658E-01  0.2001E+02
  -2.940  0.4911E-01  0.2001E+02
  -2.930  0.5174E-01  0.2001E+02
  -2.920  0.5446E-01  0.2001E+02
  -2.910  0.5728E-01  0.2001E+02
  -2.900  0.6020E-01  0.2001E+02
  -2.890  0.6321E-01  0.2001E+02
  -2.880  0.6631E-01  0.2001E+02
  -2.870  0.6951E-01  0.2001E+02
  -2.860  0.7281E-01  0.2001E+02
  -2.850  0.7621E-01  0.2001E+02
  -2.840  0.7969E-01  0.2001E+02
  -2.830  0.8328E-01  0.2002E+02
  -2.820  0.8695E-01  0.2002E+02
  -2.810  0.9072E-01  0.2002E+02
  -2.800  0.9458E-01  0.2002E+02
  -2.790  0.9853E-01  0.2002E+02
  -2.780  0.1026E+00  0.2002E+02
  -2.770  0.1067E+00  0.2002E+02
  -2.760  0.1109E+00  0.2002E+02
  -2.750  0.1152E+00  0.2002E+02
  -2.740  0.1196E+00  0.2002E+02
  -2.730  0.1240E+00  0.2003E+02
  -2.720  0.1286E+00  0.2003E+02
  -2.710  0.1332E+00  0.2003E+02
  -2.700  0.1378E+00  0.2003E+02
  -2.690  0.1426E+00  0.2003E+02
  -2.680  0.1474E+00  0.2003E+02
  -2.670  0.1522E+00  0.2003E+02
  -2.660  0.1572E+00  0.2004E+02
  -2.650  0.1622E+00  0.2004E+02
  -2.640  0.1672E+00  0.2004E+02
  -2.630  0.1723E+00  0.2004E+02
  -2.620  0.1774E+00  0.2004E+02
  -2.610  0.1826E+00  0.2004E+02
  -2.600  0.1878E+00  0.2005E+02
  -2.590  0.1931E+00  0.2005E+02
  -2.580  0.1984E+00  0.2005E+02
  -2.570  0.2037E+00  0.2005E+02
  -2.560  0.2090E+00  0.2005E+02
  -2.550  0.2144E+00  0.2006E+02
  -2.540  0.2198E+00  0.2006E+02
  -2.530  0.2252E+00  0.2006E+02
  -2.520  0.2306E+00  0.2006E+02
  -2.510  0.2361E+00  0.2007E+02
  -2.500  0.2415E+00  0.2007E+02
  -2.490  0.2470E+00  0.2007E+02
  -2.480  0.2524E+00  0.2007E+02
  -2.470  0.2579E+00  0.2008E+02
  -2.460  0.2633E+00  0.2008E+02
  -2.450  0.2688E+00  0.2008E+02
  -2.440  0.2742E+00  0.2008E+02
  -2.430  0.2797E+00  0.2009E+02
  -2.420  0.2851E+00  0.2009E+02
  -2.410  0.2905E+00  0.2009E+02
  -2.400  0.2959E+00  0.2009E+02
  -2.390  0.3013E+00  0.2010E+02
  -2.380  0.3067E+00  0.2010E+02
  -2.370  0.3121E+00  0.2010E+02
  -2.360  0.3174E+00  0.2011E+02
  -2.350  0.3227E+00  0.2011E+02
  -2.340  0.3280E+00  0.2011E+02
  -2.330  0.3333E+00  0.2012E+02
  -2.320  0.3385E+00  0.2012E+02
  -2.310  0.3438E+00  0.2012E+02
  -2.300  0.3490E+00  0.2013E+02
  -2.290  0.3541E+00  0.2013E+02
  -2.280  0.3593E+00  0.2013E+02
  -2.270  0.3644E+00  0.2014E+02
  -2.260  0.3695E+00  0.2014E+02
  -2.250  0.3746E+00  0.2015E+02
  -2.240  0.3796E+00  0.2015E+02
  -2.230  0.3847E+00  0.2015E+02
  -2.220  0.3897E+00  0.2016E+02
  -2.210  0.3946E+00  0.2016E+02
  -2.200  0.3996E+00  0.2017E+02
  -2.190  0.4045E+00  0.2017E+02
  -2.180  0.4094E+00  0.2017E+02
  -2.170  0.4143E+00  0.2018E+02
  -2.160  0.4192E+00  0.2018E+02
  -2.150  0.4240E+00  0.2019E+02
  -2.140  0.4288E+00  0.2019E+02
  -2.130  0.4336E+00  0.2019E+02
  -2.120  0.4384E+00  0.2020E+02
  -2.110  0.4432E+00  0.2020E+02
  -2.100  0.4479E+00  0.2021E+02
  -2.090  0.4527E+00  0.2021E+02
  -2.080  0.4574E+00  0.2022E+02
  -2.070  0.4621E+00  0.2022E+02
  -2.060  0.4668E+00  0.2023E+02
  -2.050  0.4715E+00  0.2023E+02
  -2.040  0.4762E+00  0.2024E+02
  -2.030  0.4809E+00  0.2024E+02
  -2.020  0.4855E+00  0.2025E+02
  -2.010  0.4902E+00  0.2025E+02
  -2.000  0.4949E+00  0.2026E+02
  -1.990  0.4995E+00  0.2026E+02
  -1.980  0.5042E+00  0.2027E+02
  -1.970  0.5089E+00  0.2027E+02
  -1.960  0.5136E+00  0.2028E+02
  -1.950  0.5182E+00  0.2028E+02
  -1.940  0.5229E+00  0.2029E+02
  -1.930  0.5276E+00  0.2029E+02
  -1.920  0.5323E+00  0.2030E+02
  -1.910  0.5370E+00  0.2030E+02
  -1.900  0.5417E+00  0.2031E+02
  -1.890  0.5465E+00  0.2031E+02
  -1.880  0.5512E+00  0.2032E+02
  -1.870  0.5560E+00  0.2032E+02
  -1.860  0.5608E+00  0.2033E+02
  -1.850  0.5656E+00  0.2034E+02
  -1.840  0.5704E+00  0.2034E+02
  -1.830  0.5753E+00  0.2035E+02
  -1.820  0.5802E+00  0.2035E+02
  -1.810  0.5851E+00  0.2036E+02
  -1.800  0.5900E+00  0.2036E+02
  -1.790  0.5950E+00  0.2037E+02
  -1.780  0.6000E+00  0.2038E+02
  -1.770  0.6050E+00  0.2038E+02
  -1.760  0.6100E+00  0.2039E+02
  -1.750  0.6151E+00  0.2039E+02
  -1.740  0.6203E+00  0.2040E+02
  -1.730  0.6254E+00  0.2041E+02
  -1.720  0.6307E+00  0.2041E+02
  -1.710  0.6359E+00  0.2042E+02
  -1.700  0.6412E+00  0.2043E+02
  -1.690  0.6465E+00  0.2043E+02
  -1.680  0.6519E+00  0.2044E+02
  -1.670  0.6573E+00  0.2045E+02
  -1.660  0.6628E+00  0.2045E+02
  -1.650  0.6683E+00  0.2046E+02
  -1.640  0.6739E+00  0.2047E+02
  -1.630  0.6795E+00  0.2047E+02
  -1.620  0.6851E+00  0.2048E+02
  -1.610  0.6908E+00  0.2049E+02
  -1.600  0.6966E+00  0.2049E+02
  -1.590  0.7024E+00  0.2050E+02
  -1.580  0.7082E+00  0.2051E+02
  -1.570  0.7141E+00  0.2051E+02
  -1.560  0.7201E+00  0.2052E+02
  -1.550  0.7260E+00  0.2053E+02
  -1.540  0.7320E+00  0.2054E+02
  -1.530  0.7381E+00  0.2054E+02
  -1.520  0.7442E+00  0.2055E+02
  -1.510  0.7503E+00  0.2056E+02
  -1.500  0.7565E+00  0.2057E+02
  -1.490  0.7627E+00  0.2057E+02
  -1.480  0.7690E+00  0.2058E+02
  -1.470  0.7752E+00  0.2059E+02
  -1.460  0.7815E+00  0.2060E+02
  -1.450  0.7879E+00  0.2060E+02
  -1.440  0.7942E+00  0.2061E+02
  -1.430  0.8005E+00  0.2062E+02
  -1.420  0.8069E+00  0.2063E+02
  -1.410  0.8133E+00  0.2064E+02
  -1.400  0.8197E+00  0.2065E+02
  -1.390  0.8260E+00  0.2065E+02
  -1.380  0.8324E+00  0.2066E+02
  -1.370  0.8388E+00  0.2067E+02
  -1.360  0.8451E+00  0.2068E+02
  -1.350  0.8514E+00  0.2069E+02
  -1.340  0.8577E+00  0.2070E+02
  -1.330  0.8640E+00  0.2070E+02
  -1.320  0.8702E+00  0.2071E+02
  -1.310  0.8764E+00  0.2072E+02
  -1.300  0.8825E+00  0.2073E+02
  -1.290  0.8885E+00  0.2074E+02
  -1.280  0.8945E+00  0.2075E+02
  -1.270  0.9004E+00  0.2076E+02
  -1.260  0.9063E+00  0.2077E+02
  -1.250  0.9120E+00  0.2078E+02
  -1.240  0.9177E+00  0.2078E+02
  -1.230  0.9233E+00  0.2079E+02
  -1.220  0.9287E+00  0.2080E+02
  -1.210  0.9341E+00  0.2081E+02
  -1.200  0.9393E+00  0.2082E+02
  -1.190  0.9444E+00  0.2083E+02
  -1.180  0.9494E+00  0.2084E+02
  -1.170  0.9542E+00  0.2085E+02
  -1.160  0.9589E+00  0.2086E+02
  -1.150  0.9634E+00  0.2087E+02
  -1.140  0.9678E+00  0.2088E+02
  -1.130  0.9720E+00  0.2089E+02
  -1.120  0.9760E+00  0.2090E+02
  -1.110  0.9799E+00  0.2091E+02
  -1.100  0.9836E+00  0.2092E+02
  -1.090  0.9871E+00  0.2093E+02
  -1.080  0.9904E+00  0.2094E+02
  -1.070  0.9935E+00  0.2095E+02
  -1.060  0.9964E+00  0.2096E+02
  -1.050  0.9991E+00  0.2097E+02
  -1.040  0.1002E+01  0.2098E+02
  -1.030  0.1004E+01  0.2099E+02
  -1.020  0.1006E+01  0.2100E+02
  -1.010  0.1008E+01  0.2101E+02
  -1.000  0.1010E+01  0.2102E+02
  -0.990  0.1011E+01  0.2103E+02
  -0.980  0.1012E+01  0.2104E+02
  -0.970  0.1013E+01  0.2105E+02
  -0.960  0.1014E+01  0.2106E+02
  -0.950  0.1015E+01  0.2107E+02
  -0.940  0.1015E+01  0.2108E+02
  -0.930  0.1015E+01  0.2109E+02
  -0.920  0.1015E+01  0.2110E+02
  -0.910  0.1015E+01  0.2111E+02
  -0.900  0.1014E+01  0.2112E+02
  -0.890  0.1014E+01  0.2113E+02
  -0.880  0.1013E+01  0.2114E+02
  -0.870  0.1012E+01  0.2115E+02
  -0.860  0.1010E+01  0.2116E+02
  -0.850  0.1009E+01  0.2117E+02
  -0.840  0.1007E+01  0.2118E+02
  -0.830  0.1005E+01  0.2119E+02
  -0.820  0.1003E+01  0.2120E+02
  -0.810  0.1001E+01  0.2121E+02
  -0.800  0.9981E+00  0.2122E+02
  -0.790  0.9954E+00  0.2123E+02
  -0.780  0.9925E+00  0.2124E+02
  -0.770  0.9895E+00  0.2125E+02
  -0.760  0.9863E+00  0.2126E+02
  -0.750  0.9829E+00  0.2127E+02
  -0.740  0.9794E+00  0.2128E+02
  -0.730  0.9757E+00  0.2129E+02
  -0.720  0.9719E+00  0.2130E+02
  -0.710  0.9679E+00  0.2131E+02
  -0.700  0.9638E+00  0.2132E+02
  -0.690  0.9595E+00  0.2133E+02
  -0.680  0.9552E+00  0.2134E+02
  -0.670  0.9507E+00  0.2135E+02
  -0.660  0.9460E+00  0.2136E+02
  -0.650  0.9413E+00  0.2137E+02
  -0.640  0.9364E+00  0.2138E+02
  -0.630  0.9314E+00  0.2138E+02
  -0.620  0.9264E+00  0.2139E+02
  -0.610  0.9212E+00  0.2140E+02
  -0.600  0.9159E+00  0.2141E+02
  -0.590  0.9105E+00  0.2142E+02
  -0.580  0.9051E+00  0.2143E+02
  -0.570  0.8995E+00  0.2144E+02
  -0.560  0.8939E+00  0.2145E+02
  -0.550  0.8882E+00  0.2146E+02
  -0.540  0.8824E+00  0.2147E+02
  -0.530  0.8765E+00  0.2147E+02
  -0.520  0.8706E+00  0.2148E+02
  -0.510  0.8645E+00  0.2149E+02
  -0.500  0.8585E+00  0.2150E+02
  -0.490  0.8523E+00  0.2151E+02
  -0.480  0.8461E+00  0.2152E+02
  -0.470  0.8399E+00  0.2153E+02
  -0.460  0.8336E+00  0.2153E+02
  -0.450  0.8272E+00  0.2154E+02
  -0.440  0.8208E+00  0.2155E+02
  -0.430  0.8143E+00  0.2156E+02
  -0.420  0.8078E+00  0.2157E+02
  -0.410  0.8012E+00  0.2158E+02
  -0.400  0.7946E+00  0.2158E+02
  -0.390  0.7879E+00  0.2159E+02
  -0.380  0.7812E+00  0.2160E+02
  -0.370  0.7744E+00  0.2161E+02
  -0.360  0.7676E+00  0.2161E+02
  -0.350  0.7608E+00  0.2162E+02
  -0.340  0.7539E+00  0.2163E+02
  -0.330  0.7470E+00  0.2164E+02
  -0.320  0.7400E+00  0.2164E+02
  -0.310  0.7330E+00  0.2165E+02
  -0.300  0.7260E+00  0.2166E+02
  -0.290  0.7189E+00  0.2167E+02
  -0.280  0.7118E+00  0.2167E+02
  -0.270  0.7046E+00  0.2168E+02
  -0.260  0.6975E+00  0.2169E+02
  -0.250  0.6902E+00  0.2169E+02
  -0.240  0.6830E+00  0.2170E+02
  -0.230  0.6757E+00  0.2171E+02
  -0.220  0.6684E+00  0.2171E+02
  -0.210  0.6611E+00  0.2172E+02
  -0.200  0.6538E+00  0.2173E+02
  -0.190  0.6464E+00  0.2173E+02
  -0.180  0.6390E+00  0.2174E+02
  -0.170  0.6316E+00  0.2175E+02
  -0.160  0.6241E+00  0.2175E+02
  -0.150  0.6167E+00  0.2176E+02
  -0.140  0.6092E+00  0.2177E+02
  -0.130  0.6017E+00  0.2177E+02
  -0.120  0.5942E+00  0.2178E+02
  -0.110  0.5867E+00  0.2178E+02
  -0.100  0.5792E+00  0.2179E+02
  -0.090  0.5717E+00  0.2179E+02
  -0.080  0.5642E+00  0.2180E+02
  -0.070  0.5567E+00  0.2181E+02
  -0.060  0.5492E+00  0.2181E+02
  -0.050  0.5417E+00  0.2182E+02
  -0.040  0.5342E+00  0.2182E+02
  -0.030  0.5267E+00  0.2183E+02
  -0.020  0.5193E+00  0.2183E+02
  -0.010  0.5119E+00  0.2184E+02
  -0.000  0.5046E+00  0.2184E+02
   0.010  0.4972E+00  0.2185E+02
   0.020  0.4900E+00  0.2185E+02
   0.030  0.4827E+00  0.2186E+02
   0.040  0.4756E+00  0.2186E+02
   0.050  0.4684E+00  0.2187E+02
   0.060  0.4614E+00  0.2187E+02
   0.070  0.4544E+00  0.2188E+02
   0.080  0.4475E+00  0.2188E+02
   0.090  0.4407E+00  0.2188E+02
   0.100  0.4340E+00  0.2189E+02
   0.110  0.4274E+00  0.2189E+02
   0.120  0.4209E+00  0.2190E+02
   0.130  0.4145E+00  0.2190E+02
   0.140  0.4082E+00  0.2191E+02
   0.150  0.4021E+00  0.2191E+02
   0.160  0.3960E+00  0.2191E+02
   0.170  0.3902E+00  0.2192E+02
   0.180  0.3844E+00  0.2192E+02
   0.190  0.3789E+00  0.2193E+02
   0.200  0.3734E+00  0.2193E+02
   0.210  0.3682E+00  0.2193E+02
   0.220  0.3631E+00  0.2194E+02
   0.230  0.3582E+00  0.2194E+02
   0.240  0.3535E+00  0.2194E+02
   0.250  0.3490E+00  0.2195E+02
   0.260  0.3447E+00  0.2195E+02
   0.270  0.3405E+00  0.2195E+02
   0.280  0.3366E+00  0.2196E+02
   0.290  0.3329E+00  0.2196E+02
   0.300  0.3295E+00  0.2196E+02
   0.310  0.3262E+00  0.2197E+02
   0.320  0.3232E+00  0.2197E+02
   0.330  0.3204E+00  0.2197E+02
   0.340  0.3179E+00  0.2198E+02
   0.350  0.3156E+00  0.2198E+02
   0.360  0.3135E+00  0.2198E+02
   0.370  0.3117E+00  0.2199E+02
   0.380  0.3101E+00  0.2199E+02
   0.390  0.3088E+00  0.2199E+02
   0.400  0.3077E+00  0.2200E+02
   0.410  0.3069E+00  0.2200E+02
   0.420  0.3064E+00  0.2200E+02
   0.430  0.3061E+00  0.2200E+02
   0.440  0.3060E+00  0.2201E+02
   0.450  0.3062E+00  0.2201E+02
   0.460  0.3067E+00  0.2201E+02
   0.470  0.3074E+00  0.2202E+02
   0.480  0.3084E+00  0.2202E+02
   0.490  0.3096E+00  0.2202E+02
   0.500  0.3110E+00  0.2203E+02
   0.510  0.3127E+00  0.2203E+02
   0.520  0.3147E+00  0.2203E+02
   0.530  0.3169E+00  0.2204E+02
   0.540  0.3193E+00  0.2204E+02
   0.550  0.3220E+00  0.2204E+02
   0.560  0.3248E+00  0.2205E+02
   0.570  0.3279E+00  0.2205E+02
   0.580  0.3313E+00  0.2205E+02
   0.590  0.3348E+00  0.2206E+02
   0.600  0.3385E+00  0.2206E+02
   0.610  0.3425E+00  0.2206E+02
   0.620  0.3466E+00  0.2207E+02
   0.630  0.3510E+00  0.2207E+02
   0.640  0.3555E+00  0.2207E+02
   0.650  0.3602E+00  0.2208E+02
   0.660  0.3651E+00  0.2208E+02
   0.670  0.3702E+00  0.2208E+02
   0.680  0.3754E+00  0.2209E+02
   0.690  0.3808E+00  0.2209E+02
   0.700  0.3863E+00  0.2210E+02
   0.710  0.3920E+00  0.2210E+02
   0.720  0.3978E+00  0.2210E+02
   0.730  0.4038E+00  0.2211E+02
   0.740  0.4098E+00  0.2211E+02
   0.750  0.4161E+00  0.2212E+02
   0.760  0.4224E+00  0.2212E+02
   0.770  0.4289E+00  0.2212E+02
   0.780  0.4354E+00  0.2213E+02
   0.790  0.4421E+00  0.2213E+02
   0.800  0.4489E+00  0.2214E+02
   0.810  0.4558E+00  0.2214E+02
   0.820  0.4627E+00  0.2215E+02
   0.830  0.4698E+00  0.2215E+02
   0.840  0.4770E+00  0.2216E+02
   0.850  0.4842E+00  0.2216E+02
   0.860  0.4915E+00  0.2217E+02
   0.870  0.4989E+00  0.2217E+02
   0.880  0.5063E+00  0.2218E+02
   0.890  0.5139E+00  0.2218E+02
   0.900  0.5215E+00  0.2219E+02
   0.910  0.5291E+00  0.2219E+02
   0.920  0.5368E+00  0.2220E+02
   0.930  0.5446E+00  0.2220E+02
   0.940  0.5525E+00  0.2221E+02
   0.950  0.5603E+00  0.2221E+02
   0.960  0.5683E+00  0.2222E+02
   0.970  0.5763E+00  0.2222E+02
   0.980  0.5843E+00  0.2223E+02
   0.990  0.5924E+00  0.2224E+02
   1.000  0.6005E+00  0.2224E+02
   1.010  0.6086E+00  0.2225E+02
   1.020  0.6168E+00  0.2225E+02
   1.030  0.6250E+00  0.2226E+02
   1.040  0.6333E+00  0.2227E+02
   1.050  0.6415E+00  0.2227E+02
   1.060  0.6498E+00  0.2228E+02
   1.070  0.6581E+00  0.2229E+02
   1.080  0.6665E+00  0.2229E+02
   1.090  0.6748E+00  0.2230E+02
   1.100  0.6832E+00  0.2231E+02
   1.110  0.6915E+00  0.2231E+02
   1.120  0.6999E+00  0.2232E+02
   1.130  0.7083E+00  0.2233E+02
   1.140  0.7166E+00  0.2234E+02
   1.150  0.7249E+00  0.2234E+02
   1.160  0.7332E+00  0.2235E+02
   1.170  0.7415E+00  0.2236E+02
   1.180  0.7498E+00  0.2236E+02
   1.190  0.7580E+00  0.2237E+02
   1.200  0.7662E+00  0.2238E+02
   1.210  0.7743E+00  0.2239E+02
   1.220  0.7824E+00  0.2240E+02
   1.230  0.7904E+00  0.2240E+02
   1.240  0.7983E+00  0.2241E+02
   1.250  0.8061E+00  0.2242E+02
   1.260  0.8139E+00  0.2243E+02
   1.270  0.8215E+00  0.2244E+02
   1.280  0.8291E+00  0.2244E+02
   1.290  0.8365E+00  0.2245E+02
   1.300  0.8438E+00  0.2246E+02
   1.310  0.8509E+00  0.2247E+02
   1.320  0.8579E+00  0.2248E+02
   1.330  0.8648E+00  0.2249E+02
   1.340  0.8715E+00  0.2250E+02
   1.350  0.8780E+00  0.2250E+02
   1.360  0.8843E+00  0.2251E+02
   1.370  0.8904E+00  0.2252E+02
   1.380  0.8964E+00  0.2253E+02
   1.390  0.9021E+00  0.2254E+02
   1.400  0.9075E+00  0.2255E+02
   1.410  0.9128E+00  0.2256E+02
   1.420  0.9178E+00  0.2257E+02
   1.430  0.9225E+00  0.2258E+02
   1.440  0.9270E+00  0.2259E+02
   1.450  0.9312E+00  0.2259E+02
   1.460  0.9352E+00  0.2260E+02
   1.470  0.9388E+00  0.2261E+02
   1.480  0.9422E+00  0.2262E+02
   1.490  0.9453E+00  0.2263E+02
   1.500  0.9480E+00  0.2264E+02
   1.510  0.9505E+00  0.2265E+02
   1.520  0.9526E+00  0.2266E+02
   1.530  0.9544E+00  0.2267E+02
   1.540  0.9559E+00  0.2268E+02
   1.550  0.9571E+00  0.2269E+02
   1.560  0.9580E+00  0.2270E+02
   1.570  0.9585E+00  0.2271E+02
   1.580  0.9587E+00  0.2272E+02
   1.590  0.9585E+00  0.2273E+02
   1.600  0.9581E+00  0.2274E+02
   1.610  0.9573E+00  0.2275E+02
   1.620  0.9561E+00  0.2276E+02
   1.630  0.9547E+00  0.2277E+02
   1.640  0.9529E+00  0.2278E+02
   1.650  0.9509E+00  0.2279E+02
   1.660  0.9485E+00  0.2279E+02
   1.670  0.9458E+00  0.2280E+02
   1.680  0.9428E+00  0.2281E+02
   1.690  0.9395E+00  0.2282E+02
   1.700  0.9360E+00  0.2283E+02
   1.710  0.9321E+00  0.2284E+02
   1.720  0.9280E+00  0.2285E+02
   1.730  0.9237E+00  0.2286E+02
   1.740  0.9191E+00  0.2287E+02
   1.750  0.9142E+00  0.2288E+02
   1.760  0.9091E+00  0.2289E+02
   1.770  0.9038E+00  0.2290E+02
   1.780  0.8983E+00  0.2291E+02
   1.790  0.8926E+00  0.2291E+02
   1.800  0.8867E+00  0.2292E+02
   1.810  0.8806E+00  0.2293E+02
   1.820  0.8744E+00  0.2294E+02
   1.830  0.8680E+00  0.2295E+02
   1.840  0.8614E+00  0.2296E+02
   1.850  0.8548E+00  0.2297E+02
   1.860  0.8480E+00  0.2298E+02
   1.870  0.8411E+00  0.2298E+02
   1.880  0.8341E+00  0.2299E+02
   1.890  0.8270E+00  0.2300E+02
   1.900  0.8198E+00  0.2301E+02
   1.910  0.8126E+00  0.2302E+02
   1.920  0.8053E+00  0.2302E+02
   1.930  0.7980E+00  0.2303E+02
   1.940  0.7906E+00  0.2304E+02
   1.950  0.7832E+00  0.2305E+02
   1.960  0.7758E+00  0.2306E+02
   1.970  0.7684E+00  0.2306E+02
   1.980  0.7609E+00  0.2307E+02
   1.990  0.7535E+00  0.2308E+02
   2.000  0.7461E+00  0.2309E+02
   2.010  0.7388E+00  0.2309E+02
   2.020  0.7314E+00  0.2310E+02
   2.030  0.7241E+00  0.2311E+02
   2.040  0.7169E+00  0.2312E+02
   2.050  0.7097E+00  0.2312E+02
   2.060  0.7025E+00  0.2313E+02
   2.070  0.6954E+00  0.2314E+02
   2.080  0.6884E+00  0.2314E+02
   2.090  0.6815E+00  0.2315E+02
   2.100  0.6746E+00  0.2316E+02
   2.110  0.6678E+00  0.2316E+02
   2.120  0.6611E+00  0.2317E+02
   2.130  0.6544E+00  0.2318E+02
   2.140  0.6479E+00  0.2318E+02
   2.150  0.6414E+00  0.2319E+02
   2.160  0.6350E+00  0.2320E+02
   2.170  0.6287E+00  0.2320E+02
   2.180  0.6226E+00  0.2321E+02
   2.190  0.6165E+00  0.2321E+02
   2.200  0.6104E+00  0.2322E+02
   2.210  0.6045E+00  0.2323E+02
   2.220  0.5987E+00  0.2323E+02
   2.230  0.5930E+00  0.2324E+02
   2.240  0.5873E+00  0.2324E+02
   2.250  0.5818E+00  0.2325E+02
   2.260  0.5764E+00  0.2326E+02
   2.270  0.5710E+00  0.2326E+02
   2.280  0.5657E+00  0.2327E+02
   2.290  0.5605E+00  0.2327E+02
   2.300  0.5554E+00  0.2328E+02
   2.310  0.5504E+00  0.2328E+02
   2.320  0.5454E+00  0.2329E+02
   2.330  0.5406E+00  0.2330E+02
   2.340  0.5358E+00  0.2330E+02
   2.350  0.5311E+00  0.2331E+02
   2.360  0.5265E+00  0.2331E+02
   2.370  0.5219E+00  0.2332E+02
   2.380  0.5174E+00  0.2332E+02
   2.390  0.5130E+00  0.2333E+02
   2.400  0.5086E+00  0.2333E+02
   2.410  0.5043E+00  0.2334E+02
   2.420  0.5001E+00  0.2334E+02
   2.430  0.4959E+00  0.2335E+02
   2.440  0.4918E+00  0.2335E+02
   2.450  0.4877E+00  0.2336E+02
   2.460  0.4837E+00  0.2336E+02
   2.470  0.4797E+00  0.2337E+02
   2.480  0.4758E+00  0.2337E+02
   2.490  0.4720E+00  0.2338E+02
   2.500  0.4682E+00  0.2338E+02
   2.510  0.4644E+00  0.2339E+02
   2.520  0.4607E+00  0.2339E+02
   2.530  0.4571E+00  0.2339E+02
   2.540  0.4535E+00  0.2340E+02
   2.550  0.4499E+00  0.2340E+02
   2.560  0.4464E+00  0.2341E+02
   2.570  0.4429E+00  0.2341E+02
   2.580  0.4395E+00  0.2342E+02
   2.590  0.4361E+00  0.2342E+02
   2.600  0.4327E+00  0.2343E+02
   2.610  0.4294E+00  0.2343E+02
   2.620  0.4262E+00  0.2343E+02
   2.630  0.4229E+00  0.2344E+02
   2.640  0.4198E+00  0.2344E+02
   2.650  0.4166E+00  0.2345E+02
   2.660  0.4135E+00  0.2345E+02
   2.670  0.4105E+00  0.2345E+02
   2.680  0.4075E+00  0.2346E+02
   2.690  0.4045E+00  0.2346E+02
   2.700  0.4015E+00  0.2347E+02
   2.710  0.3986E+00  0.2347E+02
   2.720  0.3958E+00  0.2347E+02
   2.730  0.3929E+00  0.2348E+02
   2.740  0.3901E+00  0.2348E+02
   2.750  0.3874E+00  0.2349E+02
   2.760  0.3847E+00  0.2349E+02
   2.770  0.3820E+00  0.2349E+02
   2.780  0.3793E+00  0.2350E+02
   2.790  0.3767E+00  0.2350E+02
   2.800  0.3741E+00  0.2351E+02
   2.810  0.3715E+00  0.2351E+02
   2.820  0.3690E+00  0.2351E+02
   2.830  0.3665E+00  0.2352E+02
   2.840  0.3640E+00  0.2352E+02
   2.850  0.3615E+00  0.2352E+02
   2.860  0.3591E+00  0.2353E+02
   2.870  0.3567E+00  0.2353E+02
   2.880  0.3543E+00  0.2353E+02
   2.890  0.3519E+00  0.2354E+02
   2.900  0.3496E+00  0.2354E+02
   2.910  0.3472E+00  0.2354E+02
   2.920  0.3449E+00  0.2355E+02
   2.930  0.3426E+00  0.2355E+02
   2.940  0.3403E+00  0.2356E+02
   2.950  0.3380E+00  0.2356E+02
   2.960  0.3358E+00  0.2356E+02
   2.970  0.3335E+00  0.2357E+02
   2.980  0.3313E+00  0.2357E+02
   2.990  0.3290E+00  0.2357E+02
   3.000  0.3268E+00  0.2358E+02
   3.010  0.3246E+00  0.2358E+02
   3.020  0.3224E+00  0.2358E+02
   3.030  0.3202E+00  0.2358E+02
   3.040  0.3180E+00  0.2359E+02
   3.050  0.3158E+00  0.2359E+02
   3.060  0.3136E+00  0.2359E+02
   3.070  0.3115E+00  0.2360E+02
   3.080  0.3093E+00  0.2360E+02
   3.090  0.3071E+00  0.2360E+02
   3.100  0.3050E+00  0.2361E+02
   3.110  0.3029E+00  0.2361E+02
   3.120  0.3008E+00  0.2361E+02
   3.130  0.2987E+00  0.2362E+02
   3.140  0.2966E+00  0.2362E+02
   3.150  0.2945E+00  0.2362E+02
   3.160  0.2924E+00  0.2362E+02
   3.170  0.2904E+00  0.2363E+02
   3.180  0.2883E+00  0.2363E+02
   3.190  0.2863E+00  0.2363E+02
   3.200  0.2843E+00  0.2364E+02
   3.210  0.2823E+00  0.2364E+02
   3.220  0.2804E+00  0.2364E+02
   3.230  0.2784E+00  0.2364E+02
   3.240  0.2765E+00  0.2365E+02
   3.250  0.2746E+00  0.2365E+02
   3.260  0.2727E+00  0.2365E+02
   3.270  0.2708E+00  0.2366E+02
   3.280  0.2690E+00  0.2366E+02
   3.290  0.2672E+00  0.2366E+02
   3.300  0.2654E+00  0.2366E+02
   3.310  0.2636E+00  0.2367E+02
   3.320  0.2619E+00  0.2367E+02
   3.330  0.2602E+00  0.2367E+02
   3.340  0.2585E+00  0.2367E+02
   3.350  0.2568E+00  0.2368E+02
   3.360  0.2551E+00  0.2368E+02
   3.370  0.2535E+00  0.2368E+02
   3.380  0.2519E+00  0.2368E+02
   3.390  0.2503E+00  0.2369E+02
   3.400  0.2488E+00  0.2369E+02
   3.410  0.2472E+00  0.2369E+02
   3.420  0.2457E+00  0.2369E+02
   3.430  0.2442E+00  0.2370E+02
   3.440  0.2427E+00  0.2370E+02
   3.450  0.2413E+00  0.2370E+02
   3.460  0.2398E+00  0.2370E+02
   3.470  0.2384E+00  0.2371E+02
   3.480  0.2370E+00  0.2371E+02
   3.490  0.2356E+00  0.2371E+02
   3.500  0.2342E+00  0.2371E+02
   3.510  0.2329E+00  0.2372E+02
   3.520  0.2315E+00  0.2372E+02
   3.530  0.2302E+00  0.2372E+02
   3.540  0.2288E+00  0.2372E+02
   3.550  0.2275E+00  0.2372E+02
   3.560  0.2262E+00  0.2373E+02
   3.570  0.2249E+00  0.2373E+02
   3.580  0.2236E+00  0.2373E+02
   3.590  0.2224E+00  0.2373E+02
   3.600  0.2211E+00  0.2374E+02
   3.610  0.2199E+00  0.2374E+02
   3.620  0.2186E+00  0.2374E+02
   3.630  0.2174E+00  0.2374E+02
   3.640  0.2162E+00  0.2374E+02
   3.650  0.2150E+00  0.2375E+02
   3.660  0.2139E+00  0.2375E+02
   3.670  0.2128E+00  0.2375E+02
   3.680  0.2116E+00  0.2375E+02
   3.690  0.2106E+00  0.2376E+02
   3.700  0.2095E+00  0.2376E+02
   3.710  0.2085E+00  0.2376E+02
   3.720  0.2075E+00  0.2376E+02
   3.730  0.2066E+00  0.2376E+02
   3.740  0.2057E+00  0.2377E+02
   3.750  0.2049E+00  0.2377E+02
   3.760  0.2042E+00  0.2377E+02
   3.770  0.2035E+00  0.2377E+02
   3.780  0.2028E+00  0.2377E+02
   3.790  0.2023E+00  0.2378E+02
   3.800  0.2018E+00  0.2378E+02
   3.810  0.2014E+00  0.2378E+02
   3.820  0.2011E+00  0.2378E+02
   3.830  0.2010E+00  0.2378E+02
   3.840  0.2009E+00  0.2379E+02
   3.850  0.2010E+00  0.2379E+02
   3.860  0.2011E+00  0.2379E+02
   3.870  0.2015E+00  0.2379E+02
   3.880  0.2019E+00  0.2379E+02
   3.890  0.2025E+00  0.2380E+02
   3.900  0.2033E+00  0.2380E+02
   3.910  0.2043E+00  0.2380E+02
   3.920  0.2055E+00  0.2380E+02
   3.930  0.2068E+00  0.2380E+02
   3.940  0.2084E+00  0.2381E+02
   3.950  0.2101E+00  0.2381E+02
   3.960  0.2121E+00  0.2381E+02
   3.970  0.2143E+00  0.2381E+02
   3.980  0.2168E+00  0.2381E+02
   3.990  0.2195E+00  0.2382E+02
   4.000  0.2225E+00  0.2382E+02
   4.010  0.2258E+00  0.2382E+02
   4.020  0.2294E+00  0.2382E+02
   4.030  0.2333E+00  0.2383E+02
   4.040  0.2374E+00  0.2383E+02
   4.050  0.2419E+00  0.2383E+02
   4.060  0.2468E+00  0.2383E+02
   4.070  0.2519E+00  0.2384E+02
   4.080  0.2574E+00  0.2384E+02
   4.090  0.2633E+00  0.2384E+02
   4.100  0.2695E+00  0.2384E+02
   4.110  0.2761E+00  0.2385E+02
   4.120  0.2830E+00  0.2385E+02
   4.130  0.2904E+00  0.2385E+02
   4.140  0.2981E+00  0.2386E+02
   4.150  0.3063E+00  0.2386E+02
   4.160  0.3148E+00  0.2386E+02
   4.170  0.3237E+00  0.2386E+02
   4.180  0.3330E+00  0.2387E+02
   4.190  0.3428E+00  0.2387E+02
   4.200  0.3529E+00  0.2387E+02
   4.210  0.3635E+00  0.2388E+02
   4.220  0.3744E+00  0.2388E+02
   4.230  0.3858E+00  0.2389E+02
   4.240  0.3976E+00  0.2389E+02
   4.250  0.4098E+00  0.2389E+02
   4.260  0.4223E+00  0.2390E+02
   4.270  0.4353E+00  0.2390E+02
   4.280  0.4486E+00  0.2391E+02
   4.290  0.4623E+00  0.2391E+02
   4.300  0.4764E+00  0.2392E+02
   4.310  0.4908E+00  0.2392E+02
   4.320  0.5056E+00  0.2393E+02
   4.330  0.5207E+00  0.2393E+02
   4.340  0.5362E+00  0.2394E+02
   4.350  0.5519E+00  0.2394E+02
   4.360  0.5679E+00  0.2395E+02
   4.370  0.5843E+00  0.2395E+02
   4.380  0.6008E+00  0.2396E+02
   4.390  0.6176E+00  0.2397E+02
   4.400  0.6347E+00  0.2397E+02
   4.410  0.6519E+00  0.2398E+02
   4.420  0.6693E+00  0.2399E+02
   4.430  0.6869E+00  0.2399E+02
   4.440  0.7047E+00  0.2400E+02
   4.450  0.7225E+00  0.2401E+02
   4.460  0.7405E+00  0.2401E+02
   4.470  0.7586E+00  0.2402E+02
   4.480  0.7767E+00  0.2403E+02
   4.490  0.7948E+00  0.2404E+02
   4.500  0.8129E+00  0.2405E+02
   4.510  0.8311E+00  0.2405E+02
   4.520  0.8492E+00  0.2406E+02
   4.530  0.8672E+00  0.2407E+02
   4.540  0.8852E+00  0.2408E+02
   4.550  0.9031E+00  0.2409E+02
   4.560  0.9208E+00  0.2410E+02
   4.570  0.9385E+00  0.2411E+02
   4.580  0.9559E+00  0.2412E+02
   4.590  0.9732E+00  0.2413E+02
   4.600  0.9903E+00  0.2414E+02
   4.610  0.1007E+01  0.2415E+02
   4.620  0.1024E+01  0.2416E+02
   4.630  0.1040E+01  0.2417E+02
   4.640  0.1056E+01  0.2418E+02
   4.650  0.1072E+01  0.2419E+02
   4.660  0.1088E+01  0.2420E+02
   4.670  0.1103E+01  0.2421E+02
   4.680  0.1118E+01  0.2422E+02
   4.690  0.1132E+01  0.2423E+02
   4.700  0.1146E+01  0.2424E+02
   4.710  0.1160E+01  0.2426E+02
   4.720  0.1174E+01  0.2427E+02
   4.730  0.1187E+01  0.2428E+02
   4.740  0.1200E+01  0.2429E+02
   4.750  0.1212E+01  0.2430E+02
   4.760  0.1224E+01  0.2432E+02
   4.770  0.1236E+01  0.2433E+02
   4.780  0.1247E+01  0.2434E+02
   4.790  0.1258E+01  0.2435E+02
   4.800  0.1269E+01  0.2437E+02
   4.810  0.1279E+01  0.2438E+02
   4.820  0.1289E+01  0.2439E+02
   4.830  0.1299E+01  0.2441E+02
   4.840  0.1308E+01  0.2442E+02
   4.850  0.1317E+01  0.2443E+02
   4.860  0.1326E+01  0.2444E+02
   4.870  0.1334E+01  0.2446E+02
   4.880  0.1342E+01  0.2447E+02
   4.890  0.1350E+01  0.2448E+02
   4.900  0.1358E+01  0.2450E+02
   4.910  0.1365E+01  0.2451E+02
   4.920  0.1372E+01  0.2453E+02
   4.930  0.1379E+01  0.2454E+02
   4.940  0.1385E+01  0.2455E+02
   4.950  0.1392E+01  0.2457E+02
   4.960  0.1398E+01  0.2458E+02
   4.970  0.1404E+01  0.2460E+02
   4.980  0.1410E+01  0.2461E+02
   4.990  0.1415E+01  0.2462E+02
   5.000  0.1421E+01  0.2464E+02
   5.010  0.1426E+01  0.2465E+02
   5.020  0.1432E+01  0.2467E+02
   5.030  0.1437E+01  0.2468E+02
   5.040  0.1442E+01  0.2470E+02
   5.050  0.1447E+01  0.2471E+02
   5.060  0.1452E+01  0.2472E+02
   5.070  0.1457E+01  0.2474E+02
   5.080  0.1462E+01  0.2475E+02
   5.090  0.1466E+01  0.2477E+02
   5.100  0.1471E+01  0.2478E+02
   5.110  0.1476E+01  0.2480E+02
   5.120  0.1481E+01  0.2481E+02
   5.130  0.1485E+01  0.2483E+02
   5.140  0.1490E+01  0.2484E+02
   5.150  0.1495E+01  0.2486E+02
   5.160  0.1500E+01  0.2487E+02
   5.170  0.1504E+01  0.2489E+02
   5.180  0.1509E+01  0.2490E+02
   5.190  0.1514E+01  0.2492E+02
   5.200  0.1519E+01  0.2493E+02
   5.210  0.1524E+01  0.2495E+02
   5.220  0.1529E+01  0.2496E+02
   5.230  0.1534E+01  0.2498E+02
   5.240  0.1539E+01  0.2499E+02
   5.250  0.1543E+01  0.2501E+02
   5.260  0.1548E+01  0.2502E+02
   5.270  0.1553E+01  0.2504E+02
   5.280  0.1558E+01  0.2506E+02
   5.290  0.1564E+01  0.2507E+02
   5.300  0.1569E+01  0.2509E+02
   5.310  0.1574E+01  0.2510E+02
   5.320  0.1579E+01  0.2512E+02
   5.330  0.1584E+01  0.2513E+02
   5.340  0.1589E+01  0.2515E+02
   5.350  0.1594E+01  0.2517E+02
   5.360  0.1599E+01  0.2518E+02
   5.370  0.1604E+01  0.2520E+02
   5.380  0.1609E+01  0.2521E+02
   5.390  0.1614E+01  0.2523E+02
   5.400  0.1618E+01  0.2525E+02
   5.410  0.1623E+01  0.2526E+02
   5.420  0.1628E+01  0.2528E+02
   5.430  0.1633E+01  0.2530E+02
   5.440  0.1637E+01  0.2531E+02
   5.450  0.1642E+01  0.2533E+02
   5.460  0.1646E+01  0.2534E+02
   5.470  0.1650E+01  0.2536E+02
   5.480  0.1655E+01  0.2538E+02
   5.490  0.1659E+01  0.2539E+02
   5.500  0.1663E+01  0.2541E+02
   5.510  0.1667E+01  0.2543E+02
   5.520  0.1670E+01  0.2544E+02
   5.530  0.1674E+01  0.2546E+02
   5.540  0.1678E+01  0.2548E+02
   5.550  0.1681E+01  0.2549E+02
   5.560  0.1684E+01  0.2551E+02
   5.570  0.1687E+01  0.2553E+02
   5.580  0.1690E+01  0.2555E+02
   5.590  0.1693E+01  0.2556E+02
   5.600  0.1695E+01  0.2558E+02
   5.610  0.1698E+01  0.2560E+02
   5.620  0.1700E+01  0.2561E+02
   5.630  0.1702E+01  0.2563E+02
   5.640  0.1704E+01  0.2565E+02
   5.650  0.1705E+01  0.2566E+02
   5.660  0.1707E+01  0.2568E+02
   5.670  0.1708E+01  0.2570E+02
   5.680  0.1709E+01  0.2572E+02
   5.690  0.1710E+01  0.2573E+02
   5.700  0.1711E+01  0.2575E+02
   5.710  0.1711E+01  0.2577E+02
   5.720  0.1711E+01  0.2578E+02
   5.730  0.1711E+01  0.2580E+02
   5.740  0.1711E+01  0.2582E+02
   5.750  0.1711E+01  0.2584E+02
   5.760  0.1711E+01  0.2585E+02
   5.770  0.1710E+01  0.2587E+02
   5.780  0.1709E+01  0.2589E+02
   5.790  0.1708E+01  0.2590E+02
   5.800  0.1707E+01  0.2592E+02
   5.810  0.1705E+01  0.2594E+02
   5.820  0.1704E+01  0.2596E+02
   5.830  0.1702E+01  0.2597E+02
   5.840  0.1700E+01  0.2599E+02
   5.850  0.1698E+01  0.2601E+02
   5.860  0.1695E+01  0.2602E+02
   5.870  0.1693E+01  0.2604E+02
   5.880  0.1690E+01  0.2606E+02
   5.890  0.1688E+01  0.2607E+02
   5.900  0.1685E+01  0.2609E+02
   5.910  0.1682E+01  0.2611E+02
   5.920  0.1679E+01  0.2612E+02
   5.930  0.1675E+01  0.2614E+02
   5.940  0.1672E+01  0.2616E+02
   5.950  0.1669E+01  0.2617E+02
   5.960  0.1665E+01  0.2619E+02
   5.970  0.1661E+01  0.2621E+02
   5.980  0.1658E+01  0.2622E+02
   5.990  0.1654E+01  0.2624E+02
   6.000  0.1650E+01  0.2626E+02
   6.010  0.1646E+01  0.2627E+02
   6.020  0.1642E+01  0.2629E+02
   6.030  0.1637E+01  0.2631E+02
   6.040  0.1633E+01  0.2632E+02
   6.050  0.1629E+01  0.2634E+02
   6.060  0.1625E+01  0.2636E+02
   6.070  0.1620E+01  0.2637E+02
   6.080  0.1616E+01  0.2639E+02
   6.090  0.1611E+01  0.2640E+02
   6.100  0.1607E+01  0.2642E+02
   6.110  0.1602E+01  0.2644E+02
   6.120  0.1598E+01  0.2645E+02
   6.130  0.1593E+01  0.2647E+02
   6.140  0.1588E+01  0.2648E+02
   6.150  0.1584E+01  0.2650E+02
   6.160  0.1579E+01  0.2652E+02
   6.170  0.1574E+01  0.2653E+02
   6.180  0.1570E+01  0.2655E+02
   6.190  0.1565E+01  0.2656E+02
   6.200  0.1560E+01  0.2658E+02
   6.210  0.1556E+01  0.2659E+02
   6.220  0.1551E+01  0.2661E+02
   6.230  0.1546E+01  0.2662E+02
   6.240  0.1541E+01  0.2664E+02
   6.250  0.1536E+01  0.2666E+02
   6.260  0.1532E+01  0.2667E+02
   6.270  0.1527E+01  0.2669E+02
   6.280  0.1522E+01  0.2670E+02
   6.290  0.1517E+01  0.2672E+02
   6.300  0.1512E+01  0.2673E+02
   6.310  0.1507E+01  0.2675E+02
   6.320  0.1501E+01  0.2676E+02
   6.330  0.1496E+01  0.2678E+02
   6.340  0.1491E+01  0.2679E+02
   6.350  0.1486E+01  0.2681E+02
   6.360  0.1480E+01  0.2682E+02
   6.370  0.1475E+01  0.2684E+02
   6.380  0.1469E+01  0.2685E+02
   6.390  0.1463E+01  0.2686E+02
   6.400  0.1457E+01  0.2688E+02
   6.410  0.1452E+01  0.2689E+02
   6.420  0.1446E+01  0.2691E+02
   6.430  0.1439E+01  0.2692E+02
   6.440  0.1433E+01  0.2694E+02
   6.450  0.1427E+01  0.2695E+02
   6.460  0.1420E+01  0.2697E+02
   6.470  0.1414E+01  0.2698E+02
   6.480  0.1407E+01  0.2699E+02
   6.490  0.1400E+01  0.2701E+02
   6.500  0.1393E+01  0.2702E+02
   6.510  0.1385E+01  0.2704E+02
   6.520  0.1378E+01  0.2705E+02
   6.530  0.1370E+01  0.2706E+02
   6.540  0.1362E+01  0.2708E+02
   6.550  0.1355E+01  0.2709E+02
   6.560  0.1346E+01  0.2710E+02
   6.570  0.1338E+01  0.2712E+02
   6.580  0.1330E+01  0.2713E+02
   6.590  0.1321E+01  0.2714E+02
   6.600  0.1312E+01  0.2716E+02
   6.610  0.1303E+01  0.2717E+02
   6.620  0.1294E+01  0.2718E+02
   6.630  0.1285E+01  0.2720E+02
   6.640  0.1275E+01  0.2721E+02
   6.650  0.1265E+01  0.2722E+02
   6.660  0.1255E+01  0.2723E+02
   6.670  0.1245E+01  0.2725E+02
   6.680  0.1235E+01  0.2726E+02
   6.690  0.1225E+01  0.2727E+02
   6.700  0.1214E+01  0.2728E+02
   6.710  0.1204E+01  0.2729E+02
   6.720  0.1193E+01  0.2731E+02
   6.730  0.1182E+01  0.2732E+02
   6.740  0.1171E+01  0.2733E+02
   6.750  0.1160E+01  0.2734E+02
   6.760  0.1148E+01  0.2735E+02
   6.770  0.1137E+01  0.2736E+02
   6.780  0.1125E+01  0.2738E+02
   6.790  0.1113E+01  0.2739E+02
   6.800  0.1101E+01  0.2740E+02
   6.810  0.1090E+01  0.2741E+02
   6.820  0.1078E+01  0.2742E+02
   6.830  0.1065E+01  0.2743E+02
   6.840  0.1053E+01  0.2744E+02
   6.850  0.1041E+01  0.2745E+02
   6.860  0.1029E+01  0.2746E+02
   6.870  0.1016E+01  0.2747E+02
   6.880  0.1004E+01  0.2748E+02
   6.890  0.9915E+00  0.2749E+02
   6.900  0.9790E+00  0.2750E+02
   6.910  0.9665E+00  0.2751E+02
   6.920  0.9540E+00  0.2752E+02
   6.930  0.9415E+00  0.2753E+02
   6.940  0.9289E+00  0.2754E+02
   6.950  0.9164E+00  0.2755E+02
   6.960  0.9039E+00  0.2756E+02
   6.970  0.8914E+00  0.2757E+02
   6.980  0.8789E+00  0.2758E+02
   6.990  0.8665E+00  0.2758E+02
   7.000  0.8540E+00  0.2759E+02
   7.010  0.8417E+00  0.2760E+02
   7.020  0.8294E+00  0.2761E+02
   7.030  0.8171E+00  0.2762E+02
   7.040  0.8049E+00  0.2763E+02
   7.050  0.7928E+00  0.2763E+02
   7.060  0.7807E+00  0.2764E+02
   7.070  0.7687E+00  0.2765E+02
   7.080  0.7568E+00  0.2766E+02
   7.090  0.7450E+00  0.2766E+02
   7.100  0.7333E+00  0.2767E+02
   7.110  0.7217E+00  0.2768E+02
   7.120  0.7102E+00  0.2769E+02
   7.130  0.6987E+00  0.2769E+02
   7.140  0.6874E+00  0.2770E+02
   7.150  0.6762E+00  0.2771E+02
   7.160  0.6651E+00  0.2771E+02
   7.170  0.6541E+00  0.2772E+02
   7.180  0.6433E+00  0.2773E+02
   7.190  0.6325E+00  0.2773E+02
   7.200  0.6219E+00  0.2774E+02
   7.210  0.6114E+00  0.2774E+02
   7.220  0.6010E+00  0.2775E+02
   7.230  0.5907E+00  0.2776E+02
   7.240  0.5806E+00  0.2776E+02
   7.250  0.5706E+00  0.2777E+02
   7.260  0.5607E+00  0.2777E+02
   7.270  0.5510E+00  0.2778E+02
   7.280  0.5414E+00  0.2778E+02
   7.290  0.5319E+00  0.2779E+02
   7.300  0.5225E+00  0.2780E+02
   7.310  0.5133E+00  0.2780E+02
   7.320  0.5041E+00  0.2781E+02
   7.330  0.4951E+00  0.2781E+02
   7.340  0.4863E+00  0.2782E+02
   7.350  0.4775E+00  0.2782E+02
   7.360  0.4689E+00  0.2782E+02
   7.370  0.4604E+00  0.2783E+02
   7.380  0.4521E+00  0.2783E+02
   7.390  0.4438E+00  0.2784E+02
   7.400  0.4357E+00  0.2784E+02
   7.410  0.4276E+00  0.2785E+02
   7.420  0.4197E+00  0.2785E+02
   7.430  0.4120E+00  0.2786E+02
   7.440  0.4043E+00  0.2786E+02
   7.450  0.3967E+00  0.2786E+02
   7.460  0.3893E+00  0.2787E+02
   7.470  0.3820E+00  0.2787E+02
   7.480  0.3748E+00  0.2787E+02
   7.490  0.3676E+00  0.2788E+02
   7.500  0.3606E+00  0.2788E+02
   7.510  0.3538E+00  0.2789E+02
   7.520  0.3470E+00  0.2789E+02
   7.530  0.3403E+00  0.2789E+02
   7.540  0.3337E+00  0.2790E+02
   7.550  0.3273E+00  0.2790E+02
   7.560  0.3209E+00  0.2790E+02
   7.570  0.3147E+00  0.2791E+02
   7.580  0.3085E+00  0.2791E+02
   7.590  0.3025E+00  0.2791E+02
   7.600  0.2966E+00  0.2791E+02
   7.610  0.2907E+00  0.2792E+02
   7.620  0.2850E+00  0.2792E+02
   7.630  0.2794E+00  0.2792E+02
   7.640  0.2739E+00  0.2793E+02
   7.650  0.2685E+00  0.2793E+02
   7.660  0.2632E+00  0.2793E+02
   7.670  0.2581E+00  0.2793E+02
   7.680  0.2530E+00  0.2794E+02
   7.690  0.2481E+00  0.2794E+02
   7.700  0.2432E+00  0.2794E+02
   7.710  0.2385E+00  0.2794E+02
   7.720  0.2339E+00  0.2795E+02
   7.730  0.2294E+00  0.2795E+02
   7.740  0.2251E+00  0.2795E+02
   7.750  0.2208E+00  0.2795E+02
   7.760  0.2167E+00  0.2795E+02
   7.770  0.2127E+00  0.2796E+02
   7.780  0.2088E+00  0.2796E+02
   7.790  0.2051E+00  0.2796E+02
   7.800  0.2014E+00  0.2796E+02
   7.810  0.1980E+00  0.2796E+02
   7.820  0.1946E+00  0.2797E+02
   7.830  0.1914E+00  0.2797E+02
   7.840  0.1883E+00  0.2797E+02
   7.850  0.1854E+00  0.2797E+02
   7.860  0.1826E+00  0.2797E+02
   7.870  0.1800E+00  0.2798E+02
   7.880  0.1775E+00  0.2798E+02
   7.890  0.1752E+00  0.2798E+02
   7.900  0.1730E+00  0.2798E+02
   7.910  0.1709E+00  0.2798E+02
   7.920  0.1691E+00  0.2798E+02
   7.930  0.1674E+00  0.2799E+02
   7.940  0.1658E+00  0.2799E+02
   7.950  0.1644E+00  0.2799E+02
   7.960  0.1632E+00  0.2799E+02
   7.970  0.1622E+00  0.2799E+02
   7.980  0.1613E+00  0.2799E+02
   7.990  0.1606E+00  0.2800E+02
   8.000  0.1601E+00  0.2800E+02
   8.010  0.1598E+00  0.2800E+02
   8.020  0.1597E+00  0.2800E+02
   8.030  0.1597E+00  0.2800E+02
   8.040  0.1599E+00  0.2800E+02
   8.050  0.1603E+00  0.2801E+02
   8.060  0.1610E+00  0.2801E+02
   8.070  0.1618E+00  0.2801E+02
   8.080  0.1628E+00  0.2801E+02
   8.090  0.1640E+00  0.2801E+02
   8.100  0.1654E+00  0.2801E+02
   8.110  0.1670E+00  0.2802E+02
   8.120  0.1688E+00  0.2802E+02
   8.130  0.1708E+00  0.2802E+02
   8.140  0.1730E+00  0.2802E+02
   8.150  0.1754E+00  0.2802E+02
   8.160  0.1780E+00  0.2802E+02
   8.170  0.1809E+00  0.2803E+02
   8.180  0.1839E+00  0.2803E+02
   8.190  0.1872E+00  0.2803E+02
   8.200  0.1906E+00  0.2803E+02
   8.210  0.1943E+00  0.2803E+02
   8.220  0.1982E+00  0.2804E+02
   8.230  0.2023E+00  0.2804E+02
   8.240  0.2067E+00  0.2804E+02
   8.250  0.2112E+00  0.2804E+02
   8.260  0.2160E+00  0.2804E+02
   8.270  0.2210E+00  0.2805E+02
   8.280  0.2262E+00  0.2805E+02
   8.290  0.2316E+00  0.2805E+02
   8.300  0.2373E+00  0.2805E+02
   8.310  0.2432E+00  0.2806E+02
   8.320  0.2493E+00  0.2806E+02
   8.330  0.2556E+00  0.2806E+02
   8.340  0.2622E+00  0.2806E+02
   8.350  0.2690E+00  0.2807E+02
   8.360  0.2760E+00  0.2807E+02
   8.370  0.2833E+00  0.2807E+02
   8.380  0.2908E+00  0.2807E+02
   8.390  0.2985E+00  0.2808E+02
   8.400  0.3065E+00  0.2808E+02
   8.410  0.3147E+00  0.2808E+02
   8.420  0.3232E+00  0.2809E+02
   8.430  0.3319E+00  0.2809E+02
   8.440  0.3409E+00  0.2809E+02
   8.450  0.3501E+00  0.2810E+02
   8.460  0.3596E+00  0.2810E+02
   8.470  0.3694E+00  0.2810E+02
   8.480  0.3794E+00  0.2811E+02
   8.490  0.3896E+00  0.2811E+02
   8.500  0.4002E+00  0.2812E+02
   8.510  0.4110E+00  0.2812E+02
   8.520  0.4220E+00  0.2812E+02
   8.530  0.4334E+00  0.2813E+02
   8.540  0.4450E+00  0.2813E+02
   8.550  0.4569E+00  0.2814E+02
   8.560  0.4691E+00  0.2814E+02
   8.570  0.4815E+00  0.2815E+02
   8.580  0.4943E+00  0.2815E+02
   8.590  0.5073E+00  0.2816E+02
   8.600  0.5206E+00  0.2816E+02
   8.610  0.5342E+00  0.2817E+02
   8.620  0.5481E+00  0.2817E+02
   8.630  0.5622E+00  0.2818E+02
   8.640  0.5767E+00  0.2818E+02
   8.650  0.5914E+00  0.2819E+02
   8.660  0.6064E+00  0.2820E+02
   8.670  0.6216E+00  0.2820E+02
   8.680  0.6372E+00  0.2821E+02
   8.690  0.6530E+00  0.2822E+02
   8.700  0.6690E+00  0.2822E+02
   8.710  0.6854E+00  0.2823E+02
   8.720  0.7019E+00  0.2824E+02
   8.730  0.7188E+00  0.2824E+02
   8.740  0.7358E+00  0.2825E+02
   8.750  0.7531E+00  0.2826E+02
   8.760  0.7707E+00  0.2827E+02
   8.770  0.7884E+00  0.2827E+02
   8.780  0.8064E+00  0.2828E+02
   8.790  0.8245E+00  0.2829E+02
   8.800  0.8428E+00  0.2830E+02
   8.810  0.8613E+00  0.2831E+02
   8.820  0.8800E+00  0.2832E+02
   8.830  0.8988E+00  0.2833E+02
   8.840  0.9178E+00  0.2833E+02
   8.850  0.9369E+00  0.2834E+02
   8.860  0.9560E+00  0.2835E+02
   8.870  0.9753E+00  0.2836E+02
   8.880  0.9947E+00  0.2837E+02
   8.890  0.1014E+01  0.2838E+02
   8.900  0.1034E+01  0.2839E+02
   8.910  0.1053E+01  0.2840E+02
   8.920  0.1073E+01  0.2841E+02
   8.930  0.1092E+01  0.2843E+02
   8.940  0.1111E+01  0.2844E+02
   8.950  0.1131E+01  0.2845E+02
   8.960  0.1150E+01  0.2846E+02
   8.970  0.1169E+01  0.2847E+02
   8.980  0.1189E+01  0.2848E+02
   8.990  0.1208E+01  0.2850E+02
   9.000  0.1227E+01  0.2851E+02
   9.010  0.1245E+01  0.2852E+02
   9.020  0.1264E+01  0.2853E+02
   9.030  0.1282E+01  0.2855E+02
   9.040  0.1300E+01  0.2856E+02
   9.050  0.1318E+01  0.2857E+02
   9.060  0.1336E+01  0.2858E+02
   9.070  0.1353E+01  0.2860E+02
   9.080  0.1370E+01  0.2861E+02
   9.090  0.1387E+01  0.2863E+02
   9.100  0.1403E+01  0.2864E+02
   9.110  0.1419E+01  0.2865E+02
   9.120  0.1435E+01  0.2867E+02
   9.130  0.1450E+01  0.2868E+02
   9.140  0.1465E+01  0.2870E+02
   9.150  0.1479E+01  0.2871E+02
   9.160  0.1493E+01  0.2873E+02
   9.170  0.1507E+01  0.2874E+02
   9.180  0.1520E+01  0.2876E+02
   9.190  0.1532E+01  0.2877E+02
   9.200  0.1544E+01  0.2879E+02
   9.210  0.1556E+01  0.2880E+02
   9.220  0.1566E+01  0.2882E+02
   9.230  0.1577E+01  0.2884E+02
   9.240  0.1587E+01  0.2885E+02
   9.250  0.1596E+01  0.2887E+02
   9.260  0.1605E+01  0.2888E+02
   9.270  0.1613E+01  0.2890E+02
   9.280  0.1621E+01  0.2892E+02
   9.290  0.1628E+01  0.2893E+02
   9.300  0.1634E+01  0.2895E+02
   9.310  0.1640E+01  0.2896E+02
   9.320  0.1645E+01  0.2898E+02
   9.330  0.1650E+01  0.2900E+02
   9.340  0.1654E+01  0.2901E+02
   9.350  0.1657E+01  0.2903E+02
   9.360  0.1660E+01  0.2905E+02
   9.370  0.1662E+01  0.2906E+02
   9.380  0.1664E+01  0.2908E+02
   9.390  0.1665E+01  0.2910E+02
   9.400  0.1666E+01  0.2911E+02
   9.410  0.1666E+01  0.2913E+02
   9.420  0.1665E+01  0.2915E+02
   9.430  0.1664E+01  0.2916E+02
   9.440  0.1663E+01  0.2918E+02
   9.450  0.1661E+01  0.2920E+02
   9.460  0.1658E+01  0.2921E+02
   9.470  0.1656E+01  0.2923E+02
   9.480  0.1652E+01  0.2925E+02
   9.490  0.1648E+01  0.2926E+02
   9.500  0.1644E+01  0.2928E+02
   9.510  0.1640E+01  0.2930E+02
   9.520  0.1635E+01  0.2931E+02
   9.530  0.1630E+01  0.2933E+02
   9.540  0.1624E+01  0.2934E+02
   9.550  0.1618E+01  0.2936E+02
   9.560  0.1612E+01  0.2938E+02
   9.570  0.1606E+01  0.2939E+02
   9.580  0.1599E+01  0.2941E+02
   9.590  0.1592E+01  0.2943E+02
   9.600  0.1585E+01  0.2944E+02
   9.610  0.1578E+01  0.2946E+02
   9.620  0.1570E+01  0.2947E+02
   9.630  0.1563E+01  0.2949E+02
   9.640  0.1555E+01  0.2950E+02
   9.650  0.1548E+01  0.2952E+02
   9.660  0.1540E+01  0.2953E+02
   9.670  0.1532E+01  0.2955E+02
   9.680  0.1524E+01  0.2957E+02
   9.690  0.1516E+01  0.2958E+02
   9.700  0.1508E+01  0.2960E+02
   9.710  0.1501E+01  0.2961E+02
   9.720  0.1493E+01  0.2963E+02
   9.730  0.1485E+01  0.2964E+02
   9.740  0.1477E+01  0.2965E+02
   9.750  0.1469E+01  0.2967E+02
   9.760  0.1462E+01  0.2968E+02
   9.770  0.1454E+01  0.2970E+02
   9.780  0.1446E+01  0.2971E+02
   9.790  0.1439E+01  0.2973E+02
   9.800  0.1431E+01  0.2974E+02
   9.810  0.1424E+01  0.2976E+02
   9.820  0.1417E+01  0.2977E+02
   9.830  0.1410E+01  0.2978E+02
   9.840  0.1403E+01  0.2980E+02
   9.850  0.1395E+01  0.2981E+02
   9.860  0.1388E+01  0.2983E+02
   9.870  0.1382E+01  0.2984E+02
   9.880  0.1375E+01  0.2985E+02
   9.890  0.1368E+01  0.2987E+02
   9.900  0.1361E+01  0.2988E+02
   9.910  0.1354E+01  0.2989E+02
   9.920  0.1348E+01  0.2991E+02
   9.930  0.1341E+01  0.2992E+02
   9.940  0.1335E+01  0.2993E+02
   9.950  0.1328E+01  0.2995E+02
   9.960  0.1322E+01  0.2996E+02
   9.970  0.1315E+01  0.2997E+02
   9.980  0.1309E+01  0.2999E+02
   9.990  0.1302E+01  0.3000E+02
  10.000  0.1296E+01  0.3001E+02
  10.010  0.1289E+01  0.3003E+02
  10.020  0.1283E+01  0.3004E+02
  10.030  0.1277E+01  0.3005E+02
  10.040  0.1270E+01  0.3006E+02
  10.050  0.1264E+01  0.3008E+02
  10.060  0.1258E+01  0.3009E+02
  10.070  0.1252E+01  0.3010E+02
  10.080  0.1246E+01  0.3012E+02
  10.090  0.1240E+01  0.3013E+02
  10.100  0.1234E+01  0.3014E+02
  10.110  0.1228E+01  0.3015E+02
  10.120  0.1222E+01  0.3016E+02
  10.130  0.1216E+01  0.3018E+02
  10.140  0.1210E+01  0.3019E+02
  10.150  0.1205E+01  0.3020E+02
  10.160  0.1200E+01  0.3021E+02
  10.170  0.1195E+01  0.3022E+02
  10.180  0.1190E+01  0.3024E+02
  10.190  0.1185E+01  0.3025E+02
  10.200  0.1180E+01  0.3026E+02
  10.210  0.1176E+01  0.3027E+02
  10.220  0.1172E+01  0.3028E+02
  10.230  0.1168E+01  0.3030E+02
  10.240  0.1165E+01  0.3031E+02
  10.250  0.1162E+01  0.3032E+02
  10.260  0.1159E+01  0.3033E+02
  10.270  0.1157E+01  0.3034E+02
  10.280  0.1154E+01  0.3035E+02
  10.290  0.1153E+01  0.3036E+02
  10.300  0.1152E+01  0.3038E+02
  10.310  0.1151E+01  0.3039E+02
  10.320  0.1150E+01  0.3040E+02
  10.330  0.1150E+01  0.3041E+02
  10.340  0.1151E+01  0.3042E+02
  10.350  0.1152E+01  0.3043E+02
  10.360  0.1153E+01  0.3045E+02
  10.370  0.1155E+01  0.3046E+02
  10.380  0.1158E+01  0.3047E+02
  10.390  0.1161E+01  0.3048E+02
  10.400  0.1164E+01  0.3049E+02
  10.410  0.1168E+01  0.3050E+02
  10.420  0.1172E+01  0.3052E+02
  10.430  0.1177E+01  0.3053E+02
  10.440  0.1183E+01  0.3054E+02
  10.450  0.1188E+01  0.3055E+02
  10.460  0.1195E+01  0.3056E+02
  10.470  0.1202E+01  0.3057E+02
  10.480  0.1209E+01  0.3059E+02
  10.490  0.1216E+01  0.3060E+02
  10.500  0.1224E+01  0.3061E+02
  10.510  0.1233E+01  0.3062E+02
  10.520  0.1242E+01  0.3064E+02
  10.530  0.1251E+01  0.3065E+02
  10.540  0.1260E+01  0.3066E+02
  10.550  0.1270E+01  0.3067E+02
  10.560  0.1280E+01  0.3069E+02
  10.570  0.1290E+01  0.3070E+02
  10.580  0.1301E+01  0.3071E+02
  10.590  0.1311E+01  0.3073E+02
  10.600  0.1322E+01  0.3074E+02
  10.610  0.1333E+01  0.3075E+02
  10.620  0.1344E+01  0.3077E+02
  10.630  0.1355E+01  0.3078E+02
  10.640  0.1366E+01  0.3079E+02
  10.650  0.1377E+01  0.3081E+02
  10.660  0.1388E+01  0.3082E+02
  10.670  0.1399E+01  0.3083E+02
  10.680  0.1410E+01  0.3085E+02
  10.690  0.1421E+01  0.3086E+02
  10.700  0.1431E+01  0.3088E+02
  10.710  0.1442E+01  0.3089E+02
  10.720  0.1452E+01  0.3091E+02
  10.730  0.1462E+01  0.3092E+02
  10.740  0.1472E+01  0.3094E+02
  10.750  0.1481E+01  0.3095E+02
  10.760  0.1491E+01  0.3096E+02
  10.770  0.1500E+01  0.3098E+02
  10.780  0.1508E+01  0.3099E+02
  10.790  0.1516E+01  0.3101E+02
  10.800  0.1524E+01  0.3103E+02
  10.810  0.1532E+01  0.3104E+02
  10.820  0.1539E+01  0.3106E+02
  10.830  0.1546E+01  0.3107E+02
  10.840  0.1552E+01  0.3109E+02
  10.850  0.1558E+01  0.3110E+02
  10.860  0.1563E+01  0.3112E+02
  10.870  0.1568E+01  0.3113E+02
  10.880  0.1573E+01  0.3115E+02
  10.890  0.1577E+01  0.3117E+02
  10.900  0.1581E+01  0.3118E+02
  10.910  0.1585E+01  0.3120E+02
  10.920  0.1588E+01  0.3121E+02
  10.930  0.1591E+01  0.3123E+02
  10.940  0.1593E+01  0.3124E+02
  10.950  0.1595E+01  0.3126E+02
  10.960  0.1596E+01  0.3128E+02
  10.970  0.1598E+01  0.3129E+02
  10.980  0.1599E+01  0.3131E+02
  10.990  0.1599E+01  0.3132E+02
  11.000  0.1599E+01  0.3134E+02
  11.010  0.1599E+01  0.3136E+02
  11.020  0.1599E+01  0.3137E+02
  11.030  0.1598E+01  0.3139E+02
  11.040  0.1598E+01  0.3140E+02
  11.050  0.1596E+01  0.3142E+02
  11.060  0.1595E+01  0.3144E+02
  11.070  0.1594E+01  0.3145E+02
  11.080  0.1592E+01  0.3147E+02
  11.090  0.1590E+01  0.3148E+02
  11.100  0.1588E+01  0.3150E+02
  11.110  0.1586E+01  0.3152E+02
  11.120  0.1584E+01  0.3153E+02
  11.130  0.1581E+01  0.3155E+02
  11.140  0.1579E+01  0.3156E+02
  11.150  0.1576E+01  0.3158E+02
  11.160  0.1574E+01  0.3159E+02
  11.170  0.1571E+01  0.3161E+02
  11.180  0.1568E+01  0.3163E+02
  11.190  0.1566E+01  0.3164E+02
  11.200  0.1563E+01  0.3166E+02
  11.210  0.1560E+01  0.3167E+02
  11.220  0.1557E+01  0.3169E+02
  11.230  0.1555E+01  0.3170E+02
  11.240  0.1552E+01  0.3172E+02
  11.250  0.1549E+01  0.3174E+02
  11.260  0.1547E+01  0.3175E+02
  11.270  0.1544E+01  0.3177E+02
  11.280  0.1542E+01  0.3178E+02
  11.290  0.1539E+01  0.3180E+02
  11.300  0.1537E+01  0.3181E+02
  11.310  0.1534E+01  0.3183E+02
  11.320  0.1532E+01  0.3184E+02
  11.330  0.1530E+01  0.3186E+02
  11.340  0.1528E+01  0.3187E+02
  11.350  0.1525E+01  0.3189E+02
  11.360  0.1523E+01  0.3190E+02
  11.370  0.1522E+01  0.3192E+02
  11.380  0.1520E+01  0.3193E+02
  11.390  0.1518E+01  0.3195E+02
  11.400  0.1516E+01  0.3196E+02
  11.410  0.1515E+01  0.3198E+02
  11.420  0.1514E+01  0.3200E+02
  11.430  0.1512E+01  0.3201E+02
  11.440  0.1511E+01  0.3203E+02
  11.450  0.1510E+01  0.3204E+02
  11.460  0.1509E+01  0.3206E+02
  11.470  0.1508E+01  0.3207E+02
  11.480  0.1508E+01  0.3209E+02
  11.490  0.1507E+01  0.3210E+02
  11.500  0.1507E+01  0.3212E+02
  11.510  0.1507E+01  0.3213E+02
  11.520  0.1506E+01  0.3215E+02
  11.530  0.1507E+01  0.3216E+02
  11.540  0.1507E+01  0.3218E+02
  11.550  0.1507E+01  0.3219E+02
  11.560  0.1508E+01  0.3221E+02
  11.570  0.1509E+01  0.3222E+02
  11.580  0.1509E+01  0.3224E+02
  11.590  0.1511E+01  0.3225E+02
  11.600  0.1512E+01  0.3227E+02
  11.610  0.1513E+01  0.3228E+02
  11.620  0.1515E+01  0.3230E+02
  11.630  0.1517E+01  0.3231E+02
  11.640  0.1519E+01  0.3233E+02
  11.650  0.1522E+01  0.3234E+02
  11.660  0.1524E+01  0.3236E+02
  11.670  0.1527E+01  0.3237E+02
  11.680  0.1530E+01  0.3239E+02
  11.690  0.1533E+01  0.3240E+02
  11.700  0.1537E+01  0.3242E+02
  11.710  0.1540E+01  0.3243E+02
  11.720  0.1544E+01  0.3245E+02
  11.730  0.1548E+01  0.3247E+02
  11.740  0.1553E+01  0.3248E+02
  11.750  0.1557E+01  0.3250E+02
  11.760  0.1562E+01  0.3251E+02
  11.770  0.1567E+01  0.3253E+02
  11.780  0.1572E+01  0.3254E+02
  11.790  0.1577E+01  0.3256E+02
  11.800  0.1583E+01  0.3258E+02
  11.810  0.1588E+01  0.3259E+02
  11.820  0.1594E+01  0.3261E+02
  11.830  0.1600E+01  0.3262E+02
  11.840  0.1606E+01  0.3264E+02
  11.850  0.1612E+01  0.3266E+02
  11.860  0.1618E+01  0.3267E+02
  11.870  0.1624E+01  0.3269E+02
  11.880  0.1630E+01  0.3270E+02
  11.890  0.1636E+01  0.3272E+02
  11.900  0.1642E+01  0.3274E+02
  11.910  0.1648E+01  0.3275E+02
  11.920  0.1654E+01  0.3277E+02
  11.930  0.1660E+01  0.3279E+02
  11.940  0.1666E+01  0.3280E+02
  11.950  0.1672E+01  0.3282E+02
  11.960  0.1677E+01  0.3284E+02
  11.970  0.1683E+01  0.3285E+02
  11.980  0.1688E+01  0.3287E+02
  11.990  0.1693E+01  0.3289E+02
  12.000  0.1697E+01  0.3290E+02
  12.010  0.1701E+01  0.3292E+02
  12.020  0.1705E+01  0.3294E+02
  12.030  0.1709E+01  0.3296E+02
  12.040  0.1712E+01  0.3297E+02
  12.050  0.1715E+01  0.3299E+02
  12.060  0.1718E+01  0.3301E+02
  12.070  0.1720E+01  0.3302E+02
  12.080  0.1722E+01  0.3304E+02
  12.090  0.1723E+01  0.3306E+02
  12.100  0.1724E+01  0.3308E+02
  12.110  0.1725E+01  0.3309E+02
  12.120  0.1724E+01  0.3311E+02
  12.130  0.1724E+01  0.3313E+02
  12.140  0.1723E+01  0.3314E+02
  12.150  0.1722E+01  0.3316E+02
  12.160  0.1720E+01  0.3318E+02
  12.170  0.1717E+01  0.3320E+02
  12.180  0.1714E+01  0.3321E+02
  12.190  0.1711E+01  0.3323E+02
  12.200  0.1707E+01  0.3325E+02
  12.210  0.1703E+01  0.3326E+02
  12.220  0.1698E+01  0.3328E+02
  12.230  0.1693E+01  0.3330E+02
  12.240  0.1688E+01  0.3332E+02
  12.250  0.1682E+01  0.3333E+02
  12.260  0.1676E+01  0.3335E+02
  12.270  0.1669E+01  0.3337E+02
  12.280  0.1662E+01  0.3338E+02
  12.290  0.1655E+01  0.3340E+02
  12.300  0.1648E+01  0.3342E+02
  12.310  0.1640E+01  0.3343E+02
  12.320  0.1632E+01  0.3345E+02
  12.330  0.1624E+01  0.3346E+02
  12.340  0.1615E+01  0.3348E+02
  12.350  0.1607E+01  0.3350E+02
  12.360  0.1598E+01  0.3351E+02
  12.370  0.1589E+01  0.3353E+02
  12.380  0.1580E+01  0.3354E+02
  12.390  0.1571E+01  0.3356E+02
  12.400  0.1562E+01  0.3358E+02
  12.410  0.1553E+01  0.3359E+02
  12.420  0.1544E+01  0.3361E+02
  12.430  0.1535E+01  0.3362E+02
  12.440  0.1527E+01  0.3364E+02
  12.450  0.1518E+01  0.3365E+02
  12.460  0.1509E+01  0.3367E+02
  12.470  0.1501E+01  0.3368E+02
  12.480  0.1492E+01  0.3370E+02
  12.490  0.1484E+01  0.3371E+02
  12.500  0.1476E+01  0.3373E+02
  12.510  0.1468E+01  0.3374E+02
  12.520  0.1460E+01  0.3376E+02
  12.530  0.1453E+01  0.3377E+02
  12.540  0.1446E+01  0.3379E+02
  12.550  0.1439E+01  0.3380E+02
  12.560  0.1432E+01  0.3381E+02
  12.570  0.1425E+01  0.3383E+02
  12.580  0.1419E+01  0.3384E+02
  12.590  0.1413E+01  0.3386E+02
  12.600  0.1407E+01  0.3387E+02
  12.610  0.1402E+01  0.3388E+02
  12.620  0.1397E+01  0.3390E+02
  12.630  0.1392E+01  0.3391E+02
  12.640  0.1387E+01  0.3393E+02
  12.650  0.1383E+01  0.3394E+02
  12.660  0.1379E+01  0.3395E+02
  12.670  0.1375E+01  0.3397E+02
  12.680  0.1371E+01  0.3398E+02
  12.690  0.1368E+01  0.3399E+02
  12.700  0.1364E+01  0.3401E+02
  12.710  0.1361E+01  0.3402E+02
  12.720  0.1359E+01  0.3404E+02
  12.730  0.1356E+01  0.3405E+02
  12.740  0.1354E+01  0.3406E+02
  12.750  0.1352E+01  0.3408E+02
  12.760  0.1350E+01  0.3409E+02
  12.770  0.1348E+01  0.3410E+02
  12.780  0.1346E+01  0.3412E+02
  12.790  0.1344E+01  0.3413E+02
  12.800  0.1343E+01  0.3414E+02
  12.810  0.1342E+01  0.3416E+02
  12.820  0.1341E+01  0.3417E+02
  12.830  0.1340E+01  0.3418E+02
  12.840  0.1339E+01  0.3420E+02
  12.850  0.1338E+01  0.3421E+02
  12.860  0.1337E+01  0.3422E+02
  12.870  0.1337E+01  0.3424E+02
  12.880  0.1336E+01  0.3425E+02
  12.890  0.1335E+01  0.3426E+02
  12.900  0.1335E+01  0.3428E+02
  12.910  0.1335E+01  0.3429E+02
  12.920  0.1334E+01  0.3430E+02
  12.930  0.1334E+01  0.3432E+02
  12.940  0.1334E+01  0.3433E+02
  12.950  0.1333E+01  0.3434E+02
  12.960  0.1333E+01  0.3436E+02
  12.970  0.1333E+01  0.3437E+02
  12.980  0.1332E+01  0.3438E+02
  12.990  0.1332E+01  0.3440E+02
  13.000  0.1332E+01  0.3441E+02
  13.010  0.1331E+01  0.3442E+02
  13.020  0.1331E+01  0.3444E+02
  13.030  0.1331E+01  0.3445E+02
  13.040  0.1330E+01  0.3446E+02
  13.050  0.1330E+01  0.3448E+02
  13.060  0.1329E+01  0.3449E+02
  13.070  0.1329E+01  0.3450E+02
  13.080  0.1328E+01  0.3452E+02
  13.090  0.1328E+01  0.3453E+02
  13.100  0.1327E+01  0.3454E+02
  13.110  0.1326E+01  0.3456E+02
  13.120  0.1325E+01  0.3457E+02
  13.130  0.1324E+01  0.3458E+02
  13.140  0.1323E+01  0.3460E+02
  13.150  0.1322E+01  0.3461E+02
  13.160  0.1321E+01  0.3462E+02
  13.170  0.1320E+01  0.3464E+02
  13.180  0.1319E+01  0.3465E+02
  13.190  0.1317E+01  0.3466E+02
  13.200  0.1316E+01  0.3468E+02
  13.210  0.1314E+01  0.3469E+02
  13.220  0.1313E+01  0.3470E+02
  13.230  0.1311E+01  0.3472E+02
  13.240  0.1309E+01  0.3473E+02
  13.250  0.1307E+01  0.3474E+02
  13.260  0.1305E+01  0.3475E+02
  13.270  0.1303E+01  0.3477E+02
  13.280  0.1301E+01  0.3478E+02
  13.290  0.1298E+01  0.3479E+02
  13.300  0.1296E+01  0.3481E+02
  13.310  0.1294E+01  0.3482E+02
  13.320  0.1291E+01  0.3483E+02
  13.330  0.1289E+01  0.3485E+02
  13.340  0.1286E+01  0.3486E+02
  13.350  0.1283E+01  0.3487E+02
  13.360  0.1281E+01  0.3488E+02
  13.370  0.1278E+01  0.3490E+02
  13.380  0.1275E+01  0.3491E+02
  13.390  0.1272E+01  0.3492E+02
  13.400  0.1269E+01  0.3493E+02
  13.410  0.1266E+01  0.3495E+02
  13.420  0.1263E+01  0.3496E+02
  13.430  0.1261E+01  0.3497E+02
  13.440  0.1258E+01  0.3499E+02
  13.450  0.1255E+01  0.3500E+02
  13.460  0.1252E+01  0.3501E+02
  13.470  0.1249E+01  0.3502E+02
  13.480  0.1246E+01  0.3504E+02
  13.490  0.1243E+01  0.3505E+02
  13.500  0.1240E+01  0.3506E+02
  13.510  0.1238E+01  0.3507E+02
  13.520  0.1235E+01  0.3508E+02
  13.530  0.1233E+01  0.3510E+02
  13.540  0.1230E+01  0.3511E+02
  13.550  0.1228E+01  0.3512E+02
  13.560  0.1225E+01  0.3513E+02
  13.570  0.1223E+01  0.3515E+02
  13.580  0.1221E+01  0.3516E+02
  13.590  0.1219E+01  0.3517E+02
  13.600  0.1217E+01  0.3518E+02
  13.610  0.1216E+01  0.3519E+02
  13.620  0.1214E+01  0.3521E+02
  13.630  0.1212E+01  0.3522E+02
  13.640  0.1211E+01  0.3523E+02
  13.650  0.1210E+01  0.3524E+02
  13.660  0.1209E+01  0.3526E+02
  13.670  0.1208E+01  0.3527E+02
  13.680  0.1207E+01  0.3528E+02
  13.690  0.1207E+01  0.3529E+02
  13.700  0.1206E+01  0.3530E+02
  13.710  0.1206E+01  0.3532E+02
  13.720  0.1206E+01  0.3533E+02
  13.730  0.1206E+01  0.3534E+02
  13.740  0.1206E+01  0.3535E+02
  13.750  0.1207E+01  0.3536E+02
  13.760  0.1207E+01  0.3538E+02
  13.770  0.1208E+01  0.3539E+02
  13.780  0.1208E+01  0.3540E+02
  13.790  0.1209E+01  0.3541E+02
  13.800  0.1210E+01  0.3542E+02
  13.810  0.1212E+01  0.3544E+02
  13.820  0.1213E+01  0.3545E+02
  13.830  0.1215E+01  0.3546E+02
  13.840  0.1216E+01  0.3547E+02
  13.850  0.1218E+01  0.3549E+02
  13.860  0.1220E+01  0.3550E+02
  13.870  0.1222E+01  0.3551E+02
  13.880  0.1224E+01  0.3552E+02
  13.890  0.1226E+01  0.3553E+02
  13.900  0.1228E+01  0.3555E+02
  13.910  0.1231E+01  0.3556E+02
  13.920  0.1233E+01  0.3557E+02
  13.930  0.1236E+01  0.3558E+02
  13.940  0.1238E+01  0.3560E+02
  13.950  0.1241E+01  0.3561E+02
  13.960  0.1244E+01  0.3562E+02
  13.970  0.1247E+01  0.3563E+02
  13.980  0.1249E+01  0.3565E+02
  13.990  0.1252E+01  0.3566E+02
  14.000  0.1255E+01  0.3567E+02
  14.010  0.1258E+01  0.3568E+02
  14.020  0.1262E+01  0.3570E+02
  14.030  0.1265E+01  0.3571E+02
  14.040  0.1268E+01  0.3572E+02
  14.050  0.1271E+01  0.3573E+02
  14.060  0.1274E+01  0.3575E+02
  14.070  0.1278E+01  0.3576E+02
  14.080  0.1281E+01  0.3577E+02
  14.090  0.1284E+01  0.3578E+02
  14.100  0.1287E+01  0.3580E+02
  14.110  0.1291E+01  0.3581E+02
  14.120  0.1294E+01  0.3582E+02
  14.130  0.1297E+01  0.3584E+02
  14.140  0.1301E+01  0.3585E+02
  14.150  0.1304E+01  0.3586E+02
  14.160  0.1308E+01  0.3588E+02
  14.170  0.1311E+01  0.3589E+02
  14.180  0.1314E+01  0.3590E+02
  14.190  0.1318E+01  0.3592E+02
  14.200  0.1321E+01  0.3593E+02
  14.210  0.1325E+01  0.3594E+02
  14.220  0.1328E+01  0.3595E+02
  14.230  0.1332E+01  0.3597E+02
  14.240  0.1335E+01  0.3598E+02
  14.250  0.1339E+01  0.3599E+02
  14.260  0.1342E+01  0.3601E+02
  14.270  0.1346E+01  0.3602E+02
  14.280  0.1349E+01  0.3604E+02
  14.290  0.1353E+01  0.3605E+02
  14.300  0.1357E+01  0.3606E+02
  14.310  0.1360E+01  0.3608E+02
  14.320  0.1364E+01  0.3609E+02
  14.330  0.1368E+01  0.3610E+02
  14.340  0.1372E+01  0.3612E+02
  14.350  0.1375E+01  0.3613E+02
  14.360  0.1379E+01  0.3614E+02
  14.370  0.1384E+01  0.3616E+02
  14.380  0.1388E+01  0.3617E+02
  14.390  0.1392E+01  0.3619E+02
  14.400  0.1396E+01  0.3620E+02
  14.410  0.1400E+01  0.3621E+02
  14.420  0.1405E+01  0.3623E+02
  14.430  0.1409E+01  0.3624E+02
  14.440  0.1414E+01  0.3626E+02
  14.450  0.1419E+01  0.3627E+02
  14.460  0.1424E+01  0.3628E+02
  14.470  0.1429E+01  0.3630E+02
  14.480  0.1434E+01  0.3631E+02
  14.490  0.1439E+01  0.3633E+02
  14.500  0.1444E+01  0.3634E+02
  14.510  0.1450E+01  0.3636E+02
  14.520  0.1455E+01  0.3637E+02
  14.530  0.1461E+01  0.3639E+02
  14.540  0.1466E+01  0.3640E+02
  14.550  0.1472E+01  0.3642E+02
  14.560  0.1478E+01  0.3643E+02
  14.570  0.1484E+01  0.3645E+02
  14.580  0.1491E+01  0.3646E+02
  14.590  0.1497E+01  0.3647E+02
  14.600  0.1503E+01  0.3649E+02
  14.610  0.1510E+01  0.3651E+02
  14.620  0.1516E+01  0.3652E+02
  14.630  0.1523E+01  0.3654E+02
  14.640  0.1530E+01  0.3655E+02
  14.650  0.1537E+01  0.3657E+02
  14.660  0.1544E+01  0.3658E+02
  14.670  0.1550E+01  0.3660E+02
  14.680  0.1557E+01  0.3661E+02
  14.690  0.1564E+01  0.3663E+02
  14.700  0.1571E+01  0.3664E+02
  14.710  0.1578E+01  0.3666E+02
  14.720  0.1585E+01  0.3668E+02
  14.730  0.1592E+01  0.3669E+02
  14.740  0.1599E+01  0.3671E+02
  14.750  0.1606E+01  0.3672E+02
  14.760  0.1613E+01  0.3674E+02
  14.770  0.1619E+01  0.3676E+02
  14.780  0.1626E+01  0.3677E+02
  14.790  0.1633E+01  0.3679E+02
  14.800  0.1639E+01  0.3680E+02
  14.810  0.1645E+01  0.3682E+02
  14.820  0.1651E+01  0.3684E+02
  14.830  0.1657E+01  0.3685E+02
  14.840  0.1663E+01  0.3687E+02
  14.850  0.1669E+01  0.3689E+02
  14.860  0.1674E+01  0.3690E+02
  14.870  0.1679E+01  0.3692E+02
  14.880  0.1684E+01  0.3694E+02
  14.890  0.1689E+01  0.3696E+02
  14.900  0.1694E+01  0.3697E+02
  14.910  0.1698E+01  0.3699E+02
  14.920  0.1702E+01  0.3701E+02
  14.930  0.1706E+01  0.3702E+02
  14.940  0.1710E+01  0.3704E+02
  14.950  0.1713E+01  0.3706E+02
  14.960  0.1717E+01  0.3707E+02
  14.970  0.1719E+01  0.3709E+02
  14.980  0.1722E+01  0.3711E+02
  14.990  0.1725E+01  0.3713E+02
  15.000  0.1727E+01  0.3714E+02
  15.010  0.1729E+01  0.3716E+02
  15.020  0.1730E+01  0.3718E+02
  15.030  0.1732E+01  0.3720E+02
  15.040  0.1733E+01  0.3721E+02
  15.050  0.1734E+01  0.3723E+02
  15.060  0.1735E+01  0.3725E+02
  15.070  0.1736E+01  0.3726E+02
  15.080  0.1736E+01  0.3728E+02
  15.090  0.1737E+01  0.3730E+02
  15.100  0.1737E+01  0.3732E+02
  15.110  0.1737E+01  0.3733E+02
  15.120  0.1737E+01  0.3735E+02
  15.130  0.1736E+01  0.3737E+02
  15.140  0.1736E+01  0.3739E+02
  15.150  0.1736E+01  0.3740E+02
  15.160  0.1735E+01  0.3742E+02
  15.170  0.1734E+01  0.3744E+02
  15.180  0.1734E+01  0.3746E+02
  15.190  0.1733E+01  0.3747E+02
  15.200  0.1732E+01  0.3749E+02
  15.210  0.1731E+01  0.3751E+02
  15.220  0.1730E+01  0.3752E+02
  15.230  0.1730E+01  0.3754E+02
  15.240  0.1729E+01  0.3756E+02
  15.250  0.1728E+01  0.3758E+02
  15.260  0.1727E+01  0.3759E+02
  15.270  0.1726E+01  0.3761E+02
  15.280  0.1726E+01  0.3763E+02
  15.290  0.1725E+01  0.3765E+02
  15.300  0.1725E+01  0.3766E+02
  15.310  0.1724E+01  0.3768E+02
  15.320  0.1724E+01  0.3770E+02
  15.330  0.1723E+01  0.3771E+02
  15.340  0.1723E+01  0.3773E+02
  15.350  0.1723E+01  0.3775E+02
  15.360  0.1723E+01  0.3777E+02
  15.370  0.1723E+01  0.3778E+02
  15.380  0.1723E+01  0.3780E+02
  15.390  0.1724E+01  0.3782E+02
  15.400  0.1724E+01  0.3784E+02
  15.410  0.1724E+01  0.3785E+02
  15.420  0.1725E+01  0.3787E+02
  15.430  0.1726E+01  0.3789E+02
  15.440  0.1726E+01  0.3790E+02
  15.450  0.1727E+01  0.3792E+02
  15.460  0.1728E+01  0.3794E+02
  15.470  0.1729E+01  0.3796E+02
  15.480  0.1730E+01  0.3797E+02
  15.490  0.1731E+01  0.3799E+02
  15.500  0.1732E+01  0.3801E+02
  15.510  0.1733E+01  0.3803E+02
  15.520  0.1734E+01  0.3804E+02
  15.530  0.1735E+01  0.3806E+02
  15.540  0.1736E+01  0.3808E+02
  15.550  0.1737E+01  0.3809E+02
  15.560  0.1738E+01  0.3811E+02
  15.570  0.1739E+01  0.3813E+02
  15.580  0.1740E+01  0.3815E+02
  15.590  0.1741E+01  0.3816E+02
  15.600  0.1742E+01  0.3818E+02
  15.610  0.1743E+01  0.3820E+02
  15.620  0.1744E+01  0.3822E+02
  15.630  0.1745E+01  0.3823E+02
  15.640  0.1745E+01  0.3825E+02
  15.650  0.1746E+01  0.3827E+02
  15.660  0.1746E+01  0.3829E+02
  15.670  0.1747E+01  0.3830E+02
  15.680  0.1747E+01  0.3832E+02
  15.690  0.1747E+01  0.3834E+02
  15.700  0.1747E+01  0.3836E+02
  15.710  0.1747E+01  0.3837E+02
  15.720  0.1747E+01  0.3839E+02
  15.730  0.1747E+01  0.3841E+02
  15.740  0.1746E+01  0.3843E+02
  15.750  0.1746E+01  0.3844E+02
  15.760  0.1745E+01  0.3846E+02
  15.770  0.1745E+01  0.3848E+02
  15.780  0.1744E+01  0.3850E+02
  15.790  0.1743E+01  0.3851E+02
  15.800  0.1742E+01  0.3853E+02
  15.810  0.1741E+01  0.3855E+02
  15.820  0.1740E+01  0.3857E+02
  15.830  0.1738E+01  0.3858E+02
  15.840  0.1737E+01  0.3860E+02
  15.850  0.1736E+01  0.3862E+02
  15.860  0.1734E+01  0.3864E+02
  15.870  0.1733E+01  0.3865E+02
  15.880  0.1731E+01  0.3867E+02
  15.890  0.1730E+01  0.3869E+02
  15.900  0.1728E+01  0.3870E+02
  15.910  0.1727E+01  0.3872E+02
  15.920  0.1725E+01  0.3874E+02
  15.930  0.1724E+01  0.3876E+02
  15.940  0.1722E+01  0.3877E+02
  15.950  0.1721E+01  0.3879E+02
  15.960  0.1719E+01  0.3881E+02
  15.970  0.1718E+01  0.3883E+02
  15.980  0.1717E+01  0.3884E+02
  15.990  0.1715E+01  0.3886E+02
  16.000  0.1714E+01  0.3888E+02
  16.010  0.1713E+01  0.3889E+02
  16.020  0.1712E+01  0.3891E+02
  16.030  0.1711E+01  0.3893E+02
  16.040  0.1710E+01  0.3894E+02
  16.050  0.1710E+01  0.3896E+02
  16.060  0.1709E+01  0.3898E+02
  16.070  0.1709E+01  0.3900E+02
  16.080  0.1708E+01  0.3901E+02
  16.090  0.1708E+01  0.3903E+02
  16.100  0.1708E+01  0.3905E+02
  16.110  0.1708E+01  0.3906E+02
  16.120  0.1708E+01  0.3908E+02
  16.130  0.1709E+01  0.3910E+02
  16.140  0.1709E+01  0.3912E+02
  16.150  0.1710E+01  0.3913E+02
  16.160  0.1711E+01  0.3915E+02
  16.170  0.1712E+01  0.3917E+02
  16.180  0.1713E+01  0.3918E+02
  16.190  0.1714E+01  0.3920E+02
  16.200  0.1715E+01  0.3922E+02
  16.210  0.1717E+01  0.3924E+02
  16.220  0.1718E+01  0.3925E+02
  16.230  0.1720E+01  0.3927E+02
  16.240  0.1722E+01  0.3929E+02
  16.250  0.1724E+01  0.3930E+02
  16.260  0.1726E+01  0.3932E+02
  16.270  0.1729E+01  0.3934E+02
  16.280  0.1731E+01  0.3936E+02
  16.290  0.1733E+01  0.3937E+02
  16.300  0.1736E+01  0.3939E+02
  16.310  0.1739E+01  0.3941E+02
  16.320  0.1741E+01  0.3943E+02
  16.330  0.1744E+01  0.3944E+02
  16.340  0.1747E+01  0.3946E+02
  16.350  0.1750E+01  0.3948E+02
  16.360  0.1753E+01  0.3950E+02
  16.370  0.1757E+01  0.3951E+02
  16.380  0.1760E+01  0.3953E+02
  16.390  0.1763E+01  0.3955E+02
  16.400  0.1766E+01  0.3957E+02
  16.410  0.1770E+01  0.3958E+02
  16.420  0.1773E+01  0.3960E+02
  16.430  0.1777E+01  0.3962E+02
  16.440  0.1780E+01  0.3964E+02
  16.450  0.1784E+01  0.3966E+02
  16.460  0.1787E+01  0.3967E+02
  16.470  0.1791E+01  0.3969E+02
  16.480  0.1795E+01  0.3971E+02
  16.490  0.1798E+01  0.3973E+02
  16.500  0.1802E+01  0.3974E+02
  16.510  0.1805E+01  0.3976E+02
  16.520  0.1809E+01  0.3978E+02
  16.530  0.1813E+01  0.3980E+02
  16.540  0.1816E+01  0.3982E+02
  16.550  0.1820E+01  0.3984E+02
  16.560  0.1824E+01  0.3985E+02
  16.570  0.1827E+01  0.3987E+02
  16.580  0.1831E+01  0.3989E+02
  16.590  0.1835E+01  0.3991E+02
  16.600  0.1838E+01  0.3993E+02
  16.610  0.1842E+01  0.3995E+02
  16.620  0.1845E+01  0.3996E+02
  16.630  0.1849E+01  0.3998E+02
  16.640  0.1853E+01  0.4000E+02
  16.650  0.1856E+01  0.4002E+02
  16.660  0.1860E+01  0.4004E+02
  16.670  0.1863E+01  0.4006E+02
  16.680  0.1867E+01  0.4008E+02
  16.690  0.1870E+01  0.4009E+02
  16.700  0.1874E+01  0.4011E+02
  16.710  0.1877E+01  0.4013E+02
  16.720  0.1881E+01  0.4015E+02
  16.730  0.1884E+01  0.4017E+02
  16.740  0.1888E+01  0.4019E+02
  16.750  0.1891E+01  0.4021E+02
  16.760  0.1895E+01  0.4023E+02
  16.770  0.1898E+01  0.4025E+02
  16.780  0.1902E+01  0.4026E+02
  16.790  0.1905E+01  0.4028E+02
  16.800  0.1908E+01  0.4030E+02
  16.810  0.1912E+01  0.4032E+02
  16.820  0.1915E+01  0.4034E+02
  16.830  0.1918E+01  0.4036E+02
  16.840  0.1921E+01  0.4038E+02
  16.850  0.1924E+01  0.4040E+02
  16.860  0.1928E+01  0.4042E+02
  16.870  0.1931E+01  0.4044E+02
  16.880  0.1934E+01  0.4046E+02
  16.890  0.1937E+01  0.4048E+02
  16.900  0.1939E+01  0.4049E+02
  16.910  0.1942E+01  0.4051E+02
  16.920  0.1945E+01  0.4053E+02
  16.930  0.1948E+01  0.4055E+02
  16.940  0.1950E+01  0.4057E+02
  16.950  0.1953E+01  0.4059E+02
  16.960  0.1955E+01  0.4061E+02
  16.970  0.1957E+01  0.4063E+02
  16.980  0.1959E+01  0.4065E+02
  16.990  0.1961E+01  0.4067E+02
  17.000  0.1963E+01  0.4069E+02
  17.010  0.1965E+01  0.4071E+02
  17.020  0.1967E+01  0.4073E+02
  17.030  0.1968E+01  0.4075E+02
  17.040  0.1970E+01  0.4077E+02
  17.050  0.1971E+01  0.4079E+02
  17.060  0.1972E+01  0.4081E+02
  17.070  0.1973E+01  0.4083E+02
  17.080  0.1974E+01  0.4085E+02
  17.090  0.1974E+01  0.4087E+02
  17.100  0.1975E+01  0.4089E+02
  17.110  0.1975E+01  0.4091E+02
  17.120  0.1976E+01  0.4093E+02
  17.130  0.1976E+01  0.4095E+02
  17.140  0.1976E+01  0.4097E+02
  17.150  0.1976E+01  0.4099E+02
  17.160  0.1975E+01  0.4101E+02
  17.170  0.1975E+01  0.4103E+02
  17.180  0.1974E+01  0.4105E+02
  17.190  0.1974E+01  0.4106E+02
  17.200  0.1973E+01  0.4108E+02
  17.210  0.1972E+01  0.4110E+02
  17.220  0.1971E+01  0.4112E+02
  17.230  0.1970E+01  0.4114E+02
  17.240  0.1969E+01  0.4116E+02
  17.250  0.1968E+01  0.4118E+02
  17.260  0.1967E+01  0.4120E+02
  17.270  0.1966E+01  0.4122E+02
  17.280  0.1965E+01  0.4124E+02
  17.290  0.1964E+01  0.4126E+02
  17.300  0.1963E+01  0.4128E+02
  17.310  0.1961E+01  0.4130E+02
  17.320  0.1960E+01  0.4132E+02
  17.330  0.1959E+01  0.4134E+02
  17.340  0.1958E+01  0.4136E+02
  17.350  0.1957E+01  0.4138E+02
  17.360  0.1956E+01  0.4140E+02
  17.370  0.1956E+01  0.4142E+02
  17.380  0.1955E+01  0.4144E+02
  17.390  0.1954E+01  0.4146E+02
  17.400  0.1954E+01  0.4148E+02
  17.410  0.1954E+01  0.4150E+02
  17.420  0.1954E+01  0.4152E+02
  17.430  0.1954E+01  0.4154E+02
  17.440  0.1954E+01  0.4156E+02
  17.450  0.1954E+01  0.4157E+02
  17.460  0.1955E+01  0.4159E+02
  17.470  0.1956E+01  0.4161E+02
  17.480  0.1957E+01  0.4163E+02
  17.490  0.1958E+01  0.4165E+02
  17.500  0.1959E+01  0.4167E+02
  17.510  0.1961E+01  0.4169E+02
  17.520  0.1962E+01  0.4171E+02
  17.530  0.1964E+01  0.4173E+02
  17.540  0.1966E+01  0.4175E+02
  17.550  0.1969E+01  0.4177E+02
  17.560  0.1971E+01  0.4179E+02
