#  E (eV)   dos(E)     Int dos(E) EFermi =  17.694 eV
  -9.643  0.1025E-05  0.1025E-07
  -9.633  0.1121E-05  0.2146E-07
  -9.623  0.1225E-05  0.3371E-07
  -9.613  0.1339E-05  0.4710E-07
  -9.603  0.1462E-05  0.6172E-07
  -9.593  0.1597E-05  0.7769E-07
  -9.583  0.1742E-05  0.9511E-07
  -9.573  0.1901E-05  0.1141E-06
  -9.563  0.2073E-05  0.1348E-06
  -9.553  0.2259E-05  0.1574E-06
  -9.543  0.2462E-05  0.1821E-06
  -9.533  0.2681E-05  0.2089E-06
  -9.523  0.2919E-05  0.2381E-06
  -9.513  0.3177E-05  0.2698E-06
  -9.503  0.3456E-05  0.3044E-06
  -9.493  0.3758E-05  0.3420E-06
  -9.483  0.4085E-05  0.3828E-06
  -9.473  0.4439E-05  0.4272E-06
  -9.463  0.4821E-05  0.4754E-06
  -9.453  0.5235E-05  0.5278E-06
  -9.443  0.5681E-05  0.5846E-06
  -9.433  0.6163E-05  0.6462E-06
  -9.423  0.6683E-05  0.7131E-06
  -9.413  0.7244E-05  0.7855E-06
  -9.403  0.7850E-05  0.8640E-06
  -9.393  0.8502E-05  0.9490E-06
  -9.383  0.9206E-05  0.1041E-05
  -9.373  0.9963E-05  0.1141E-05
  -9.363  0.1078E-04  0.1248E-05
  -9.353  0.1166E-04  0.1365E-05
  -9.343  0.1260E-04  0.1491E-05
  -9.333  0.1362E-04  0.1627E-05
  -9.323  0.1471E-04  0.1774E-05
  -9.313  0.1588E-04  0.1933E-05
  -9.303  0.1714E-04  0.2105E-05
  -9.293  0.1849E-04  0.2289E-05
  -9.283  0.1995E-04  0.2489E-05
  -9.273  0.2150E-04  0.2704E-05
  -9.263  0.2317E-04  0.2936E-05
  -9.253  0.2496E-04  0.3185E-05
  -9.243  0.2688E-04  0.3454E-05
  -9.233  0.2894E-04  0.3744E-05
  -9.223  0.3114E-04  0.4055E-05
  -9.213  0.3349E-04  0.4390E-05
  -9.203  0.3601E-04  0.4750E-05
  -9.193  0.3870E-04  0.5137E-05
  -9.183  0.4158E-04  0.5553E-05
  -9.173  0.4466E-04  0.5999E-05
  -9.163  0.4795E-04  0.6479E-05
  -9.153  0.5146E-04  0.6993E-05
  -9.143  0.5520E-04  0.7546E-05
  -9.133  0.5920E-04  0.8137E-05
  -9.123  0.6346E-04  0.8772E-05
  -9.113  0.6800E-04  0.9452E-05
  -9.103  0.7284E-04  0.1018E-04
  -9.093  0.7800E-04  0.1096E-04
  -9.083  0.8349E-04  0.1180E-04
  -9.073  0.8933E-04  0.1269E-04
  -9.063  0.9555E-04  0.1364E-04
  -9.053  0.1022E-03  0.1467E-04
  -9.043  0.1092E-03  0.1576E-04
  -9.033  0.1167E-03  0.1692E-04
  -9.023  0.1246E-03  0.1817E-04
  -9.013  0.1330E-03  0.1950E-04
  -9.003  0.1420E-03  0.2092E-04
  -8.993  0.1515E-03  0.2244E-04
  -8.983  0.1615E-03  0.2405E-04
  -8.973  0.1722E-03  0.2577E-04
  -8.963  0.1835E-03  0.2761E-04
  -8.953  0.1955E-03  0.2956E-04
  -8.943  0.2082E-03  0.3165E-04
  -8.933  0.2217E-03  0.3386E-04
  -8.923  0.2359E-03  0.3622E-04
  -8.913  0.2510E-03  0.3873E-04
  -8.903  0.2669E-03  0.4140E-04
  -8.893  0.2837E-03  0.4424E-04
  -8.883  0.3015E-03  0.4725E-04
  -8.873  0.3203E-03  0.5046E-04
  -8.863  0.3402E-03  0.5386E-04
  -8.853  0.3611E-03  0.5747E-04
  -8.843  0.3832E-03  0.6130E-04
  -8.833  0.4066E-03  0.6537E-04
  -8.823  0.4312E-03  0.6968E-04
  -8.813  0.4571E-03  0.7425E-04
  -8.803  0.4844E-03  0.7909E-04
  -8.793  0.5132E-03  0.8423E-04
  -8.783  0.5435E-03  0.8966E-04
  -8.773  0.5754E-03  0.9541E-04
  -8.763  0.6089E-03  0.1015E-03
  -8.753  0.6442E-03  0.1079E-03
  -8.743  0.6813E-03  0.1148E-03
  -8.733  0.7203E-03  0.1220E-03
  -8.723  0.7613E-03  0.1296E-03
  -8.713  0.8044E-03  0.1376E-03
  -8.703  0.8496E-03  0.1461E-03
  -8.693  0.8970E-03  0.1551E-03
  -8.683  0.9468E-03  0.1646E-03
  -8.673  0.9990E-03  0.1745E-03
  -8.663  0.1054E-02  0.1851E-03
  -8.653  0.1111E-02  0.1962E-03
  -8.643  0.1171E-02  0.2079E-03
  -8.633  0.1234E-02  0.2202E-03
  -8.623  0.1300E-02  0.2332E-03
  -8.613  0.1369E-02  0.2469E-03
  -8.603  0.1441E-02  0.2614E-03
  -8.593  0.1517E-02  0.2765E-03
  -8.583  0.1596E-02  0.2925E-03
  -8.573  0.1679E-02  0.3093E-03
  -8.563  0.1765E-02  0.3269E-03
  -8.553  0.1855E-02  0.3455E-03
  -8.543  0.1949E-02  0.3650E-03
  -8.533  0.2047E-02  0.3854E-03
  -8.523  0.2150E-02  0.4069E-03
  -8.513  0.2257E-02  0.4295E-03
  -8.503  0.2368E-02  0.4532E-03
  -8.493  0.2485E-02  0.4780E-03
  -8.483  0.2606E-02  0.5041E-03
  -8.473  0.2732E-02  0.5314E-03
  -8.463  0.2864E-02  0.5601E-03
  -8.453  0.3001E-02  0.5901E-03
  -8.443  0.3143E-02  0.6215E-03
  -8.433  0.3291E-02  0.6544E-03
  -8.423  0.3446E-02  0.6889E-03
  -8.413  0.3606E-02  0.7249E-03
  -8.403  0.3773E-02  0.7626E-03
  -8.393  0.3946E-02  0.8021E-03
  -8.383  0.4126E-02  0.8434E-03
  -8.373  0.4312E-02  0.8865E-03
  -8.363  0.4506E-02  0.9315E-03
  -8.353  0.4708E-02  0.9786E-03
  -8.343  0.4916E-02  0.1028E-02
  -8.333  0.5133E-02  0.1079E-02
  -8.323  0.5357E-02  0.1133E-02
  -8.313  0.5590E-02  0.1189E-02
  -8.303  0.5831E-02  0.1247E-02
  -8.293  0.6081E-02  0.1308E-02
  -8.283  0.6339E-02  0.1371E-02
  -8.273  0.6607E-02  0.1437E-02
  -8.263  0.6883E-02  0.1506E-02
  -8.253  0.7170E-02  0.1578E-02
  -8.243  0.7466E-02  0.1652E-02
  -8.233  0.7772E-02  0.1730E-02
  -8.223  0.8089E-02  0.1811E-02
  -8.213  0.8415E-02  0.1895E-02
  -8.203  0.8753E-02  0.1983E-02
  -8.193  0.9102E-02  0.2074E-02
  -8.183  0.9461E-02  0.2168E-02
  -8.173  0.9833E-02  0.2267E-02
  -8.163  0.1022E-01  0.2369E-02
  -8.153  0.1061E-01  0.2475E-02
  -8.143  0.1102E-01  0.2585E-02
  -8.133  0.1144E-01  0.2699E-02
  -8.123  0.1187E-01  0.2818E-02
  -8.113  0.1231E-01  0.2941E-02
  -8.103  0.1277E-01  0.3069E-02
  -8.093  0.1324E-01  0.3201E-02
  -8.083  0.1373E-01  0.3339E-02
  -8.073  0.1423E-01  0.3481E-02
  -8.063  0.1474E-01  0.3628E-02
  -8.053  0.1527E-01  0.3781E-02
  -8.043  0.1581E-01  0.3939E-02
  -8.033  0.1637E-01  0.4103E-02
  -8.023  0.1694E-01  0.4272E-02
  -8.013  0.1753E-01  0.4448E-02
  -8.003  0.1813E-01  0.4629E-02
  -7.993  0.1875E-01  0.4816E-02
  -7.983  0.1938E-01  0.5010E-02
  -7.973  0.2003E-01  0.5210E-02
  -7.963  0.2070E-01  0.5417E-02
  -7.953  0.2138E-01  0.5631E-02
  -7.943  0.2208E-01  0.5852E-02
  -7.933  0.2280E-01  0.6080E-02
  -7.923  0.2353E-01  0.6315E-02
  -7.913  0.2428E-01  0.6558E-02
  -7.903  0.2505E-01  0.6809E-02
  -7.893  0.2583E-01  0.7067E-02
  -7.883  0.2664E-01  0.7333E-02
  -7.873  0.2746E-01  0.7608E-02
  -7.863  0.2830E-01  0.7891E-02
  -7.853  0.2915E-01  0.8182E-02
  -7.843  0.3003E-01  0.8483E-02
  -7.833  0.3092E-01  0.8792E-02
  -7.823  0.3183E-01  0.9110E-02
  -7.813  0.3276E-01  0.9438E-02
  -7.803  0.3371E-01  0.9775E-02
  -7.793  0.3467E-01  0.1012E-01
  -7.783  0.3566E-01  0.1048E-01
  -7.773  0.3666E-01  0.1084E-01
  -7.763  0.3768E-01  0.1122E-01
  -7.753  0.3872E-01  0.1161E-01
  -7.743  0.3978E-01  0.1201E-01
  -7.733  0.4086E-01  0.1242E-01
  -7.723  0.4195E-01  0.1283E-01
  -7.713  0.4307E-01  0.1327E-01
  -7.703  0.4420E-01  0.1371E-01
  -7.693  0.4535E-01  0.1416E-01
  -7.683  0.4652E-01  0.1463E-01
  -7.673  0.4770E-01  0.1510E-01
  -7.663  0.4891E-01  0.1559E-01
  -7.653  0.5013E-01  0.1609E-01
  -7.643  0.5137E-01  0.1661E-01
  -7.633  0.5263E-01  0.1713E-01
  -7.623  0.5390E-01  0.1767E-01
  -7.613  0.5519E-01  0.1822E-01
  -7.603  0.5650E-01  0.1879E-01
  -7.593  0.5782E-01  0.1937E-01
  -7.583  0.5916E-01  0.1996E-01
  -7.573  0.6052E-01  0.2056E-01
  -7.563  0.6189E-01  0.2118E-01
  -7.553  0.6328E-01  0.2182E-01
  -7.543  0.6468E-01  0.2246E-01
  -7.533  0.6610E-01  0.2312E-01
  -7.523  0.6753E-01  0.2380E-01
  -7.513  0.6897E-01  0.2449E-01
  -7.503  0.7043E-01  0.2519E-01
  -7.493  0.7191E-01  0.2591E-01
  -7.483  0.7339E-01  0.2665E-01
  -7.473  0.7489E-01  0.2740E-01
  -7.463  0.7640E-01  0.2816E-01
  -7.453  0.7791E-01  0.2894E-01
  -7.443  0.7945E-01  0.2973E-01
  -7.433  0.8099E-01  0.3054E-01
  -7.423  0.8254E-01  0.3137E-01
  -7.413  0.8410E-01  0.3221E-01
  -7.403  0.8566E-01  0.3307E-01
  -7.393  0.8724E-01  0.3394E-01
  -7.383  0.8883E-01  0.3483E-01
  -7.373  0.9042E-01  0.3573E-01
  -7.363  0.9201E-01  0.3665E-01
  -7.353  0.9362E-01  0.3759E-01
  -7.343  0.9522E-01  0.3854E-01
  -7.333  0.9684E-01  0.3951E-01
  -7.323  0.9845E-01  0.4049E-01
  -7.313  0.1001E+00  0.4149E-01
  -7.303  0.1017E+00  0.4251E-01
  -7.293  0.1033E+00  0.4354E-01
  -7.283  0.1049E+00  0.4459E-01
  -7.273  0.1066E+00  0.4566E-01
  -7.263  0.1082E+00  0.4674E-01
  -7.253  0.1098E+00  0.4784E-01
  -7.243  0.1114E+00  0.4895E-01
  -7.233  0.1131E+00  0.5008E-01
  -7.223  0.1147E+00  0.5123E-01
  -7.213  0.1163E+00  0.5239E-01
  -7.203  0.1179E+00  0.5357E-01
  -7.193  0.1195E+00  0.5477E-01
  -7.183  0.1211E+00  0.5598E-01
  -7.173  0.1227E+00  0.5720E-01
  -7.163  0.1243E+00  0.5845E-01
  -7.153  0.1258E+00  0.5970E-01
  -7.143  0.1274E+00  0.6098E-01
  -7.133  0.1289E+00  0.6227E-01
  -7.123  0.1305E+00  0.6357E-01
  -7.113  0.1320E+00  0.6489E-01
  -7.103  0.1335E+00  0.6623E-01
  -7.093  0.1350E+00  0.6758E-01
  -7.083  0.1365E+00  0.6894E-01
  -7.073  0.1380E+00  0.7032E-01
  -7.063  0.1395E+00  0.7172E-01
  -7.053  0.1409E+00  0.7313E-01
  -7.043  0.1424E+00  0.7455E-01
  -7.033  0.1438E+00  0.7599E-01
  -7.023  0.1452E+00  0.7744E-01
  -7.013  0.1466E+00  0.7891E-01
  -7.003  0.1479E+00  0.8039E-01
  -6.993  0.1493E+00  0.8188E-01
  -6.983  0.1506E+00  0.8339E-01
  -6.973  0.1519E+00  0.8491E-01
  -6.963  0.1532E+00  0.8644E-01
  -6.953  0.1545E+00  0.8798E-01
  -6.943  0.1557E+00  0.8954E-01
  -6.933  0.1570E+00  0.9111E-01
  -6.923  0.1582E+00  0.9269E-01
  -6.913  0.1593E+00  0.9428E-01
  -6.903  0.1605E+00  0.9589E-01
  -6.893  0.1616E+00  0.9751E-01
  -6.883  0.1628E+00  0.9913E-01
  -6.873  0.1639E+00  0.1008E+00
  -6.863  0.1649E+00  0.1024E+00
  -6.853  0.1660E+00  0.1041E+00
  -6.843  0.1670E+00  0.1058E+00
  -6.833  0.1680E+00  0.1074E+00
  -6.823  0.1690E+00  0.1091E+00
  -6.813  0.1699E+00  0.1108E+00
  -6.803  0.1709E+00  0.1125E+00
  -6.793  0.1718E+00  0.1142E+00
  -6.783  0.1726E+00  0.1160E+00
  -6.773  0.1735E+00  0.1177E+00
  -6.763  0.1743E+00  0.1195E+00
  -6.753  0.1752E+00  0.1212E+00
  -6.743  0.1760E+00  0.1230E+00
  -6.733  0.1767E+00  0.1247E+00
  -6.723  0.1775E+00  0.1265E+00
  -6.713  0.1782E+00  0.1283E+00
  -6.703  0.1789E+00  0.1301E+00
  -6.693  0.1796E+00  0.1319E+00
  -6.683  0.1803E+00  0.1337E+00
  -6.673  0.1809E+00  0.1355E+00
  -6.663  0.1815E+00  0.1373E+00
  -6.653  0.1822E+00  0.1391E+00
  -6.643  0.1828E+00  0.1409E+00
  -6.633  0.1833E+00  0.1428E+00
  -6.623  0.1839E+00  0.1446E+00
  -6.613  0.1844E+00  0.1465E+00
  -6.603  0.1850E+00  0.1483E+00
  -6.593  0.1855E+00  0.1502E+00
  -6.583  0.1860E+00  0.1520E+00
  -6.573  0.1865E+00  0.1539E+00
  -6.563  0.1870E+00  0.1558E+00
  -6.553  0.1875E+00  0.1576E+00
  -6.543  0.1879E+00  0.1595E+00
  -6.533  0.1884E+00  0.1614E+00
  -6.523  0.1888E+00  0.1633E+00
  -6.513  0.1893E+00  0.1652E+00
  -6.503  0.1897E+00  0.1671E+00
  -6.493  0.1901E+00  0.1690E+00
  -6.483  0.1906E+00  0.1709E+00
  -6.473  0.1910E+00  0.1728E+00
  -6.463  0.1915E+00  0.1747E+00
  -6.453  0.1919E+00  0.1766E+00
  -6.443  0.1923E+00  0.1786E+00
  -6.433  0.1928E+00  0.1805E+00
  -6.423  0.1932E+00  0.1824E+00
  -6.413  0.1937E+00  0.1843E+00
  -6.403  0.1941E+00  0.1863E+00
  -6.393  0.1946E+00  0.1882E+00
  -6.383  0.1951E+00  0.1902E+00
  -6.373  0.1956E+00  0.1921E+00
  -6.363  0.1961E+00  0.1941E+00
  -6.353  0.1966E+00  0.1961E+00
  -6.343  0.1971E+00  0.1980E+00
  -6.333  0.1977E+00  0.2000E+00
  -6.323  0.1982E+00  0.2020E+00
  -6.313  0.1988E+00  0.2040E+00
  -6.303  0.1994E+00  0.2060E+00
  -6.293  0.2000E+00  0.2080E+00
  -6.283  0.2007E+00  0.2100E+00
  -6.273  0.2013E+00  0.2120E+00
  -6.263  0.2020E+00  0.2140E+00
  -6.253  0.2028E+00  0.2160E+00
  -6.243  0.2035E+00  0.2181E+00
  -6.233  0.2043E+00  0.2201E+00
  -6.223  0.2051E+00  0.2222E+00
  -6.213  0.2059E+00  0.2242E+00
  -6.203  0.2068E+00  0.2263E+00
  -6.193  0.2077E+00  0.2284E+00
  -6.183  0.2086E+00  0.2305E+00
  -6.173  0.2096E+00  0.2326E+00
  -6.163  0.2106E+00  0.2347E+00
  -6.153  0.2116E+00  0.2368E+00
  -6.143  0.2127E+00  0.2389E+00
  -6.133  0.2138E+00  0.2411E+00
  -6.123  0.2149E+00  0.2432E+00
  -6.113  0.2161E+00  0.2454E+00
  -6.103  0.2173E+00  0.2475E+00
  -6.093  0.2185E+00  0.2497E+00
  -6.083  0.2198E+00  0.2519E+00
  -6.073  0.2212E+00  0.2541E+00
  -6.063  0.2225E+00  0.2564E+00
  -6.053  0.2239E+00  0.2586E+00
  -6.043  0.2254E+00  0.2608E+00
  -6.033  0.2269E+00  0.2631E+00
  -6.023  0.2284E+00  0.2654E+00
  -6.013  0.2300E+00  0.2677E+00
  -6.003  0.2316E+00  0.2700E+00
  -5.993  0.2332E+00  0.2723E+00
  -5.983  0.2349E+00  0.2747E+00
  -5.973  0.2366E+00  0.2771E+00
  -5.963  0.2383E+00  0.2794E+00
  -5.953  0.2401E+00  0.2818E+00
  -5.943  0.2420E+00  0.2843E+00
  -5.933  0.2438E+00  0.2867E+00
  -5.923  0.2457E+00  0.2892E+00
  -5.913  0.2477E+00  0.2916E+00
  -5.903  0.2496E+00  0.2941E+00
  -5.893  0.2516E+00  0.2966E+00
  -5.883  0.2536E+00  0.2992E+00
  -5.873  0.2557E+00  0.3017E+00
  -5.863  0.2578E+00  0.3043E+00
  -5.853  0.2599E+00  0.3069E+00
  -5.843  0.2620E+00  0.3095E+00
  -5.833  0.2642E+00  0.3122E+00
  -5.823  0.2664E+00  0.3148E+00
  -5.813  0.2686E+00  0.3175E+00
  -5.803  0.2708E+00  0.3202E+00
  -5.793  0.2731E+00  0.3230E+00
  -5.783  0.2753E+00  0.3257E+00
  -5.773  0.2776E+00  0.3285E+00
  -5.763  0.2799E+00  0.3313E+00
  -5.753  0.2822E+00  0.3341E+00
  -5.743  0.2845E+00  0.3370E+00
  -5.733  0.2868E+00  0.3398E+00
  -5.723  0.2892E+00  0.3427E+00
  -5.713  0.2915E+00  0.3456E+00
  -5.703  0.2938E+00  0.3486E+00
  -5.693  0.2962E+00  0.3515E+00
  -5.683  0.2985E+00  0.3545E+00
  -5.673  0.3008E+00  0.3575E+00
  -5.663  0.3031E+00  0.3606E+00
  -5.653  0.3054E+00  0.3636E+00
  -5.643  0.3077E+00  0.3667E+00
  -5.633  0.3100E+00  0.3698E+00
  -5.623  0.3123E+00  0.3729E+00
  -5.613  0.3145E+00  0.3761E+00
  -5.603  0.3167E+00  0.3792E+00
  -5.593  0.3189E+00  0.3824E+00
  -5.583  0.3211E+00  0.3856E+00
  -5.573  0.3233E+00  0.3889E+00
  -5.563  0.3254E+00  0.3921E+00
  -5.553  0.3274E+00  0.3954E+00
  -5.543  0.3295E+00  0.3987E+00
  -5.533  0.3315E+00  0.4020E+00
  -5.523  0.3335E+00  0.4053E+00
  -5.513  0.3354E+00  0.4087E+00
  -5.503  0.3373E+00  0.4121E+00
  -5.493  0.3391E+00  0.4155E+00
  -5.483  0.3409E+00  0.4189E+00
  -5.473  0.3427E+00  0.4223E+00
  -5.463  0.3443E+00  0.4257E+00
  -5.453  0.3460E+00  0.4292E+00
  -5.443  0.3476E+00  0.4327E+00
  -5.433  0.3491E+00  0.4362E+00
  -5.423  0.3505E+00  0.4397E+00
  -5.413  0.3519E+00  0.4432E+00
  -5.403  0.3533E+00  0.4467E+00
  -5.393  0.3545E+00  0.4503E+00
  -5.383  0.3557E+00  0.4538E+00
  -5.373  0.3569E+00  0.4574E+00
  -5.363  0.3579E+00  0.4610E+00
  -5.353  0.3589E+00  0.4646E+00
  -5.343  0.3598E+00  0.4682E+00
  -5.333  0.3607E+00  0.4718E+00
  -5.323  0.3615E+00  0.4754E+00
  -5.313  0.3622E+00  0.4790E+00
  -5.303  0.3628E+00  0.4826E+00
  -5.293  0.3633E+00  0.4863E+00
  -5.283  0.3638E+00  0.4899E+00
  -5.273  0.3642E+00  0.4935E+00
  -5.263  0.3645E+00  0.4972E+00
  -5.253  0.3648E+00  0.5008E+00
  -5.243  0.3649E+00  0.5045E+00
  -5.233  0.3650E+00  0.5081E+00
  -5.223  0.3650E+00  0.5118E+00
  -5.213  0.3649E+00  0.5154E+00
  -5.203  0.3647E+00  0.5191E+00
  -5.193  0.3645E+00  0.5227E+00
  -5.183  0.3642E+00  0.5264E+00
  -5.173  0.3638E+00  0.5300E+00
  -5.163  0.3633E+00  0.5336E+00
  -5.153  0.3628E+00  0.5373E+00
  -5.143  0.3622E+00  0.5409E+00
  -5.133  0.3615E+00  0.5445E+00
  -5.123  0.3607E+00  0.5481E+00
  -5.113  0.3599E+00  0.5517E+00
  -5.103  0.3590E+00  0.5553E+00
  -5.093  0.3580E+00  0.5589E+00
  -5.083  0.3569E+00  0.5624E+00
  -5.073  0.3558E+00  0.5660E+00
  -5.063  0.3546E+00  0.5696E+00
  -5.053  0.3534E+00  0.5731E+00
  -5.043  0.3521E+00  0.5766E+00
  -5.033  0.3507E+00  0.5801E+00
  -5.023  0.3493E+00  0.5836E+00
  -5.013  0.3479E+00  0.5871E+00
  -5.003  0.3463E+00  0.5906E+00
  -4.993  0.3448E+00  0.5940E+00
  -4.983  0.3431E+00  0.5974E+00
  -4.973  0.3415E+00  0.6008E+00
  -4.963  0.3398E+00  0.6042E+00
  -4.953  0.3380E+00  0.6076E+00
  -4.943  0.3363E+00  0.6110E+00
  -4.933  0.3344E+00  0.6143E+00
  -4.923  0.3326E+00  0.6177E+00
  -4.913  0.3307E+00  0.6210E+00
  -4.903  0.3288E+00  0.6243E+00
  -4.893  0.3269E+00  0.6275E+00
  -4.883  0.3250E+00  0.6308E+00
  -4.873  0.3230E+00  0.6340E+00
  -4.863  0.3211E+00  0.6372E+00
  -4.853  0.3191E+00  0.6404E+00
  -4.843  0.3171E+00  0.6436E+00
  -4.833  0.3151E+00  0.6467E+00
  -4.823  0.3132E+00  0.6499E+00
  -4.813  0.3112E+00  0.6530E+00
  -4.803  0.3092E+00  0.6561E+00
  -4.793  0.3072E+00  0.6591E+00
  -4.783  0.3053E+00  0.6622E+00
  -4.773  0.3034E+00  0.6652E+00
  -4.763  0.3015E+00  0.6682E+00
  -4.753  0.2996E+00  0.6712E+00
  -4.743  0.2977E+00  0.6742E+00
  -4.733  0.2959E+00  0.6772E+00
  -4.723  0.2941E+00  0.6801E+00
  -4.713  0.2923E+00  0.6830E+00
  -4.703  0.2906E+00  0.6859E+00
  -4.693  0.2890E+00  0.6888E+00
  -4.683  0.2873E+00  0.6917E+00
  -4.673  0.2857E+00  0.6946E+00
  -4.663  0.2842E+00  0.6974E+00
  -4.653  0.2827E+00  0.7002E+00
  -4.643  0.2813E+00  0.7030E+00
  -4.633  0.2799E+00  0.7058E+00
  -4.623  0.2787E+00  0.7086E+00
  -4.613  0.2774E+00  0.7114E+00
  -4.603  0.2762E+00  0.7142E+00
  -4.593  0.2751E+00  0.7169E+00
  -4.583  0.2741E+00  0.7197E+00
  -4.573  0.2732E+00  0.7224E+00
  -4.563  0.2723E+00  0.7251E+00
  -4.553  0.2715E+00  0.7278E+00
  -4.543  0.2708E+00  0.7305E+00
  -4.533  0.2701E+00  0.7332E+00
  -4.523  0.2696E+00  0.7359E+00
  -4.513  0.2691E+00  0.7386E+00
  -4.503  0.2687E+00  0.7413E+00
  -4.493  0.2684E+00  0.7440E+00
  -4.483  0.2682E+00  0.7467E+00
  -4.473  0.2681E+00  0.7494E+00
  -4.463  0.2680E+00  0.7520E+00
  -4.453  0.2681E+00  0.7547E+00
  -4.443  0.2682E+00  0.7574E+00
  -4.433  0.2685E+00  0.7601E+00
  -4.423  0.2688E+00  0.7628E+00
  -4.413  0.2692E+00  0.7655E+00
  -4.403  0.2698E+00  0.7682E+00
  -4.393  0.2704E+00  0.7709E+00
  -4.383  0.2711E+00  0.7736E+00
  -4.373  0.2719E+00  0.7763E+00
  -4.363  0.2728E+00  0.7790E+00
  -4.353  0.2737E+00  0.7818E+00
  -4.343  0.2748E+00  0.7845E+00
  -4.333  0.2760E+00  0.7873E+00
  -4.323  0.2772E+00  0.7900E+00
  -4.313  0.2786E+00  0.7928E+00
  -4.303  0.2800E+00  0.7956E+00
  -4.293  0.2816E+00  0.7984E+00
  -4.283  0.2832E+00  0.8013E+00
  -4.273  0.2849E+00  0.8041E+00
  -4.263  0.2866E+00  0.8070E+00
  -4.253  0.2885E+00  0.8099E+00
  -4.243  0.2904E+00  0.8128E+00
  -4.233  0.2925E+00  0.8157E+00
  -4.223  0.2946E+00  0.8186E+00
  -4.213  0.2967E+00  0.8216E+00
  -4.203  0.2990E+00  0.8246E+00
  -4.193  0.3013E+00  0.8276E+00
  -4.183  0.3037E+00  0.8307E+00
  -4.173  0.3061E+00  0.8337E+00
  -4.163  0.3087E+00  0.8368E+00
  -4.153  0.3112E+00  0.8399E+00
  -4.143  0.3139E+00  0.8431E+00
  -4.133  0.3166E+00  0.8462E+00
  -4.123  0.3193E+00  0.8494E+00
  -4.113  0.3222E+00  0.8526E+00
  -4.103  0.3250E+00  0.8559E+00
  -4.093  0.3279E+00  0.8592E+00
  -4.083  0.3309E+00  0.8625E+00
  -4.073  0.3339E+00  0.8658E+00
  -4.063  0.3369E+00  0.8692E+00
  -4.053  0.3400E+00  0.8726E+00
  -4.043  0.3430E+00  0.8760E+00
  -4.033  0.3462E+00  0.8795E+00
  -4.023  0.3493E+00  0.8830E+00
  -4.013  0.3525E+00  0.8865E+00
  -4.003  0.3557E+00  0.8900E+00
  -3.993  0.3589E+00  0.8936E+00
  -3.983  0.3622E+00  0.8973E+00
  -3.973  0.3654E+00  0.9009E+00
  -3.963  0.3687E+00  0.9046E+00
  -3.953  0.3720E+00  0.9083E+00
  -3.943  0.3752E+00  0.9121E+00
  -3.933  0.3785E+00  0.9159E+00
  -3.923  0.3818E+00  0.9197E+00
  -3.913  0.3851E+00  0.9235E+00
  -3.903  0.3883E+00  0.9274E+00
  -3.893  0.3916E+00  0.9313E+00
  -3.883  0.3948E+00  0.9353E+00
  -3.873  0.3981E+00  0.9393E+00
  -3.863  0.4013E+00  0.9433E+00
  -3.853  0.4045E+00  0.9473E+00
  -3.843  0.4076E+00  0.9514E+00
  -3.833  0.4108E+00  0.9555E+00
  -3.823  0.4139E+00  0.9596E+00
  -3.813  0.4170E+00  0.9638E+00
  -3.803  0.4200E+00  0.9680E+00
  -3.793  0.4231E+00  0.9722E+00
  -3.783  0.4260E+00  0.9765E+00
  -3.773  0.4290E+00  0.9808E+00
  -3.763  0.4319E+00  0.9851E+00
  -3.753  0.4348E+00  0.9895E+00
  -3.743  0.4376E+00  0.9938E+00
  -3.733  0.4403E+00  0.9982E+00
  -3.723  0.4431E+00  0.1003E+01
  -3.713  0.4457E+00  0.1007E+01
  -3.703  0.4484E+00  0.1012E+01
  -3.693  0.4509E+00  0.1016E+01
  -3.683  0.4534E+00  0.1021E+01
  -3.673  0.4559E+00  0.1025E+01
  -3.663  0.4583E+00  0.1030E+01
  -3.653  0.4606E+00  0.1034E+01
  -3.643  0.4629E+00  0.1039E+01
  -3.633  0.4651E+00  0.1044E+01
  -3.623  0.4673E+00  0.1048E+01
  -3.613  0.4694E+00  0.1053E+01
  -3.603  0.4714E+00  0.1058E+01
  -3.593  0.4733E+00  0.1062E+01
  -3.583  0.4752E+00  0.1067E+01
  -3.573  0.4770E+00  0.1072E+01
  -3.563  0.4788E+00  0.1077E+01
  -3.553  0.4805E+00  0.1082E+01
  -3.543  0.4821E+00  0.1086E+01
  -3.533  0.4837E+00  0.1091E+01
  -3.523  0.4851E+00  0.1096E+01
  -3.513  0.4866E+00  0.1101E+01
  -3.503  0.4879E+00  0.1106E+01
  -3.493  0.4892E+00  0.1111E+01
  -3.483  0.4904E+00  0.1116E+01
  -3.473  0.4915E+00  0.1121E+01
  -3.463  0.4925E+00  0.1125E+01
  -3.453  0.4935E+00  0.1130E+01
  -3.443  0.4944E+00  0.1135E+01
  -3.433  0.4953E+00  0.1140E+01
  -3.423  0.4961E+00  0.1145E+01
  -3.413  0.4968E+00  0.1150E+01
  -3.403  0.4974E+00  0.1155E+01
  -3.393  0.4980E+00  0.1160E+01
  -3.383  0.4984E+00  0.1165E+01
  -3.373  0.4989E+00  0.1170E+01
  -3.363  0.4992E+00  0.1175E+01
  -3.353  0.4995E+00  0.1180E+01
  -3.343  0.4997E+00  0.1185E+01
  -3.333  0.4999E+00  0.1190E+01
  -3.323  0.5000E+00  0.1195E+01
  -3.313  0.5000E+00  0.1200E+01
  -3.303  0.5000E+00  0.1205E+01
  -3.293  0.4999E+00  0.1210E+01
  -3.283  0.4997E+00  0.1215E+01
  -3.273  0.4995E+00  0.1220E+01
  -3.263  0.4992E+00  0.1225E+01
  -3.253  0.4989E+00  0.1230E+01
  -3.243  0.4985E+00  0.1235E+01
  -3.233  0.4981E+00  0.1240E+01
  -3.223  0.4975E+00  0.1245E+01
  -3.213  0.4970E+00  0.1250E+01
  -3.203  0.4964E+00  0.1255E+01
  -3.193  0.4957E+00  0.1260E+01
  -3.183  0.4950E+00  0.1265E+01
  -3.173  0.4942E+00  0.1270E+01
  -3.163  0.4934E+00  0.1275E+01
  -3.153  0.4925E+00  0.1280E+01
  -3.143  0.4916E+00  0.1285E+01
  -3.133  0.4907E+00  0.1290E+01
  -3.123  0.4897E+00  0.1294E+01
  -3.113  0.4886E+00  0.1299E+01
  -3.103  0.4876E+00  0.1304E+01
  -3.093  0.4864E+00  0.1309E+01
  -3.083  0.4853E+00  0.1314E+01
  -3.073  0.4841E+00  0.1319E+01
  -3.063  0.4829E+00  0.1324E+01
  -3.053  0.4816E+00  0.1328E+01
  -3.043  0.4804E+00  0.1333E+01
  -3.033  0.4790E+00  0.1338E+01
  -3.023  0.4777E+00  0.1343E+01
  -3.013  0.4764E+00  0.1348E+01
  -3.003  0.4750E+00  0.1352E+01
  -2.993  0.4736E+00  0.1357E+01
  -2.983  0.4721E+00  0.1362E+01
  -2.973  0.4707E+00  0.1366E+01
  -2.963  0.4692E+00  0.1371E+01
  -2.953  0.4678E+00  0.1376E+01
  -2.943  0.4663E+00  0.1380E+01
  -2.933  0.4648E+00  0.1385E+01
  -2.923  0.4633E+00  0.1390E+01
  -2.913  0.4618E+00  0.1394E+01
  -2.903  0.4603E+00  0.1399E+01
  -2.893  0.4588E+00  0.1404E+01
  -2.883  0.4573E+00  0.1408E+01
  -2.873  0.4558E+00  0.1413E+01
  -2.863  0.4543E+00  0.1417E+01
  -2.853  0.4528E+00  0.1422E+01
  -2.843  0.4513E+00  0.1426E+01
  -2.833  0.4498E+00  0.1431E+01
  -2.823  0.4484E+00  0.1435E+01
  -2.813  0.4469E+00  0.1440E+01
  -2.803  0.4455E+00  0.1444E+01
  -2.793  0.4441E+00  0.1449E+01
  -2.783  0.4427E+00  0.1453E+01
  -2.773  0.4414E+00  0.1457E+01
  -2.763  0.4400E+00  0.1462E+01
  -2.753  0.4387E+00  0.1466E+01
  -2.743  0.4374E+00  0.1471E+01
  -2.733  0.4362E+00  0.1475E+01
  -2.723  0.4350E+00  0.1479E+01
  -2.713  0.4338E+00  0.1484E+01
  -2.703  0.4327E+00  0.1488E+01
  -2.693  0.4316E+00  0.1492E+01
  -2.683  0.4306E+00  0.1497E+01
  -2.673  0.4296E+00  0.1501E+01
  -2.663  0.4286E+00  0.1505E+01
  -2.653  0.4277E+00  0.1509E+01
  -2.643  0.4268E+00  0.1514E+01
  -2.633  0.4260E+00  0.1518E+01
  -2.623  0.4253E+00  0.1522E+01
  -2.613  0.4246E+00  0.1527E+01
  -2.603  0.4240E+00  0.1531E+01
  -2.593  0.4234E+00  0.1535E+01
  -2.583  0.4229E+00  0.1539E+01
  -2.573  0.4224E+00  0.1543E+01
  -2.563  0.4221E+00  0.1548E+01
  -2.553  0.4217E+00  0.1552E+01
  -2.543  0.4215E+00  0.1556E+01
  -2.533  0.4213E+00  0.1560E+01
  -2.523  0.4212E+00  0.1565E+01
  -2.513  0.4212E+00  0.1569E+01
  -2.503  0.4212E+00  0.1573E+01
  -2.493  0.4213E+00  0.1577E+01
  -2.483  0.4215E+00  0.1581E+01
  -2.473  0.4217E+00  0.1586E+01
  -2.463  0.4220E+00  0.1590E+01
  -2.453  0.4224E+00  0.1594E+01
  -2.443  0.4229E+00  0.1598E+01
  -2.433  0.4235E+00  0.1603E+01
  -2.423  0.4241E+00  0.1607E+01
  -2.413  0.4248E+00  0.1611E+01
  -2.403  0.4256E+00  0.1615E+01
  -2.393  0.4265E+00  0.1620E+01
  -2.383  0.4274E+00  0.1624E+01
  -2.373  0.4284E+00  0.1628E+01
  -2.363  0.4295E+00  0.1632E+01
  -2.353  0.4307E+00  0.1637E+01
  -2.343  0.4319E+00  0.1641E+01
  -2.333  0.4332E+00  0.1645E+01
  -2.323  0.4346E+00  0.1650E+01
  -2.313  0.4360E+00  0.1654E+01
  -2.303  0.4376E+00  0.1658E+01
  -2.293  0.4392E+00  0.1663E+01
  -2.283  0.4408E+00  0.1667E+01
  -2.273  0.4425E+00  0.1672E+01
  -2.263  0.4443E+00  0.1676E+01
  -2.253  0.4462E+00  0.1681E+01
  -2.243  0.4481E+00  0.1685E+01
  -2.233  0.4501E+00  0.1690E+01
  -2.223  0.4521E+00  0.1694E+01
  -2.213  0.4542E+00  0.1699E+01
  -2.203  0.4563E+00  0.1703E+01
  -2.193  0.4585E+00  0.1708E+01
  -2.183  0.4607E+00  0.1712E+01
  -2.173  0.4630E+00  0.1717E+01
  -2.163  0.4653E+00  0.1722E+01
  -2.153  0.4676E+00  0.1726E+01
  -2.143  0.4700E+00  0.1731E+01
  -2.133  0.4724E+00  0.1736E+01
  -2.123  0.4748E+00  0.1740E+01
  -2.113  0.4773E+00  0.1745E+01
  -2.103  0.4797E+00  0.1750E+01
  -2.093  0.4822E+00  0.1755E+01
  -2.083  0.4847E+00  0.1760E+01
  -2.073  0.4872E+00  0.1765E+01
  -2.063  0.4898E+00  0.1769E+01
  -2.053  0.4923E+00  0.1774E+01
  -2.043  0.4948E+00  0.1779E+01
  -2.033  0.4973E+00  0.1784E+01
  -2.023  0.4998E+00  0.1789E+01
  -2.013  0.5023E+00  0.1794E+01
  -2.003  0.5048E+00  0.1799E+01
  -1.993  0.5072E+00  0.1804E+01
  -1.983  0.5096E+00  0.1810E+01
  -1.973  0.5120E+00  0.1815E+01
  -1.963  0.5144E+00  0.1820E+01
  -1.953  0.5167E+00  0.1825E+01
  -1.943  0.5190E+00  0.1830E+01
  -1.933  0.5212E+00  0.1835E+01
  -1.923  0.5234E+00  0.1841E+01
  -1.913  0.5255E+00  0.1846E+01
  -1.903  0.5276E+00  0.1851E+01
  -1.893  0.5296E+00  0.1856E+01
  -1.883  0.5315E+00  0.1862E+01
  -1.873  0.5334E+00  0.1867E+01
  -1.863  0.5352E+00  0.1872E+01
  -1.853  0.5369E+00  0.1878E+01
  -1.843  0.5385E+00  0.1883E+01
  -1.833  0.5401E+00  0.1889E+01
  -1.823  0.5416E+00  0.1894E+01
  -1.813  0.5430E+00  0.1899E+01
  -1.803  0.5442E+00  0.1905E+01
  -1.793  0.5454E+00  0.1910E+01
  -1.783  0.5465E+00  0.1916E+01
  -1.773  0.5475E+00  0.1921E+01
  -1.763  0.5484E+00  0.1927E+01
  -1.753  0.5492E+00  0.1932E+01
  -1.743  0.5499E+00  0.1938E+01
  -1.733  0.5504E+00  0.1943E+01
  -1.723  0.5509E+00  0.1949E+01
  -1.713  0.5512E+00  0.1954E+01
  -1.703  0.5515E+00  0.1960E+01
  -1.693  0.5516E+00  0.1965E+01
  -1.683  0.5516E+00  0.1971E+01
  -1.673  0.5515E+00  0.1976E+01
  -1.663  0.5512E+00  0.1982E+01
  -1.653  0.5509E+00  0.1987E+01
  -1.643  0.5504E+00  0.1993E+01
  -1.633  0.5498E+00  0.1998E+01
  -1.623  0.5491E+00  0.2004E+01
  -1.613  0.5483E+00  0.2009E+01
  -1.603  0.5473E+00  0.2015E+01
  -1.593  0.5463E+00  0.2020E+01
  -1.583  0.5451E+00  0.2026E+01
  -1.573  0.5438E+00  0.2031E+01
  -1.563  0.5424E+00  0.2037E+01
  -1.553  0.5409E+00  0.2042E+01
  -1.543  0.5393E+00  0.2047E+01
  -1.533  0.5376E+00  0.2053E+01
  -1.523  0.5357E+00  0.2058E+01
  -1.513  0.5338E+00  0.2063E+01
  -1.503  0.5318E+00  0.2069E+01
  -1.493  0.5296E+00  0.2074E+01
  -1.483  0.5274E+00  0.2079E+01
  -1.473  0.5251E+00  0.2085E+01
  -1.463  0.5227E+00  0.2090E+01
  -1.453  0.5202E+00  0.2095E+01
  -1.443  0.5177E+00  0.2100E+01
  -1.433  0.5151E+00  0.2105E+01
  -1.423  0.5124E+00  0.2110E+01
  -1.413  0.5096E+00  0.2116E+01
  -1.403  0.5068E+00  0.2121E+01
  -1.393  0.5039E+00  0.2126E+01
  -1.383  0.5010E+00  0.2131E+01
  -1.373  0.4980E+00  0.2136E+01
  -1.363  0.4950E+00  0.2141E+01
  -1.353  0.4920E+00  0.2146E+01
  -1.343  0.4889E+00  0.2150E+01
  -1.333  0.4858E+00  0.2155E+01
  -1.323  0.4827E+00  0.2160E+01
  -1.313  0.4795E+00  0.2165E+01
  -1.303  0.4764E+00  0.2170E+01
  -1.293  0.4733E+00  0.2174E+01
  -1.283  0.4701E+00  0.2179E+01
  -1.273  0.4670E+00  0.2184E+01
  -1.263  0.4639E+00  0.2188E+01
  -1.253  0.4608E+00  0.2193E+01
  -1.243  0.4577E+00  0.2198E+01
  -1.233  0.4547E+00  0.2202E+01
  -1.223  0.4517E+00  0.2207E+01
  -1.213  0.4488E+00  0.2211E+01
  -1.203  0.4459E+00  0.2216E+01
  -1.193  0.4431E+00  0.2220E+01
  -1.183  0.4403E+00  0.2224E+01
  -1.173  0.4376E+00  0.2229E+01
  -1.163  0.4350E+00  0.2233E+01
  -1.153  0.4324E+00  0.2238E+01
  -1.143  0.4300E+00  0.2242E+01
  -1.133  0.4276E+00  0.2246E+01
  -1.123  0.4253E+00  0.2250E+01
  -1.113  0.4232E+00  0.2255E+01
  -1.103  0.4211E+00  0.2259E+01
  -1.093  0.4191E+00  0.2263E+01
  -1.083  0.4173E+00  0.2267E+01
  -1.073  0.4156E+00  0.2271E+01
  -1.063  0.4140E+00  0.2275E+01
  -1.053  0.4125E+00  0.2280E+01
  -1.043  0.4112E+00  0.2284E+01
  -1.033  0.4100E+00  0.2288E+01
  -1.023  0.4089E+00  0.2292E+01
  -1.013  0.4080E+00  0.2296E+01
  -1.003  0.4072E+00  0.2300E+01
  -0.993  0.4066E+00  0.2304E+01
  -0.983  0.4061E+00  0.2308E+01
  -0.973  0.4058E+00  0.2312E+01
  -0.963  0.4056E+00  0.2316E+01
  -0.953  0.4056E+00  0.2320E+01
  -0.943  0.4058E+00  0.2324E+01
  -0.933  0.4061E+00  0.2328E+01
  -0.923  0.4066E+00  0.2333E+01
  -0.913  0.4072E+00  0.2337E+01
  -0.903  0.4080E+00  0.2341E+01
  -0.893  0.4090E+00  0.2345E+01
  -0.883  0.4101E+00  0.2349E+01
  -0.873  0.4115E+00  0.2353E+01
  -0.863  0.4129E+00  0.2357E+01
  -0.853  0.4146E+00  0.2361E+01
  -0.843  0.4164E+00  0.2365E+01
  -0.833  0.4183E+00  0.2370E+01
  -0.823  0.4204E+00  0.2374E+01
  -0.813  0.4227E+00  0.2378E+01
  -0.803  0.4251E+00  0.2382E+01
  -0.793  0.4277E+00  0.2387E+01
  -0.783  0.4305E+00  0.2391E+01
  -0.773  0.4334E+00  0.2395E+01
  -0.763  0.4364E+00  0.2400E+01
  -0.753  0.4396E+00  0.2404E+01
  -0.743  0.4430E+00  0.2408E+01
  -0.733  0.4464E+00  0.2413E+01
  -0.723  0.4500E+00  0.2417E+01
  -0.713  0.4538E+00  0.2422E+01
  -0.703  0.4576E+00  0.2426E+01
  -0.693  0.4616E+00  0.2431E+01
  -0.683  0.4657E+00  0.2436E+01
  -0.673  0.4699E+00  0.2440E+01
  -0.663  0.4743E+00  0.2445E+01
  -0.653  0.4787E+00  0.2450E+01
  -0.643  0.4832E+00  0.2455E+01
  -0.633  0.4878E+00  0.2460E+01
  -0.623  0.4925E+00  0.2465E+01
  -0.613  0.4973E+00  0.2470E+01
  -0.603  0.5022E+00  0.2475E+01
  -0.593  0.5071E+00  0.2480E+01
  -0.583  0.5121E+00  0.2485E+01
  -0.573  0.5172E+00  0.2490E+01
  -0.563  0.5223E+00  0.2495E+01
  -0.553  0.5275E+00  0.2500E+01
  -0.543  0.5327E+00  0.2506E+01
  -0.533  0.5379E+00  0.2511E+01
  -0.523  0.5432E+00  0.2517E+01
  -0.513  0.5484E+00  0.2522E+01
  -0.503  0.5538E+00  0.2528E+01
  -0.493  0.5591E+00  0.2533E+01
  -0.483  0.5644E+00  0.2539E+01
  -0.473  0.5697E+00  0.2545E+01
  -0.463  0.5750E+00  0.2550E+01
  -0.453  0.5803E+00  0.2556E+01
  -0.443  0.5856E+00  0.2562E+01
  -0.433  0.5908E+00  0.2568E+01
  -0.423  0.5960E+00  0.2574E+01
  -0.413  0.6012E+00  0.2580E+01
  -0.403  0.6063E+00  0.2586E+01
  -0.393  0.6114E+00  0.2592E+01
  -0.383  0.6164E+00  0.2598E+01
  -0.373  0.6214E+00  0.2604E+01
  -0.363  0.6262E+00  0.2611E+01
  -0.353  0.6311E+00  0.2617E+01
  -0.343  0.6358E+00  0.2623E+01
  -0.333  0.6405E+00  0.2630E+01
  -0.323  0.6450E+00  0.2636E+01
  -0.313  0.6495E+00  0.2643E+01
  -0.303  0.6539E+00  0.2649E+01
  -0.293  0.6582E+00  0.2656E+01
  -0.283  0.6624E+00  0.2662E+01
  -0.273  0.6664E+00  0.2669E+01
  -0.263  0.6704E+00  0.2676E+01
  -0.253  0.6742E+00  0.2683E+01
  -0.243  0.6780E+00  0.2689E+01
  -0.233  0.6816E+00  0.2696E+01
  -0.223  0.6850E+00  0.2703E+01
  -0.213  0.6884E+00  0.2710E+01
  -0.203  0.6916E+00  0.2717E+01
  -0.193  0.6947E+00  0.2724E+01
  -0.183  0.6977E+00  0.2731E+01
  -0.173  0.7005E+00  0.2738E+01
  -0.163  0.7032E+00  0.2745E+01
  -0.153  0.7057E+00  0.2752E+01
  -0.143  0.7081E+00  0.2759E+01
  -0.133  0.7104E+00  0.2766E+01
  -0.123  0.7125E+00  0.2773E+01
  -0.113  0.7144E+00  0.2780E+01
  -0.103  0.7163E+00  0.2787E+01
  -0.093  0.7180E+00  0.2795E+01
  -0.083  0.7195E+00  0.2802E+01
  -0.073  0.7209E+00  0.2809E+01
  -0.063  0.7222E+00  0.2816E+01
  -0.053  0.7233E+00  0.2823E+01
  -0.043  0.7243E+00  0.2831E+01
  -0.033  0.7251E+00  0.2838E+01
  -0.023  0.7258E+00  0.2845E+01
  -0.013  0.7264E+00  0.2852E+01
  -0.003  0.7268E+00  0.2860E+01
   0.007  0.7271E+00  0.2867E+01
   0.017  0.7273E+00  0.2874E+01
   0.027  0.7273E+00  0.2882E+01
   0.037  0.7272E+00  0.2889E+01
   0.047  0.7270E+00  0.2896E+01
   0.057  0.7267E+00  0.2903E+01
   0.067  0.7262E+00  0.2911E+01
   0.077  0.7257E+00  0.2918E+01
   0.087  0.7250E+00  0.2925E+01
   0.097  0.7242E+00  0.2932E+01
   0.107  0.7233E+00  0.2940E+01
   0.117  0.7223E+00  0.2947E+01
   0.127  0.7212E+00  0.2954E+01
   0.137  0.7200E+00  0.2961E+01
   0.147  0.7187E+00  0.2968E+01
   0.157  0.7174E+00  0.2976E+01
   0.167  0.7159E+00  0.2983E+01
   0.177  0.7144E+00  0.2990E+01
   0.187  0.7128E+00  0.2997E+01
   0.197  0.7111E+00  0.3004E+01
   0.207  0.7093E+00  0.3011E+01
   0.217  0.7075E+00  0.3018E+01
   0.227  0.7056E+00  0.3025E+01
   0.237  0.7037E+00  0.3032E+01
   0.247  0.7017E+00  0.3039E+01
   0.257  0.6997E+00  0.3046E+01
   0.267  0.6976E+00  0.3053E+01
   0.277  0.6955E+00  0.3060E+01
   0.287  0.6933E+00  0.3067E+01
   0.297  0.6911E+00  0.3074E+01
   0.307  0.6889E+00  0.3081E+01
   0.317  0.6867E+00  0.3088E+01
   0.327  0.6844E+00  0.3095E+01
   0.337  0.6821E+00  0.3102E+01
   0.347  0.6798E+00  0.3108E+01
   0.357  0.6775E+00  0.3115E+01
   0.367  0.6752E+00  0.3122E+01
   0.377  0.6729E+00  0.3129E+01
   0.387  0.6705E+00  0.3135E+01
   0.397  0.6682E+00  0.3142E+01
   0.407  0.6659E+00  0.3149E+01
   0.417  0.6636E+00  0.3155E+01
   0.427  0.6613E+00  0.3162E+01
   0.437  0.6590E+00  0.3169E+01
   0.447  0.6567E+00  0.3175E+01
   0.457  0.6545E+00  0.3182E+01
   0.467  0.6523E+00  0.3188E+01
   0.477  0.6501E+00  0.3195E+01
   0.487  0.6479E+00  0.3201E+01
   0.497  0.6457E+00  0.3208E+01
   0.507  0.6436E+00  0.3214E+01
   0.517  0.6415E+00  0.3220E+01
   0.527  0.6395E+00  0.3227E+01
   0.537  0.6375E+00  0.3233E+01
   0.547  0.6355E+00  0.3240E+01
   0.557  0.6335E+00  0.3246E+01
   0.567  0.6316E+00  0.3252E+01
   0.577  0.6298E+00  0.3259E+01
   0.587  0.6279E+00  0.3265E+01
   0.597  0.6262E+00  0.3271E+01
   0.607  0.6244E+00  0.3277E+01
   0.617  0.6227E+00  0.3284E+01
   0.627  0.6211E+00  0.3290E+01
   0.637  0.6195E+00  0.3296E+01
   0.647  0.6179E+00  0.3302E+01
   0.657  0.6164E+00  0.3308E+01
   0.667  0.6149E+00  0.3314E+01
   0.677  0.6135E+00  0.3321E+01
   0.687  0.6121E+00  0.3327E+01
   0.697  0.6107E+00  0.3333E+01
   0.707  0.6094E+00  0.3339E+01
   0.717  0.6082E+00  0.3345E+01
   0.727  0.6070E+00  0.3351E+01
   0.737  0.6058E+00  0.3357E+01
   0.747  0.6047E+00  0.3363E+01
   0.757  0.6036E+00  0.3369E+01
   0.767  0.6025E+00  0.3375E+01
   0.777  0.6015E+00  0.3381E+01
   0.787  0.6005E+00  0.3387E+01
   0.797  0.5996E+00  0.3393E+01
   0.807  0.5987E+00  0.3399E+01
   0.817  0.5978E+00  0.3405E+01
   0.827  0.5970E+00  0.3411E+01
   0.837  0.5962E+00  0.3417E+01
   0.847  0.5954E+00  0.3423E+01
   0.857  0.5947E+00  0.3429E+01
   0.867  0.5940E+00  0.3435E+01
   0.877  0.5933E+00  0.3441E+01
   0.887  0.5926E+00  0.3447E+01
   0.897  0.5920E+00  0.3453E+01
   0.907  0.5914E+00  0.3459E+01
   0.917  0.5908E+00  0.3465E+01
   0.927  0.5902E+00  0.3470E+01
   0.937  0.5896E+00  0.3476E+01
   0.947  0.5891E+00  0.3482E+01
   0.957  0.5886E+00  0.3488E+01
   0.967  0.5881E+00  0.3494E+01
   0.977  0.5876E+00  0.3500E+01
   0.987  0.5871E+00  0.3506E+01
   0.997  0.5867E+00  0.3512E+01
   1.007  0.5862E+00  0.3518E+01
   1.017  0.5858E+00  0.3523E+01
   1.027  0.5853E+00  0.3529E+01
   1.037  0.5849E+00  0.3535E+01
   1.047  0.5845E+00  0.3541E+01
   1.057  0.5841E+00  0.3547E+01
   1.067  0.5837E+00  0.3553E+01
   1.077  0.5832E+00  0.3558E+01
   1.087  0.5828E+00  0.3564E+01
   1.097  0.5824E+00  0.3570E+01
   1.107  0.5820E+00  0.3576E+01
   1.117  0.5816E+00  0.3582E+01
   1.127  0.5812E+00  0.3588E+01
   1.137  0.5808E+00  0.3593E+01
   1.147  0.5804E+00  0.3599E+01
   1.157  0.5800E+00  0.3605E+01
   1.167  0.5795E+00  0.3611E+01
   1.177  0.5791E+00  0.3617E+01
   1.187  0.5787E+00  0.3622E+01
   1.197  0.5783E+00  0.3628E+01
   1.207  0.5778E+00  0.3634E+01
   1.217  0.5774E+00  0.3640E+01
   1.227  0.5769E+00  0.3645E+01
   1.237  0.5764E+00  0.3651E+01
   1.247  0.5760E+00  0.3657E+01
   1.257  0.5755E+00  0.3663E+01
   1.267  0.5750E+00  0.3668E+01
   1.277  0.5745E+00  0.3674E+01
   1.287  0.5740E+00  0.3680E+01
   1.297  0.5735E+00  0.3686E+01
   1.307  0.5730E+00  0.3691E+01
   1.317  0.5725E+00  0.3697E+01
   1.327  0.5719E+00  0.3703E+01
   1.337  0.5714E+00  0.3709E+01
   1.347  0.5708E+00  0.3714E+01
   1.357  0.5702E+00  0.3720E+01
   1.367  0.5697E+00  0.3726E+01
   1.377  0.5691E+00  0.3731E+01
   1.387  0.5685E+00  0.3737E+01
   1.397  0.5679E+00  0.3743E+01
   1.407  0.5673E+00  0.3748E+01
   1.417  0.5666E+00  0.3754E+01
   1.427  0.5660E+00  0.3760E+01
   1.437  0.5654E+00  0.3765E+01
   1.447  0.5647E+00  0.3771E+01
   1.457  0.5641E+00  0.3777E+01
   1.467  0.5634E+00  0.3782E+01
   1.477  0.5627E+00  0.3788E+01
   1.487  0.5620E+00  0.3794E+01
   1.497  0.5613E+00  0.3799E+01
   1.507  0.5606E+00  0.3805E+01
   1.517  0.5599E+00  0.3810E+01
   1.527  0.5592E+00  0.3816E+01
   1.537  0.5584E+00  0.3822E+01
   1.547  0.5577E+00  0.3827E+01
   1.557  0.5569E+00  0.3833E+01
   1.567  0.5562E+00  0.3838E+01
   1.577  0.5554E+00  0.3844E+01
   1.587  0.5546E+00  0.3849E+01
   1.597  0.5538E+00  0.3855E+01
   1.607  0.5530E+00  0.3860E+01
   1.617  0.5522E+00  0.3866E+01
   1.627  0.5514E+00  0.3871E+01
   1.637  0.5505E+00  0.3877E+01
   1.647  0.5497E+00  0.3882E+01
   1.657  0.5488E+00  0.3888E+01
   1.667  0.5480E+00  0.3893E+01
   1.677  0.5471E+00  0.3899E+01
   1.687  0.5462E+00  0.3904E+01
   1.697  0.5453E+00  0.3910E+01
   1.707  0.5444E+00  0.3915E+01
   1.717  0.5435E+00  0.3921E+01
   1.727  0.5426E+00  0.3926E+01
   1.737  0.5417E+00  0.3932E+01
   1.747  0.5407E+00  0.3937E+01
   1.757  0.5398E+00  0.3942E+01
   1.767  0.5388E+00  0.3948E+01
   1.777  0.5378E+00  0.3953E+01
   1.787  0.5369E+00  0.3958E+01
   1.797  0.5359E+00  0.3964E+01
   1.807  0.5349E+00  0.3969E+01
   1.817  0.5339E+00  0.3974E+01
   1.827  0.5329E+00  0.3980E+01
   1.837  0.5319E+00  0.3985E+01
   1.847  0.5309E+00  0.3990E+01
   1.857  0.5299E+00  0.3996E+01
   1.867  0.5289E+00  0.4001E+01
   1.877  0.5278E+00  0.4006E+01
   1.887  0.5268E+00  0.4012E+01
   1.897  0.5258E+00  0.4017E+01
   1.907  0.5247E+00  0.4022E+01
   1.917  0.5237E+00  0.4027E+01
   1.927  0.5227E+00  0.4033E+01
   1.937  0.5216E+00  0.4038E+01
   1.947  0.5206E+00  0.4043E+01
   1.957  0.5196E+00  0.4048E+01
   1.967  0.5186E+00  0.4053E+01
   1.977  0.5175E+00  0.4059E+01
   1.987  0.5165E+00  0.4064E+01
   1.997  0.5155E+00  0.4069E+01
   2.007  0.5145E+00  0.4074E+01
   2.017  0.5136E+00  0.4079E+01
   2.027  0.5126E+00  0.4084E+01
   2.037  0.5116E+00  0.4089E+01
   2.047  0.5107E+00  0.4094E+01
   2.057  0.5098E+00  0.4100E+01
   2.067  0.5089E+00  0.4105E+01
   2.077  0.5080E+00  0.4110E+01
   2.087  0.5071E+00  0.4115E+01
   2.097  0.5063E+00  0.4120E+01
   2.107  0.5055E+00  0.4125E+01
   2.117  0.5047E+00  0.4130E+01
   2.127  0.5039E+00  0.4135E+01
   2.137  0.5032E+00  0.4140E+01
   2.147  0.5025E+00  0.4145E+01
   2.157  0.5019E+00  0.4150E+01
   2.167  0.5012E+00  0.4155E+01
   2.177  0.5007E+00  0.4160E+01
   2.187  0.5001E+00  0.4165E+01
   2.197  0.4996E+00  0.4170E+01
   2.207  0.4992E+00  0.4175E+01
   2.217  0.4988E+00  0.4180E+01
   2.227  0.4984E+00  0.4185E+01
   2.237  0.4981E+00  0.4190E+01
   2.247  0.4979E+00  0.4195E+01
   2.257  0.4977E+00  0.4200E+01
   2.267  0.4975E+00  0.4205E+01
   2.277  0.4975E+00  0.4210E+01
   2.287  0.4974E+00  0.4215E+01
   2.297  0.4975E+00  0.4220E+01
   2.307  0.4976E+00  0.4225E+01
   2.317  0.4978E+00  0.4230E+01
   2.327  0.4980E+00  0.4235E+01
   2.337  0.4984E+00  0.4240E+01
   2.347  0.4987E+00  0.4245E+01
   2.357  0.4992E+00  0.4250E+01
   2.367  0.4998E+00  0.4255E+01
   2.377  0.5004E+00  0.4260E+01
   2.387  0.5011E+00  0.4265E+01
   2.397  0.5018E+00  0.4270E+01
   2.407  0.5027E+00  0.4275E+01
   2.417  0.5036E+00  0.4280E+01
   2.427  0.5047E+00  0.4285E+01
   2.437  0.5058E+00  0.4290E+01
   2.447  0.5069E+00  0.4295E+01
   2.457  0.5082E+00  0.4300E+01
   2.467  0.5096E+00  0.4305E+01
   2.477  0.5110E+00  0.4310E+01
   2.487  0.5126E+00  0.4316E+01
   2.497  0.5142E+00  0.4321E+01
   2.507  0.5159E+00  0.4326E+01
   2.517  0.5177E+00  0.4331E+01
   2.527  0.5196E+00  0.4336E+01
   2.537  0.5216E+00  0.4341E+01
   2.547  0.5236E+00  0.4347E+01
   2.557  0.5258E+00  0.4352E+01
   2.567  0.5280E+00  0.4357E+01
   2.577  0.5304E+00  0.4362E+01
   2.587  0.5328E+00  0.4368E+01
   2.597  0.5353E+00  0.4373E+01
   2.607  0.5379E+00  0.4379E+01
   2.617  0.5406E+00  0.4384E+01
   2.627  0.5433E+00  0.4389E+01
   2.637  0.5462E+00  0.4395E+01
   2.647  0.5491E+00  0.4400E+01
   2.657  0.5521E+00  0.4406E+01
   2.667  0.5551E+00  0.4411E+01
   2.677  0.5583E+00  0.4417E+01
   2.687  0.5615E+00  0.4423E+01
   2.697  0.5648E+00  0.4428E+01
   2.707  0.5682E+00  0.4434E+01
   2.717  0.5716E+00  0.4440E+01
   2.727  0.5751E+00  0.4445E+01
   2.737  0.5787E+00  0.4451E+01
   2.747  0.5823E+00  0.4457E+01
   2.757  0.5860E+00  0.4463E+01
   2.767  0.5897E+00  0.4469E+01
   2.777  0.5935E+00  0.4475E+01
   2.787  0.5973E+00  0.4481E+01
   2.797  0.6012E+00  0.4487E+01
   2.807  0.6052E+00  0.4493E+01
   2.817  0.6091E+00  0.4499E+01
   2.827  0.6131E+00  0.4505E+01
   2.837  0.6172E+00  0.4511E+01
   2.847  0.6212E+00  0.4517E+01
   2.857  0.6253E+00  0.4524E+01
   2.867  0.6295E+00  0.4530E+01
   2.877  0.6336E+00  0.4536E+01
   2.887  0.6378E+00  0.4543E+01
   2.897  0.6420E+00  0.4549E+01
   2.907  0.6461E+00  0.4555E+01
   2.917  0.6503E+00  0.4562E+01
   2.927  0.6545E+00  0.4569E+01
   2.937  0.6587E+00  0.4575E+01
   2.947  0.6629E+00  0.4582E+01
   2.957  0.6671E+00  0.4588E+01
   2.967  0.6713E+00  0.4595E+01
   2.977  0.6754E+00  0.4602E+01
   2.987  0.6796E+00  0.4609E+01
   2.997  0.6837E+00  0.4616E+01
   3.007  0.6878E+00  0.4622E+01
   3.017  0.6918E+00  0.4629E+01
   3.027  0.6958E+00  0.4636E+01
   3.037  0.6998E+00  0.4643E+01
   3.047  0.7038E+00  0.4650E+01
   3.057  0.7076E+00  0.4657E+01
   3.067  0.7115E+00  0.4664E+01
   3.077  0.7153E+00  0.4672E+01
   3.087  0.7190E+00  0.4679E+01
   3.097  0.7227E+00  0.4686E+01
   3.107  0.7263E+00  0.4693E+01
   3.117  0.7299E+00  0.4701E+01
   3.127  0.7334E+00  0.4708E+01
   3.137  0.7368E+00  0.4715E+01
   3.147  0.7401E+00  0.4723E+01
   3.157  0.7434E+00  0.4730E+01
   3.167  0.7466E+00  0.4738E+01
   3.177  0.7497E+00  0.4745E+01
   3.187  0.7527E+00  0.4753E+01
   3.197  0.7556E+00  0.4760E+01
   3.207  0.7584E+00  0.4768E+01
   3.217  0.7612E+00  0.4775E+01
   3.227  0.7638E+00  0.4783E+01
   3.237  0.7664E+00  0.4791E+01
   3.247  0.7689E+00  0.4798E+01
   3.257  0.7712E+00  0.4806E+01
   3.267  0.7735E+00  0.4814E+01
   3.277  0.7756E+00  0.4822E+01
   3.287  0.7777E+00  0.4829E+01
   3.297  0.7796E+00  0.4837E+01
   3.307  0.7814E+00  0.4845E+01
   3.317  0.7832E+00  0.4853E+01
   3.327  0.7848E+00  0.4861E+01
   3.337  0.7863E+00  0.4869E+01
   3.347  0.7877E+00  0.4876E+01
   3.357  0.7890E+00  0.4884E+01
   3.367  0.7902E+00  0.4892E+01
   3.377  0.7913E+00  0.4900E+01
   3.387  0.7923E+00  0.4908E+01
   3.397  0.7931E+00  0.4916E+01
   3.407  0.7939E+00  0.4924E+01
   3.417  0.7945E+00  0.4932E+01
   3.427  0.7951E+00  0.4940E+01
   3.437  0.7955E+00  0.4948E+01
   3.447  0.7959E+00  0.4956E+01
   3.457  0.7961E+00  0.4964E+01
   3.467  0.7962E+00  0.4972E+01
   3.477  0.7963E+00  0.4980E+01
   3.487  0.7962E+00  0.4988E+01
   3.497  0.7961E+00  0.4996E+01
   3.507  0.7958E+00  0.5003E+01
   3.517  0.7955E+00  0.5011E+01
   3.527  0.7951E+00  0.5019E+01
   3.537  0.7946E+00  0.5027E+01
   3.547  0.7940E+00  0.5035E+01
   3.557  0.7934E+00  0.5043E+01
   3.567  0.7926E+00  0.5051E+01
   3.577  0.7918E+00  0.5059E+01
   3.587  0.7909E+00  0.5067E+01
   3.597  0.7900E+00  0.5075E+01
   3.607  0.7890E+00  0.5083E+01
   3.617  0.7880E+00  0.5091E+01
   3.627  0.7869E+00  0.5098E+01
   3.637  0.7857E+00  0.5106E+01
   3.647  0.7845E+00  0.5114E+01
   3.657  0.7833E+00  0.5122E+01
   3.667  0.7820E+00  0.5130E+01
   3.677  0.7807E+00  0.5138E+01
   3.687  0.7794E+00  0.5145E+01
   3.697  0.7780E+00  0.5153E+01
   3.707  0.7766E+00  0.5161E+01
   3.717  0.7753E+00  0.5169E+01
   3.727  0.7739E+00  0.5176E+01
   3.737  0.7725E+00  0.5184E+01
   3.747  0.7711E+00  0.5192E+01
   3.757  0.7697E+00  0.5200E+01
   3.767  0.7683E+00  0.5207E+01
   3.777  0.7669E+00  0.5215E+01
   3.787  0.7656E+00  0.5223E+01
   3.797  0.7642E+00  0.5230E+01
   3.807  0.7629E+00  0.5238E+01
   3.817  0.7617E+00  0.5246E+01
   3.827  0.7604E+00  0.5253E+01
   3.837  0.7593E+00  0.5261E+01
   3.847  0.7581E+00  0.5268E+01
   3.857  0.7570E+00  0.5276E+01
   3.867  0.7560E+00  0.5283E+01
   3.877  0.7550E+00  0.5291E+01
   3.887  0.7541E+00  0.5299E+01
   3.897  0.7532E+00  0.5306E+01
   3.907  0.7525E+00  0.5314E+01
   3.917  0.7518E+00  0.5321E+01
   3.927  0.7511E+00  0.5329E+01
   3.937  0.7506E+00  0.5336E+01
   3.947  0.7501E+00  0.5344E+01
   3.957  0.7497E+00  0.5351E+01
   3.967  0.7494E+00  0.5359E+01
   3.977  0.7492E+00  0.5366E+01
   3.987  0.7491E+00  0.5374E+01
   3.997  0.7491E+00  0.5381E+01
   4.007  0.7492E+00  0.5389E+01
   4.017  0.7494E+00  0.5396E+01
   4.027  0.7496E+00  0.5404E+01
   4.037  0.7500E+00  0.5411E+01
   4.047  0.7505E+00  0.5419E+01
   4.057  0.7511E+00  0.5426E+01
   4.067  0.7518E+00  0.5434E+01
   4.077  0.7526E+00  0.5441E+01
   4.087  0.7535E+00  0.5449E+01
   4.097  0.7545E+00  0.5456E+01
   4.107  0.7556E+00  0.5464E+01
   4.117  0.7568E+00  0.5471E+01
   4.127  0.7581E+00  0.5479E+01
   4.137  0.7595E+00  0.5486E+01
   4.147  0.7610E+00  0.5494E+01
   4.157  0.7626E+00  0.5502E+01
   4.167  0.7643E+00  0.5509E+01
   4.177  0.7661E+00  0.5517E+01
   4.187  0.7680E+00  0.5525E+01
   4.197  0.7700E+00  0.5532E+01
   4.207  0.7720E+00  0.5540E+01
   4.217  0.7742E+00  0.5548E+01
   4.227  0.7764E+00  0.5556E+01
   4.237  0.7787E+00  0.5563E+01
   4.247  0.7811E+00  0.5571E+01
   4.257  0.7835E+00  0.5579E+01
   4.267  0.7860E+00  0.5587E+01
   4.277  0.7885E+00  0.5595E+01
   4.287  0.7912E+00  0.5603E+01
   4.297  0.7938E+00  0.5611E+01
   4.307  0.7965E+00  0.5619E+01
   4.317  0.7993E+00  0.5627E+01
   4.327  0.8020E+00  0.5635E+01
   4.337  0.8049E+00  0.5643E+01
   4.347  0.8077E+00  0.5651E+01
   4.357  0.8106E+00  0.5659E+01
   4.367  0.8134E+00  0.5667E+01
   4.377  0.8163E+00  0.5675E+01
   4.387  0.8192E+00  0.5683E+01
   4.397  0.8221E+00  0.5692E+01
   4.407  0.8249E+00  0.5700E+01
   4.417  0.8278E+00  0.5708E+01
   4.427  0.8306E+00  0.5716E+01
   4.437  0.8334E+00  0.5725E+01
   4.447  0.8362E+00  0.5733E+01
   4.457  0.8389E+00  0.5742E+01
   4.467  0.8416E+00  0.5750E+01
   4.477  0.8443E+00  0.5758E+01
   4.487  0.8468E+00  0.5767E+01
   4.497  0.8494E+00  0.5775E+01
   4.507  0.8518E+00  0.5784E+01
   4.517  0.8542E+00  0.5792E+01
   4.527  0.8565E+00  0.5801E+01
   4.537  0.8587E+00  0.5810E+01
   4.547  0.8609E+00  0.5818E+01
   4.557  0.8629E+00  0.5827E+01
   4.567  0.8648E+00  0.5835E+01
   4.577  0.8667E+00  0.5844E+01
   4.587  0.8684E+00  0.5853E+01
   4.597  0.8700E+00  0.5861E+01
   4.607  0.8715E+00  0.5870E+01
   4.617  0.8729E+00  0.5879E+01
   4.627  0.8742E+00  0.5888E+01
   4.637  0.8753E+00  0.5896E+01
   4.647  0.8763E+00  0.5905E+01
   4.657  0.8772E+00  0.5914E+01
   4.667  0.8779E+00  0.5923E+01
   4.677  0.8785E+00  0.5932E+01
   4.687  0.8789E+00  0.5940E+01
   4.697  0.8792E+00  0.5949E+01
   4.707  0.8794E+00  0.5958E+01
   4.717  0.8794E+00  0.5967E+01
   4.727  0.8792E+00  0.5975E+01
   4.737  0.8789E+00  0.5984E+01
   4.747  0.8785E+00  0.5993E+01
   4.757  0.8779E+00  0.6002E+01
   4.767  0.8771E+00  0.6011E+01
   4.777  0.8762E+00  0.6019E+01
   4.787  0.8751E+00  0.6028E+01
   4.797  0.8739E+00  0.6037E+01
   4.807  0.8725E+00  0.6046E+01
   4.817  0.8710E+00  0.6054E+01
   4.827  0.8693E+00  0.6063E+01
   4.837  0.8675E+00  0.6072E+01
   4.847  0.8655E+00  0.6080E+01
   4.857  0.8634E+00  0.6089E+01
   4.867  0.8611E+00  0.6098E+01
   4.877  0.8587E+00  0.6106E+01
   4.887  0.8561E+00  0.6115E+01
   4.897  0.8535E+00  0.6123E+01
   4.907  0.8506E+00  0.6132E+01
   4.917  0.8477E+00  0.6140E+01
   4.927  0.8446E+00  0.6149E+01
   4.937  0.8414E+00  0.6157E+01
   4.947  0.8380E+00  0.6165E+01
   4.957  0.8346E+00  0.6174E+01
   4.967  0.8310E+00  0.6182E+01
   4.977  0.8273E+00  0.6190E+01
   4.987  0.8235E+00  0.6199E+01
   4.997  0.8196E+00  0.6207E+01
   5.007  0.8156E+00  0.6215E+01
   5.017  0.8116E+00  0.6223E+01
   5.027  0.8074E+00  0.6231E+01
   5.037  0.8031E+00  0.6239E+01
   5.047  0.7988E+00  0.6247E+01
   5.057  0.7944E+00  0.6255E+01
   5.067  0.7899E+00  0.6263E+01
   5.077  0.7854E+00  0.6271E+01
   5.087  0.7808E+00  0.6279E+01
   5.097  0.7762E+00  0.6286E+01
   5.107  0.7715E+00  0.6294E+01
   5.117  0.7668E+00  0.6302E+01
   5.127  0.7620E+00  0.6309E+01
   5.137  0.7572E+00  0.6317E+01
   5.147  0.7524E+00  0.6325E+01
   5.157  0.7475E+00  0.6332E+01
   5.167  0.7427E+00  0.6339E+01
   5.177  0.7378E+00  0.6347E+01
   5.187  0.7330E+00  0.6354E+01
   5.197  0.7281E+00  0.6361E+01
   5.207  0.7232E+00  0.6369E+01
   5.217  0.7184E+00  0.6376E+01
   5.227  0.7136E+00  0.6383E+01
   5.237  0.7088E+00  0.6390E+01
   5.247  0.7040E+00  0.6397E+01
   5.257  0.6992E+00  0.6404E+01
   5.267  0.6945E+00  0.6411E+01
   5.277  0.6899E+00  0.6418E+01
   5.287  0.6852E+00  0.6425E+01
   5.297  0.6807E+00  0.6432E+01
   5.307  0.6762E+00  0.6438E+01
   5.317  0.6717E+00  0.6445E+01
   5.327  0.6673E+00  0.6452E+01
   5.337  0.6630E+00  0.6458E+01
   5.347  0.6588E+00  0.6465E+01
   5.357  0.6546E+00  0.6472E+01
   5.367  0.6505E+00  0.6478E+01
   5.377  0.6465E+00  0.6485E+01
   5.387  0.6426E+00  0.6491E+01
   5.397  0.6388E+00  0.6497E+01
   5.407  0.6351E+00  0.6504E+01
   5.417  0.6315E+00  0.6510E+01
   5.427  0.6280E+00  0.6516E+01
   5.437  0.6246E+00  0.6523E+01
   5.447  0.6213E+00  0.6529E+01
   5.457  0.6181E+00  0.6535E+01
   5.467  0.6150E+00  0.6541E+01
   5.477  0.6121E+00  0.6547E+01
   5.487  0.6092E+00  0.6553E+01
   5.497  0.6065E+00  0.6559E+01
   5.507  0.6039E+00  0.6565E+01
   5.517  0.6015E+00  0.6571E+01
   5.527  0.5992E+00  0.6577E+01
   5.537  0.5970E+00  0.6583E+01
   5.547  0.5949E+00  0.6589E+01
   5.557  0.5930E+00  0.6595E+01
   5.567  0.5912E+00  0.6601E+01
   5.577  0.5896E+00  0.6607E+01
   5.587  0.5880E+00  0.6613E+01
   5.597  0.5867E+00  0.6619E+01
   5.607  0.5855E+00  0.6625E+01
   5.617  0.5844E+00  0.6630E+01
   5.627  0.5835E+00  0.6636E+01
   5.637  0.5827E+00  0.6642E+01
   5.647  0.5820E+00  0.6648E+01
   5.657  0.5816E+00  0.6654E+01
   5.667  0.5812E+00  0.6660E+01
   5.677  0.5810E+00  0.6665E+01
   5.687  0.5810E+00  0.6671E+01
   5.697  0.5811E+00  0.6677E+01
   5.707  0.5814E+00  0.6683E+01
   5.717  0.5818E+00  0.6689E+01
   5.727  0.5824E+00  0.6694E+01
   5.737  0.5831E+00  0.6700E+01
   5.747  0.5840E+00  0.6706E+01
   5.757  0.5851E+00  0.6712E+01
   5.767  0.5863E+00  0.6718E+01
   5.777  0.5876E+00  0.6724E+01
   5.787  0.5891E+00  0.6730E+01
   5.797  0.5907E+00  0.6736E+01
   5.807  0.5926E+00  0.6741E+01
   5.817  0.5945E+00  0.6747E+01
   5.827  0.5966E+00  0.6753E+01
   5.837  0.5989E+00  0.6759E+01
   5.847  0.6013E+00  0.6765E+01
   5.857  0.6038E+00  0.6771E+01
   5.867  0.6065E+00  0.6777E+01
   5.877  0.6094E+00  0.6784E+01
   5.887  0.6124E+00  0.6790E+01
   5.897  0.6155E+00  0.6796E+01
   5.907  0.6188E+00  0.6802E+01
   5.917  0.6222E+00  0.6808E+01
   5.927  0.6258E+00  0.6815E+01
   5.937  0.6295E+00  0.6821E+01
   5.947  0.6334E+00  0.6827E+01
   5.957  0.6373E+00  0.6834E+01
   5.967  0.6415E+00  0.6840E+01
   5.977  0.6457E+00  0.6846E+01
   5.987  0.6501E+00  0.6853E+01
   5.997  0.6546E+00  0.6859E+01
   6.007  0.6592E+00  0.6866E+01
   6.017  0.6640E+00  0.6873E+01
   6.027  0.6688E+00  0.6879E+01
   6.037  0.6738E+00  0.6886E+01
   6.047  0.6789E+00  0.6893E+01
   6.057  0.6841E+00  0.6900E+01
   6.067  0.6895E+00  0.6907E+01
   6.077  0.6949E+00  0.6914E+01
   6.087  0.7004E+00  0.6921E+01
   6.097  0.7060E+00  0.6928E+01
   6.107  0.7118E+00  0.6935E+01
   6.117  0.7176E+00  0.6942E+01
   6.127  0.7235E+00  0.6949E+01
   6.137  0.7294E+00  0.6956E+01
   6.147  0.7355E+00  0.6964E+01
   6.157  0.7416E+00  0.6971E+01
   6.167  0.7478E+00  0.6979E+01
   6.177  0.7541E+00  0.6986E+01
   6.187  0.7604E+00  0.6994E+01
   6.197  0.7668E+00  0.7002E+01
   6.207  0.7732E+00  0.7009E+01
   6.217  0.7797E+00  0.7017E+01
   6.227  0.7862E+00  0.7025E+01
   6.237  0.7928E+00  0.7033E+01
   6.247  0.7994E+00  0.7041E+01
   6.257  0.8060E+00  0.7049E+01
   6.267  0.8126E+00  0.7057E+01
   6.277  0.8193E+00  0.7065E+01
   6.287  0.8259E+00  0.7073E+01
   6.297  0.8326E+00  0.7082E+01
   6.307  0.8392E+00  0.7090E+01
   6.317  0.8458E+00  0.7099E+01
   6.327  0.8525E+00  0.7107E+01
   6.337  0.8591E+00  0.7116E+01
   6.347  0.8656E+00  0.7124E+01
   6.357  0.8722E+00  0.7133E+01
   6.367  0.8787E+00  0.7142E+01
   6.377  0.8851E+00  0.7151E+01
   6.387  0.8915E+00  0.7160E+01
   6.397  0.8978E+00  0.7169E+01
   6.407  0.9041E+00  0.7178E+01
   6.417  0.9103E+00  0.7187E+01
   6.427  0.9164E+00  0.7196E+01
   6.437  0.9225E+00  0.7205E+01
   6.447  0.9284E+00  0.7214E+01
   6.457  0.9343E+00  0.7224E+01
   6.467  0.9401E+00  0.7233E+01
   6.477  0.9457E+00  0.7243E+01
   6.487  0.9512E+00  0.7252E+01
   6.497  0.9567E+00  0.7262E+01
   6.507  0.9619E+00  0.7271E+01
   6.517  0.9671E+00  0.7281E+01
   6.527  0.9721E+00  0.7291E+01
   6.537  0.9770E+00  0.7301E+01
   6.547  0.9818E+00  0.7310E+01
   6.557  0.9864E+00  0.7320E+01
   6.567  0.9908E+00  0.7330E+01
   6.577  0.9951E+00  0.7340E+01
   6.587  0.9992E+00  0.7350E+01
   6.597  0.1003E+01  0.7360E+01
   6.607  0.1007E+01  0.7370E+01
   6.617  0.1010E+01  0.7380E+01
   6.627  0.1014E+01  0.7390E+01
   6.637  0.1017E+01  0.7401E+01
   6.647  0.1020E+01  0.7411E+01
   6.657  0.1023E+01  0.7421E+01
   6.667  0.1026E+01  0.7431E+01
   6.677  0.1028E+01  0.7442E+01
   6.687  0.1030E+01  0.7452E+01
   6.697  0.1032E+01  0.7462E+01
   6.707  0.1034E+01  0.7473E+01
   6.717  0.1036E+01  0.7483E+01
   6.727  0.1037E+01  0.7493E+01
   6.737  0.1039E+01  0.7504E+01
   6.747  0.1040E+01  0.7514E+01
   6.757  0.1041E+01  0.7524E+01
   6.767  0.1041E+01  0.7535E+01
   6.777  0.1042E+01  0.7545E+01
   6.787  0.1042E+01  0.7556E+01
   6.797  0.1042E+01  0.7566E+01
   6.807  0.1042E+01  0.7577E+01
   6.817  0.1041E+01  0.7587E+01
   6.827  0.1041E+01  0.7597E+01
   6.837  0.1040E+01  0.7608E+01
   6.847  0.1039E+01  0.7618E+01
   6.857  0.1038E+01  0.7629E+01
   6.867  0.1036E+01  0.7639E+01
   6.877  0.1035E+01  0.7649E+01
   6.887  0.1033E+01  0.7660E+01
   6.897  0.1031E+01  0.7670E+01
   6.907  0.1029E+01  0.7680E+01
   6.917  0.1027E+01  0.7690E+01
   6.927  0.1024E+01  0.7701E+01
   6.937  0.1021E+01  0.7711E+01
   6.947  0.1019E+01  0.7721E+01
   6.957  0.1016E+01  0.7731E+01
   6.967  0.1012E+01  0.7741E+01
   6.977  0.1009E+01  0.7751E+01
   6.987  0.1006E+01  0.7762E+01
   6.997  0.1002E+01  0.7772E+01
   7.007  0.9984E+00  0.7782E+01
   7.017  0.9945E+00  0.7791E+01
   7.027  0.9906E+00  0.7801E+01
   7.037  0.9865E+00  0.7811E+01
   7.047  0.9823E+00  0.7821E+01
   7.057  0.9780E+00  0.7831E+01
   7.067  0.9735E+00  0.7841E+01
   7.077  0.9690E+00  0.7850E+01
   7.087  0.9644E+00  0.7860E+01
   7.097  0.9598E+00  0.7869E+01
   7.107  0.9550E+00  0.7879E+01
   7.117  0.9502E+00  0.7889E+01
   7.127  0.9453E+00  0.7898E+01
   7.137  0.9403E+00  0.7907E+01
   7.147  0.9353E+00  0.7917E+01
   7.157  0.9303E+00  0.7926E+01
   7.167  0.9252E+00  0.7935E+01
   7.177  0.9201E+00  0.7945E+01
   7.187  0.9149E+00  0.7954E+01
   7.197  0.9098E+00  0.7963E+01
   7.207  0.9046E+00  0.7972E+01
   7.217  0.8994E+00  0.7981E+01
   7.227  0.8942E+00  0.7990E+01
   7.237  0.8890E+00  0.7999E+01
   7.247  0.8839E+00  0.8007E+01
   7.257  0.8787E+00  0.8016E+01
   7.267  0.8736E+00  0.8025E+01
   7.277  0.8684E+00  0.8034E+01
   7.287  0.8634E+00  0.8042E+01
   7.297  0.8583E+00  0.8051E+01
   7.307  0.8533E+00  0.8059E+01
   7.317  0.8484E+00  0.8068E+01
   7.327  0.8435E+00  0.8076E+01
   7.337  0.8386E+00  0.8085E+01
   7.347  0.8338E+00  0.8093E+01
   7.357  0.8291E+00  0.8101E+01
   7.367  0.8245E+00  0.8110E+01
   7.377  0.8199E+00  0.8118E+01
   7.387  0.8154E+00  0.8126E+01
   7.397  0.8110E+00  0.8134E+01
   7.407  0.8066E+00  0.8142E+01
   7.417  0.8024E+00  0.8150E+01
   7.427  0.7982E+00  0.8158E+01
   7.437  0.7941E+00  0.8166E+01
   7.447  0.7901E+00  0.8174E+01
   7.457  0.7863E+00  0.8182E+01
   7.467  0.7825E+00  0.8190E+01
   7.477  0.7788E+00  0.8197E+01
   7.487  0.7752E+00  0.8205E+01
   7.497  0.7718E+00  0.8213E+01
   7.507  0.7684E+00  0.8221E+01
   7.517  0.7651E+00  0.8228E+01
   7.527  0.7620E+00  0.8236E+01
   7.537  0.7590E+00  0.8243E+01
   7.547  0.7560E+00  0.8251E+01
   7.557  0.7532E+00  0.8259E+01
   7.567  0.7505E+00  0.8266E+01
   7.577  0.7480E+00  0.8274E+01
   7.587  0.7455E+00  0.8281E+01
   7.597  0.7431E+00  0.8288E+01
   7.607  0.7409E+00  0.8296E+01
   7.617  0.7387E+00  0.8303E+01
   7.627  0.7367E+00  0.8311E+01
   7.637  0.7348E+00  0.8318E+01
   7.647  0.7330E+00  0.8325E+01
   7.657  0.7313E+00  0.8333E+01
   7.667  0.7298E+00  0.8340E+01
   7.677  0.7283E+00  0.8347E+01
   7.687  0.7269E+00  0.8354E+01
   7.697  0.7257E+00  0.8362E+01
   7.707  0.7245E+00  0.8369E+01
   7.717  0.7235E+00  0.8376E+01
   7.727  0.7225E+00  0.8383E+01
   7.737  0.7217E+00  0.8391E+01
   7.747  0.7210E+00  0.8398E+01
   7.757  0.7203E+00  0.8405E+01
   7.767  0.7198E+00  0.8412E+01
   7.777  0.7193E+00  0.8419E+01
   7.787  0.7190E+00  0.8427E+01
   7.797  0.7187E+00  0.8434E+01
   7.807  0.7185E+00  0.8441E+01
   7.817  0.7184E+00  0.8448E+01
   7.827  0.7184E+00  0.8455E+01
   7.837  0.7185E+00  0.8463E+01
   7.847  0.7186E+00  0.8470E+01
   7.857  0.7189E+00  0.8477E+01
   7.867  0.7192E+00  0.8484E+01
   7.877  0.7195E+00  0.8491E+01
   7.887  0.7200E+00  0.8499E+01
   7.897  0.7205E+00  0.8506E+01
   7.907  0.7211E+00  0.8513E+01
   7.917  0.7218E+00  0.8520E+01
   7.927  0.7225E+00  0.8527E+01
   7.937  0.7232E+00  0.8535E+01
   7.947  0.7241E+00  0.8542E+01
   7.957  0.7249E+00  0.8549E+01
   7.967  0.7259E+00  0.8556E+01
   7.977  0.7269E+00  0.8564E+01
   7.987  0.7279E+00  0.8571E+01
   7.997  0.7290E+00  0.8578E+01
   8.007  0.7301E+00  0.8585E+01
   8.017  0.7313E+00  0.8593E+01
   8.027  0.7325E+00  0.8600E+01
   8.037  0.7337E+00  0.8607E+01
   8.047  0.7350E+00  0.8615E+01
   8.057  0.7363E+00  0.8622E+01
   8.067  0.7376E+00  0.8630E+01
   8.077  0.7390E+00  0.8637E+01
   8.087  0.7403E+00  0.8644E+01
   8.097  0.7417E+00  0.8652E+01
   8.107  0.7432E+00  0.8659E+01
   8.117  0.7446E+00  0.8667E+01
   8.127  0.7461E+00  0.8674E+01
   8.137  0.7475E+00  0.8682E+01
   8.147  0.7490E+00  0.8689E+01
   8.157  0.7505E+00  0.8697E+01
   8.167  0.7520E+00  0.8704E+01
   8.177  0.7535E+00  0.8712E+01
   8.187  0.7549E+00  0.8719E+01
   8.197  0.7564E+00  0.8727E+01
   8.207  0.7579E+00  0.8734E+01
   8.217  0.7594E+00  0.8742E+01
   8.227  0.7609E+00  0.8750E+01
   8.237  0.7623E+00  0.8757E+01
   8.247  0.7638E+00  0.8765E+01
   8.257  0.7652E+00  0.8772E+01
   8.267  0.7666E+00  0.8780E+01
   8.277  0.7680E+00  0.8788E+01
   8.287  0.7694E+00  0.8795E+01
   8.297  0.7707E+00  0.8803E+01
   8.307  0.7720E+00  0.8811E+01
   8.317  0.7733E+00  0.8819E+01
   8.327  0.7746E+00  0.8826E+01
   8.337  0.7758E+00  0.8834E+01
   8.347  0.7770E+00  0.8842E+01
   8.357  0.7782E+00  0.8850E+01
   8.367  0.7793E+00  0.8857E+01
   8.377  0.7804E+00  0.8865E+01
   8.387  0.7815E+00  0.8873E+01
   8.397  0.7825E+00  0.8881E+01
   8.407  0.7835E+00  0.8889E+01
   8.417  0.7844E+00  0.8897E+01
   8.427  0.7853E+00  0.8904E+01
   8.437  0.7862E+00  0.8912E+01
   8.447  0.7870E+00  0.8920E+01
   8.457  0.7877E+00  0.8928E+01
   8.467  0.7885E+00  0.8936E+01
   8.477  0.7891E+00  0.8944E+01
   8.487  0.7897E+00  0.8952E+01
   8.497  0.7903E+00  0.8960E+01
   8.507  0.7908E+00  0.8968E+01
   8.517  0.7913E+00  0.8975E+01
   8.527  0.7917E+00  0.8983E+01
   8.537  0.7921E+00  0.8991E+01
   8.547  0.7924E+00  0.8999E+01
   8.557  0.7927E+00  0.9007E+01
   8.567  0.7930E+00  0.9015E+01
   8.577  0.7932E+00  0.9023E+01
   8.587  0.7933E+00  0.9031E+01
   8.597  0.7934E+00  0.9039E+01
   8.607  0.7935E+00  0.9047E+01
   8.617  0.7935E+00  0.9055E+01
   8.627  0.7935E+00  0.9063E+01
   8.637  0.7934E+00  0.9071E+01
   8.647  0.7933E+00  0.9079E+01
   8.657  0.7932E+00  0.9086E+01
   8.667  0.7931E+00  0.9094E+01
   8.677  0.7929E+00  0.9102E+01
   8.687  0.7927E+00  0.9110E+01
   8.697  0.7925E+00  0.9118E+01
   8.707  0.7922E+00  0.9126E+01
   8.717  0.7919E+00  0.9134E+01
   8.727  0.7917E+00  0.9142E+01
   8.737  0.7914E+00  0.9150E+01
   8.747  0.7911E+00  0.9158E+01
   8.757  0.7907E+00  0.9166E+01
   8.767  0.7904E+00  0.9174E+01
   8.777  0.7901E+00  0.9181E+01
   8.787  0.7898E+00  0.9189E+01
   8.797  0.7895E+00  0.9197E+01
   8.807  0.7892E+00  0.9205E+01
   8.817  0.7890E+00  0.9213E+01
   8.827  0.7887E+00  0.9221E+01
   8.837  0.7885E+00  0.9229E+01
   8.847  0.7883E+00  0.9237E+01
   8.857  0.7882E+00  0.9245E+01
   8.867  0.7881E+00  0.9252E+01
   8.877  0.7880E+00  0.9260E+01
   8.887  0.7880E+00  0.9268E+01
   8.897  0.7880E+00  0.9276E+01
   8.907  0.7880E+00  0.9284E+01
   8.917  0.7882E+00  0.9292E+01
   8.927  0.7884E+00  0.9300E+01
   8.937  0.7886E+00  0.9308E+01
   8.947  0.7890E+00  0.9316E+01
   8.957  0.7894E+00  0.9323E+01
   8.967  0.7898E+00  0.9331E+01
   8.977  0.7904E+00  0.9339E+01
   8.987  0.7910E+00  0.9347E+01
   8.997  0.7918E+00  0.9355E+01
   9.007  0.7926E+00  0.9363E+01
   9.017  0.7935E+00  0.9371E+01
   9.027  0.7945E+00  0.9379E+01
   9.037  0.7957E+00  0.9387E+01
   9.047  0.7969E+00  0.9395E+01
   9.057  0.7982E+00  0.9403E+01
   9.067  0.7997E+00  0.9411E+01
   9.077  0.8012E+00  0.9419E+01
   9.087  0.8029E+00  0.9427E+01
   9.097  0.8046E+00  0.9435E+01
   9.107  0.8065E+00  0.9443E+01
   9.117  0.8085E+00  0.9451E+01
   9.127  0.8106E+00  0.9459E+01
   9.137  0.8129E+00  0.9467E+01
   9.147  0.8152E+00  0.9475E+01
   9.157  0.8177E+00  0.9484E+01
   9.167  0.8203E+00  0.9492E+01
   9.177  0.8230E+00  0.9500E+01
   9.187  0.8258E+00  0.9508E+01
   9.197  0.8287E+00  0.9517E+01
   9.207  0.8318E+00  0.9525E+01
   9.217  0.8349E+00  0.9533E+01
   9.227  0.8382E+00  0.9542E+01
   9.237  0.8416E+00  0.9550E+01
   9.247  0.8451E+00  0.9558E+01
   9.257  0.8487E+00  0.9567E+01
   9.267  0.8524E+00  0.9575E+01
   9.277  0.8562E+00  0.9584E+01
   9.287  0.8601E+00  0.9593E+01
   9.297  0.8640E+00  0.9601E+01
   9.307  0.8681E+00  0.9610E+01
   9.317  0.8723E+00  0.9619E+01
   9.327  0.8765E+00  0.9627E+01
   9.337  0.8808E+00  0.9636E+01
   9.347  0.8852E+00  0.9645E+01
   9.357  0.8896E+00  0.9654E+01
   9.367  0.8941E+00  0.9663E+01
   9.377  0.8987E+00  0.9672E+01
   9.387  0.9033E+00  0.9681E+01
   9.397  0.9080E+00  0.9690E+01
   9.407  0.9127E+00  0.9699E+01
   9.417  0.9174E+00  0.9708E+01
   9.427  0.9221E+00  0.9718E+01
   9.437  0.9269E+00  0.9727E+01
   9.447  0.9317E+00  0.9736E+01
   9.457  0.9365E+00  0.9746E+01
   9.467  0.9413E+00  0.9755E+01
   9.477  0.9461E+00  0.9764E+01
   9.487  0.9509E+00  0.9774E+01
   9.497  0.9557E+00  0.9783E+01
   9.507  0.9604E+00  0.9793E+01
   9.517  0.9652E+00  0.9803E+01
   9.527  0.9698E+00  0.9812E+01
   9.537  0.9745E+00  0.9822E+01
   9.547  0.9791E+00  0.9832E+01
   9.557  0.9837E+00  0.9842E+01
   9.567  0.9882E+00  0.9852E+01
   9.577  0.9926E+00  0.9862E+01
   9.587  0.9970E+00  0.9872E+01
   9.597  0.1001E+01  0.9882E+01
   9.607  0.1005E+01  0.9892E+01
   9.617  0.1010E+01  0.9902E+01
   9.627  0.1014E+01  0.9912E+01
   9.637  0.1018E+01  0.9922E+01
   9.647  0.1021E+01  0.9932E+01
   9.657  0.1025E+01  0.9943E+01
   9.667  0.1029E+01  0.9953E+01
   9.677  0.1032E+01  0.9963E+01
   9.687  0.1036E+01  0.9973E+01
   9.697  0.1039E+01  0.9984E+01
   9.707  0.1042E+01  0.9994E+01
   9.717  0.1045E+01  0.1000E+02
   9.727  0.1048E+01  0.1002E+02
   9.737  0.1051E+01  0.1003E+02
   9.747  0.1054E+01  0.1004E+02
   9.757  0.1056E+01  0.1005E+02
   9.767  0.1059E+01  0.1006E+02
   9.777  0.1061E+01  0.1007E+02
   9.787  0.1063E+01  0.1008E+02
   9.797  0.1065E+01  0.1009E+02
   9.807  0.1067E+01  0.1010E+02
   9.817  0.1069E+01  0.1011E+02
   9.827  0.1070E+01  0.1012E+02
   9.837  0.1072E+01  0.1013E+02
   9.847  0.1073E+01  0.1014E+02
   9.857  0.1074E+01  0.1015E+02
   9.867  0.1075E+01  0.1016E+02
   9.877  0.1076E+01  0.1018E+02
   9.887  0.1077E+01  0.1019E+02
   9.897  0.1078E+01  0.1020E+02
   9.907  0.1078E+01  0.1021E+02
   9.917  0.1079E+01  0.1022E+02
   9.927  0.1079E+01  0.1023E+02
   9.937  0.1079E+01  0.1024E+02
   9.947  0.1079E+01  0.1025E+02
   9.957  0.1079E+01  0.1026E+02
   9.967  0.1079E+01  0.1027E+02
   9.977  0.1079E+01  0.1028E+02
   9.987  0.1079E+01  0.1029E+02
   9.997  0.1079E+01  0.1030E+02
  10.007  0.1078E+01  0.1032E+02
  10.017  0.1078E+01  0.1033E+02
  10.027  0.1077E+01  0.1034E+02
  10.037  0.1076E+01  0.1035E+02
  10.047  0.1076E+01  0.1036E+02
  10.057  0.1075E+01  0.1037E+02
  10.067  0.1074E+01  0.1038E+02
  10.077  0.1073E+01  0.1039E+02
  10.087  0.1072E+01  0.1040E+02
  10.097  0.1071E+01  0.1041E+02
  10.107  0.1070E+01  0.1042E+02
  10.117  0.1069E+01  0.1043E+02
  10.127  0.1068E+01  0.1044E+02
  10.137  0.1067E+01  0.1045E+02
  10.147  0.1066E+01  0.1047E+02
  10.157  0.1065E+01  0.1048E+02
  10.167  0.1064E+01  0.1049E+02
  10.177  0.1063E+01  0.1050E+02
  10.187  0.1062E+01  0.1051E+02
  10.197  0.1061E+01  0.1052E+02
  10.207  0.1060E+01  0.1053E+02
  10.217  0.1059E+01  0.1054E+02
  10.227  0.1058E+01  0.1055E+02
  10.237  0.1057E+01  0.1056E+02
  10.247  0.1056E+01  0.1057E+02
  10.257  0.1056E+01  0.1058E+02
  10.267  0.1055E+01  0.1059E+02
  10.277  0.1054E+01  0.1060E+02
  10.287  0.1053E+01  0.1061E+02
  10.297  0.1053E+01  0.1062E+02
  10.307  0.1052E+01  0.1063E+02
  10.317  0.1052E+01  0.1065E+02
  10.327  0.1051E+01  0.1066E+02
  10.337  0.1051E+01  0.1067E+02
  10.347  0.1050E+01  0.1068E+02
  10.357  0.1050E+01  0.1069E+02
  10.367  0.1050E+01  0.1070E+02
  10.377  0.1050E+01  0.1071E+02
  10.387  0.1050E+01  0.1072E+02
  10.397  0.1050E+01  0.1073E+02
  10.407  0.1050E+01  0.1074E+02
  10.417  0.1050E+01  0.1075E+02
  10.427  0.1050E+01  0.1076E+02
  10.437  0.1050E+01  0.1077E+02
  10.447  0.1051E+01  0.1078E+02
  10.457  0.1051E+01  0.1079E+02
  10.467  0.1051E+01  0.1080E+02
  10.477  0.1052E+01  0.1081E+02
  10.487  0.1053E+01  0.1082E+02
  10.497  0.1053E+01  0.1083E+02
  10.507  0.1054E+01  0.1084E+02
  10.517  0.1055E+01  0.1086E+02
  10.527  0.1056E+01  0.1087E+02
  10.537  0.1057E+01  0.1088E+02
  10.547  0.1058E+01  0.1089E+02
  10.557  0.1059E+01  0.1090E+02
  10.567  0.1060E+01  0.1091E+02
  10.577  0.1061E+01  0.1092E+02
  10.587  0.1063E+01  0.1093E+02
  10.597  0.1064E+01  0.1094E+02
  10.607  0.1065E+01  0.1095E+02
  10.617  0.1067E+01  0.1096E+02
  10.627  0.1068E+01  0.1097E+02
  10.637  0.1070E+01  0.1098E+02
  10.647  0.1071E+01  0.1099E+02
  10.657  0.1073E+01  0.1100E+02
  10.667  0.1074E+01  0.1102E+02
  10.677  0.1076E+01  0.1103E+02
  10.687  0.1077E+01  0.1104E+02
  10.697  0.1079E+01  0.1105E+02
  10.707  0.1081E+01  0.1106E+02
  10.717  0.1082E+01  0.1107E+02
  10.727  0.1084E+01  0.1108E+02
  10.737  0.1085E+01  0.1109E+02
  10.747  0.1087E+01  0.1110E+02
  10.757  0.1089E+01  0.1111E+02
  10.767  0.1090E+01  0.1112E+02
  10.777  0.1092E+01  0.1113E+02
  10.787  0.1093E+01  0.1115E+02
  10.797  0.1095E+01  0.1116E+02
  10.807  0.1096E+01  0.1117E+02
  10.817  0.1098E+01  0.1118E+02
  10.827  0.1099E+01  0.1119E+02
  10.837  0.1101E+01  0.1120E+02
  10.847  0.1102E+01  0.1121E+02
  10.857  0.1103E+01  0.1122E+02
  10.867  0.1104E+01  0.1123E+02
  10.877  0.1106E+01  0.1124E+02
  10.887  0.1107E+01  0.1126E+02
  10.897  0.1108E+01  0.1127E+02
  10.907  0.1109E+01  0.1128E+02
  10.917  0.1110E+01  0.1129E+02
  10.927  0.1110E+01  0.1130E+02
  10.937  0.1111E+01  0.1131E+02
  10.947  0.1112E+01  0.1132E+02
  10.957  0.1112E+01  0.1133E+02
  10.967  0.1113E+01  0.1134E+02
  10.977  0.1113E+01  0.1136E+02
  10.987  0.1113E+01  0.1137E+02
  10.997  0.1114E+01  0.1138E+02
  11.007  0.1114E+01  0.1139E+02
  11.017  0.1114E+01  0.1140E+02
  11.027  0.1114E+01  0.1141E+02
  11.037  0.1113E+01  0.1142E+02
  11.047  0.1113E+01  0.1143E+02
  11.057  0.1112E+01  0.1144E+02
  11.067  0.1112E+01  0.1146E+02
  11.077  0.1111E+01  0.1147E+02
  11.087  0.1110E+01  0.1148E+02
  11.097  0.1109E+01  0.1149E+02
  11.107  0.1108E+01  0.1150E+02
  11.117  0.1107E+01  0.1151E+02
  11.127  0.1106E+01  0.1152E+02
  11.137  0.1104E+01  0.1153E+02
  11.147  0.1103E+01  0.1154E+02
  11.157  0.1101E+01  0.1156E+02
  11.167  0.1099E+01  0.1157E+02
  11.177  0.1097E+01  0.1158E+02
  11.187  0.1095E+01  0.1159E+02
  11.197  0.1092E+01  0.1160E+02
  11.207  0.1090E+01  0.1161E+02
  11.217  0.1087E+01  0.1162E+02
  11.227  0.1085E+01  0.1163E+02
  11.237  0.1082E+01  0.1164E+02
  11.247  0.1079E+01  0.1165E+02
  11.257  0.1076E+01  0.1166E+02
  11.267  0.1073E+01  0.1167E+02
  11.277  0.1069E+01  0.1169E+02
  11.287  0.1066E+01  0.1170E+02
  11.297  0.1062E+01  0.1171E+02
  11.307  0.1058E+01  0.1172E+02
  11.317  0.1055E+01  0.1173E+02
  11.327  0.1051E+01  0.1174E+02
  11.337  0.1047E+01  0.1175E+02
  11.347  0.1042E+01  0.1176E+02
  11.357  0.1038E+01  0.1177E+02
  11.367  0.1033E+01  0.1178E+02
  11.377  0.1029E+01  0.1179E+02
  11.387  0.1024E+01  0.1180E+02
  11.397  0.1019E+01  0.1181E+02
  11.407  0.1015E+01  0.1182E+02
  11.417  0.1010E+01  0.1183E+02
  11.427  0.1005E+01  0.1184E+02
  11.437  0.9994E+00  0.1185E+02
  11.447  0.9942E+00  0.1186E+02
  11.457  0.9889E+00  0.1187E+02
  11.467  0.9835E+00  0.1188E+02
  11.477  0.9780E+00  0.1189E+02
  11.487  0.9725E+00  0.1190E+02
  11.497  0.9669E+00  0.1191E+02
  11.507  0.9612E+00  0.1192E+02
  11.517  0.9555E+00  0.1193E+02
  11.527  0.9498E+00  0.1194E+02
  11.537  0.9440E+00  0.1195E+02
  11.547  0.9381E+00  0.1196E+02
  11.557  0.9323E+00  0.1197E+02
  11.567  0.9264E+00  0.1198E+02
  11.577  0.9204E+00  0.1199E+02
  11.587  0.9145E+00  0.1199E+02
  11.597  0.9086E+00  0.1200E+02
  11.607  0.9026E+00  0.1201E+02
  11.617  0.8967E+00  0.1202E+02
  11.627  0.8907E+00  0.1203E+02
  11.637  0.8848E+00  0.1204E+02
  11.647  0.8789E+00  0.1205E+02
  11.657  0.8730E+00  0.1206E+02
  11.667  0.8672E+00  0.1207E+02
  11.677  0.8614E+00  0.1207E+02
  11.687  0.8556E+00  0.1208E+02
  11.697  0.8499E+00  0.1209E+02
  11.707  0.8442E+00  0.1210E+02
  11.717  0.8386E+00  0.1211E+02
  11.727  0.8331E+00  0.1212E+02
  11.737  0.8276E+00  0.1212E+02
  11.747  0.8223E+00  0.1213E+02
  11.757  0.8170E+00  0.1214E+02
  11.767  0.8118E+00  0.1215E+02
  11.777  0.8067E+00  0.1216E+02
  11.787  0.8017E+00  0.1216E+02
  11.797  0.7968E+00  0.1217E+02
  11.807  0.7921E+00  0.1218E+02
  11.817  0.7875E+00  0.1219E+02
  11.827  0.7829E+00  0.1220E+02
  11.837  0.7786E+00  0.1220E+02
  11.847  0.7743E+00  0.1221E+02
  11.857  0.7702E+00  0.1222E+02
  11.867  0.7663E+00  0.1223E+02
  11.877  0.7625E+00  0.1223E+02
  11.887  0.7589E+00  0.1224E+02
  11.897  0.7554E+00  0.1225E+02
  11.907  0.7522E+00  0.1226E+02
  11.917  0.7490E+00  0.1227E+02
  11.927  0.7461E+00  0.1227E+02
  11.937  0.7434E+00  0.1228E+02
  11.947  0.7408E+00  0.1229E+02
  11.957  0.7384E+00  0.1229E+02
  11.967  0.7363E+00  0.1230E+02
  11.977  0.7343E+00  0.1231E+02
  11.987  0.7325E+00  0.1232E+02
  11.997  0.7310E+00  0.1232E+02
  12.007  0.7296E+00  0.1233E+02
  12.017  0.7285E+00  0.1234E+02
  12.027  0.7275E+00  0.1235E+02
  12.037  0.7268E+00  0.1235E+02
  12.047  0.7264E+00  0.1236E+02
  12.057  0.7261E+00  0.1237E+02
  12.067  0.7261E+00  0.1238E+02
  12.077  0.7263E+00  0.1238E+02
  12.087  0.7267E+00  0.1239E+02
  12.097  0.7274E+00  0.1240E+02
  12.107  0.7282E+00  0.1240E+02
  12.117  0.7294E+00  0.1241E+02
  12.127  0.7307E+00  0.1242E+02
  12.137  0.7323E+00  0.1243E+02
  12.147  0.7342E+00  0.1243E+02
  12.157  0.7362E+00  0.1244E+02
  12.167  0.7385E+00  0.1245E+02
  12.177  0.7411E+00  0.1246E+02
  12.187  0.7438E+00  0.1246E+02
  12.197  0.7468E+00  0.1247E+02
  12.207  0.7501E+00  0.1248E+02
  12.217  0.7535E+00  0.1249E+02
  12.227  0.7572E+00  0.1249E+02
  12.237  0.7612E+00  0.1250E+02
  12.247  0.7653E+00  0.1251E+02
  12.257  0.7697E+00  0.1252E+02
  12.267  0.7743E+00  0.1252E+02
  12.277  0.7792E+00  0.1253E+02
  12.287  0.7842E+00  0.1254E+02
  12.297  0.7895E+00  0.1255E+02
  12.307  0.7949E+00  0.1256E+02
  12.317  0.8006E+00  0.1256E+02
  12.327  0.8065E+00  0.1257E+02
  12.337  0.8126E+00  0.1258E+02
  12.347  0.8189E+00  0.1259E+02
  12.357  0.8253E+00  0.1260E+02
  12.367  0.8320E+00  0.1260E+02
  12.377  0.8389E+00  0.1261E+02
  12.387  0.8459E+00  0.1262E+02
  12.397  0.8531E+00  0.1263E+02
  12.407  0.8604E+00  0.1264E+02
  12.417  0.8680E+00  0.1265E+02
  12.427  0.8757E+00  0.1266E+02
  12.437  0.8835E+00  0.1266E+02
  12.447  0.8915E+00  0.1267E+02
  12.457  0.8996E+00  0.1268E+02
  12.467  0.9078E+00  0.1269E+02
  12.477  0.9162E+00  0.1270E+02
  12.487  0.9247E+00  0.1271E+02
  12.497  0.9333E+00  0.1272E+02
  12.507  0.9420E+00  0.1273E+02
  12.517  0.9508E+00  0.1274E+02
  12.527  0.9597E+00  0.1275E+02
  12.537  0.9687E+00  0.1276E+02
  12.547  0.9778E+00  0.1277E+02
  12.557  0.9869E+00  0.1278E+02
  12.567  0.9961E+00  0.1279E+02
  12.577  0.1005E+01  0.1280E+02
  12.587  0.1015E+01  0.1281E+02
  12.597  0.1024E+01  0.1282E+02
  12.607  0.1033E+01  0.1283E+02
  12.617  0.1043E+01  0.1284E+02
  12.627  0.1052E+01  0.1285E+02
  12.637  0.1062E+01  0.1286E+02
  12.647  0.1071E+01  0.1287E+02
  12.657  0.1080E+01  0.1288E+02
  12.667  0.1090E+01  0.1289E+02
  12.677  0.1099E+01  0.1290E+02
  12.687  0.1109E+01  0.1291E+02
  12.697  0.1118E+01  0.1293E+02
  12.707  0.1127E+01  0.1294E+02
  12.717  0.1136E+01  0.1295E+02
  12.727  0.1145E+01  0.1296E+02
  12.737  0.1154E+01  0.1297E+02
  12.747  0.1163E+01  0.1298E+02
  12.757  0.1172E+01  0.1299E+02
  12.767  0.1181E+01  0.1301E+02
  12.777  0.1190E+01  0.1302E+02
  12.787  0.1199E+01  0.1303E+02
  12.797  0.1207E+01  0.1304E+02
  12.807  0.1216E+01  0.1305E+02
  12.817  0.1224E+01  0.1307E+02
  12.827  0.1232E+01  0.1308E+02
  12.837  0.1240E+01  0.1309E+02
  12.847  0.1248E+01  0.1310E+02
  12.857  0.1256E+01  0.1312E+02
  12.867  0.1263E+01  0.1313E+02
  12.877  0.1271E+01  0.1314E+02
  12.887  0.1278E+01  0.1315E+02
  12.897  0.1285E+01  0.1317E+02
  12.907  0.1292E+01  0.1318E+02
  12.917  0.1299E+01  0.1319E+02
  12.927  0.1306E+01  0.1321E+02
  12.937  0.1312E+01  0.1322E+02
  12.947  0.1318E+01  0.1323E+02
  12.957  0.1324E+01  0.1325E+02
  12.967  0.1330E+01  0.1326E+02
  12.977  0.1336E+01  0.1327E+02
  12.987  0.1342E+01  0.1329E+02
  12.997  0.1347E+01  0.1330E+02
  13.007  0.1352E+01  0.1331E+02
  13.017  0.1357E+01  0.1333E+02
  13.027  0.1362E+01  0.1334E+02
  13.037  0.1366E+01  0.1335E+02
  13.047  0.1371E+01  0.1337E+02
  13.057  0.1375E+01  0.1338E+02
  13.067  0.1379E+01  0.1339E+02
  13.077  0.1383E+01  0.1341E+02
  13.087  0.1386E+01  0.1342E+02
  13.097  0.1390E+01  0.1344E+02
  13.107  0.1393E+01  0.1345E+02
  13.117  0.1396E+01  0.1346E+02
  13.127  0.1399E+01  0.1348E+02
  13.137  0.1401E+01  0.1349E+02
  13.147  0.1404E+01  0.1351E+02
  13.157  0.1406E+01  0.1352E+02
  13.167  0.1408E+01  0.1353E+02
  13.177  0.1410E+01  0.1355E+02
  13.187  0.1412E+01  0.1356E+02
  13.197  0.1414E+01  0.1358E+02
  13.207  0.1415E+01  0.1359E+02
  13.217  0.1416E+01  0.1360E+02
  13.227  0.1418E+01  0.1362E+02
  13.237  0.1419E+01  0.1363E+02
  13.247  0.1419E+01  0.1365E+02
  13.257  0.1420E+01  0.1366E+02
  13.267  0.1421E+01  0.1368E+02
  13.277  0.1421E+01  0.1369E+02
  13.287  0.1421E+01  0.1370E+02
  13.297  0.1422E+01  0.1372E+02
  13.307  0.1422E+01  0.1373E+02
  13.317  0.1422E+01  0.1375E+02
  13.327  0.1422E+01  0.1376E+02
  13.337  0.1421E+01  0.1378E+02
  13.347  0.1421E+01  0.1379E+02
  13.357  0.1420E+01  0.1380E+02
  13.367  0.1420E+01  0.1382E+02
  13.377  0.1419E+01  0.1383E+02
  13.387  0.1418E+01  0.1385E+02
  13.397  0.1418E+01  0.1386E+02
  13.407  0.1417E+01  0.1387E+02
  13.417  0.1416E+01  0.1389E+02
  13.427  0.1415E+01  0.1390E+02
  13.437  0.1414E+01  0.1392E+02
  13.447  0.1413E+01  0.1393E+02
  13.457  0.1412E+01  0.1395E+02
  13.467  0.1410E+01  0.1396E+02
  13.477  0.1409E+01  0.1397E+02
  13.487  0.1408E+01  0.1399E+02
  13.497  0.1407E+01  0.1400E+02
  13.507  0.1405E+01  0.1402E+02
  13.517  0.1404E+01  0.1403E+02
  13.527  0.1403E+01  0.1404E+02
  13.537  0.1401E+01  0.1406E+02
  13.547  0.1400E+01  0.1407E+02
  13.557  0.1398E+01  0.1409E+02
  13.567  0.1397E+01  0.1410E+02
  13.577  0.1396E+01  0.1411E+02
  13.587  0.1394E+01  0.1413E+02
  13.597  0.1393E+01  0.1414E+02
  13.607  0.1391E+01  0.1416E+02
  13.617  0.1390E+01  0.1417E+02
  13.627  0.1389E+01  0.1418E+02
  13.637  0.1387E+01  0.1420E+02
  13.647  0.1386E+01  0.1421E+02
  13.657  0.1384E+01  0.1422E+02
  13.667  0.1383E+01  0.1424E+02
  13.677  0.1382E+01  0.1425E+02
  13.687  0.1380E+01  0.1427E+02
  13.697  0.1379E+01  0.1428E+02
  13.707  0.1378E+01  0.1429E+02
  13.717  0.1377E+01  0.1431E+02
  13.727  0.1375E+01  0.1432E+02
  13.737  0.1374E+01  0.1434E+02
  13.747  0.1373E+01  0.1435E+02
  13.757  0.1372E+01  0.1436E+02
  13.767  0.1371E+01  0.1438E+02
  13.777  0.1369E+01  0.1439E+02
  13.787  0.1368E+01  0.1440E+02
  13.797  0.1367E+01  0.1442E+02
  13.807  0.1366E+01  0.1443E+02
  13.817  0.1365E+01  0.1444E+02
  13.827  0.1364E+01  0.1446E+02
  13.837  0.1363E+01  0.1447E+02
  13.847  0.1362E+01  0.1449E+02
  13.857  0.1361E+01  0.1450E+02
  13.867  0.1360E+01  0.1451E+02
  13.877  0.1359E+01  0.1453E+02
  13.887  0.1358E+01  0.1454E+02
  13.897  0.1357E+01  0.1455E+02
  13.907  0.1356E+01  0.1457E+02
  13.917  0.1355E+01  0.1458E+02
  13.927  0.1354E+01  0.1459E+02
  13.937  0.1353E+01  0.1461E+02
  13.947  0.1352E+01  0.1462E+02
  13.957  0.1351E+01  0.1463E+02
  13.967  0.1350E+01  0.1465E+02
  13.977  0.1349E+01  0.1466E+02
  13.987  0.1348E+01  0.1468E+02
  13.997  0.1347E+01  0.1469E+02
  14.007  0.1345E+01  0.1470E+02
  14.017  0.1344E+01  0.1472E+02
  14.027  0.1343E+01  0.1473E+02
  14.037  0.1342E+01  0.1474E+02
  14.047  0.1341E+01  0.1476E+02
  14.057  0.1340E+01  0.1477E+02
  14.067  0.1339E+01  0.1478E+02
  14.077  0.1338E+01  0.1480E+02
  14.087  0.1337E+01  0.1481E+02
  14.097  0.1336E+01  0.1482E+02
  14.107  0.1334E+01  0.1484E+02
  14.117  0.1333E+01  0.1485E+02
  14.127  0.1332E+01  0.1486E+02
  14.137  0.1331E+01  0.1488E+02
  14.147  0.1329E+01  0.1489E+02
  14.157  0.1328E+01  0.1490E+02
  14.167  0.1327E+01  0.1492E+02
  14.177  0.1325E+01  0.1493E+02
  14.187  0.1324E+01  0.1494E+02
  14.197  0.1323E+01  0.1496E+02
  14.207  0.1321E+01  0.1497E+02
  14.217  0.1320E+01  0.1498E+02
  14.227  0.1318E+01  0.1500E+02
  14.237  0.1317E+01  0.1501E+02
  14.247  0.1315E+01  0.1502E+02
  14.257  0.1314E+01  0.1503E+02
  14.267  0.1312E+01  0.1505E+02
  14.277  0.1311E+01  0.1506E+02
  14.287  0.1309E+01  0.1507E+02
  14.297  0.1308E+01  0.1509E+02
  14.307  0.1306E+01  0.1510E+02
  14.317  0.1304E+01  0.1511E+02
  14.327  0.1303E+01  0.1513E+02
  14.337  0.1301E+01  0.1514E+02
  14.347  0.1299E+01  0.1515E+02
  14.357  0.1298E+01  0.1517E+02
  14.367  0.1296E+01  0.1518E+02
  14.377  0.1294E+01  0.1519E+02
  14.387  0.1293E+01  0.1520E+02
  14.397  0.1291E+01  0.1522E+02
  14.407  0.1289E+01  0.1523E+02
  14.417  0.1287E+01  0.1524E+02
  14.427  0.1285E+01  0.1526E+02
  14.437  0.1284E+01  0.1527E+02
  14.447  0.1282E+01  0.1528E+02
  14.457  0.1280E+01  0.1529E+02
  14.467  0.1278E+01  0.1531E+02
  14.477  0.1276E+01  0.1532E+02
  14.487  0.1274E+01  0.1533E+02
  14.497  0.1272E+01  0.1535E+02
  14.507  0.1270E+01  0.1536E+02
  14.517  0.1269E+01  0.1537E+02
  14.527  0.1267E+01  0.1538E+02
  14.537  0.1265E+01  0.1540E+02
  14.547  0.1263E+01  0.1541E+02
  14.557  0.1261E+01  0.1542E+02
  14.567  0.1259E+01  0.1543E+02
  14.577  0.1257E+01  0.1545E+02
  14.587  0.1255E+01  0.1546E+02
  14.597  0.1253E+01  0.1547E+02
  14.607  0.1251E+01  0.1548E+02
  14.617  0.1249E+01  0.1550E+02
  14.627  0.1246E+01  0.1551E+02
  14.637  0.1244E+01  0.1552E+02
  14.647  0.1242E+01  0.1553E+02
  14.657  0.1240E+01  0.1555E+02
  14.667  0.1238E+01  0.1556E+02
  14.677  0.1236E+01  0.1557E+02
  14.687  0.1233E+01  0.1558E+02
  14.697  0.1231E+01  0.1560E+02
  14.707  0.1229E+01  0.1561E+02
  14.717  0.1226E+01  0.1562E+02
  14.727  0.1224E+01  0.1563E+02
  14.737  0.1221E+01  0.1564E+02
  14.747  0.1219E+01  0.1566E+02
  14.757  0.1216E+01  0.1567E+02
  14.767  0.1214E+01  0.1568E+02
  14.777  0.1211E+01  0.1569E+02
  14.787  0.1208E+01  0.1570E+02
  14.797  0.1206E+01  0.1572E+02
  14.807  0.1203E+01  0.1573E+02
  14.817  0.1200E+01  0.1574E+02
  14.827  0.1197E+01  0.1575E+02
  14.837  0.1194E+01  0.1576E+02
  14.847  0.1191E+01  0.1578E+02
  14.857  0.1188E+01  0.1579E+02
  14.867  0.1185E+01  0.1580E+02
  14.877  0.1181E+01  0.1581E+02
  14.887  0.1178E+01  0.1582E+02
  14.897  0.1174E+01  0.1584E+02
  14.907  0.1171E+01  0.1585E+02
  14.917  0.1167E+01  0.1586E+02
  14.927  0.1163E+01  0.1587E+02
  14.937  0.1160E+01  0.1588E+02
  14.947  0.1156E+01  0.1589E+02
  14.957  0.1152E+01  0.1591E+02
  14.967  0.1148E+01  0.1592E+02
  14.977  0.1143E+01  0.1593E+02
  14.987  0.1139E+01  0.1594E+02
  14.997  0.1135E+01  0.1595E+02
  15.007  0.1130E+01  0.1596E+02
  15.017  0.1126E+01  0.1597E+02
  15.027  0.1121E+01  0.1599E+02
  15.037  0.1116E+01  0.1600E+02
  15.047  0.1111E+01  0.1601E+02
  15.057  0.1106E+01  0.1602E+02
  15.067  0.1101E+01  0.1603E+02
  15.077  0.1096E+01  0.1604E+02
  15.087  0.1091E+01  0.1605E+02
  15.097  0.1085E+01  0.1606E+02
  15.107  0.1080E+01  0.1607E+02
  15.117  0.1074E+01  0.1608E+02
  15.127  0.1069E+01  0.1609E+02
  15.137  0.1063E+01  0.1610E+02
  15.147  0.1057E+01  0.1612E+02
  15.157  0.1051E+01  0.1613E+02
  15.167  0.1045E+01  0.1614E+02
  15.177  0.1039E+01  0.1615E+02
  15.187  0.1032E+01  0.1616E+02
  15.197  0.1026E+01  0.1617E+02
  15.207  0.1020E+01  0.1618E+02
  15.217  0.1013E+01  0.1619E+02
  15.227  0.1007E+01  0.1620E+02
  15.237  0.9999E+00  0.1621E+02
  15.247  0.9932E+00  0.1622E+02
  15.257  0.9864E+00  0.1623E+02
  15.267  0.9796E+00  0.1624E+02
  15.277  0.9727E+00  0.1625E+02
  15.287  0.9658E+00  0.1626E+02
  15.297  0.9588E+00  0.1627E+02
  15.307  0.9518E+00  0.1628E+02
  15.317  0.9448E+00  0.1629E+02
  15.327  0.9377E+00  0.1629E+02
  15.337  0.9306E+00  0.1630E+02
  15.347  0.9235E+00  0.1631E+02
  15.357  0.9163E+00  0.1632E+02
  15.367  0.9092E+00  0.1633E+02
  15.377  0.9020E+00  0.1634E+02
  15.387  0.8949E+00  0.1635E+02
  15.397  0.8878E+00  0.1636E+02
  15.407  0.8806E+00  0.1637E+02
  15.417  0.8735E+00  0.1638E+02
  15.427  0.8664E+00  0.1638E+02
  15.437  0.8594E+00  0.1639E+02
  15.447  0.8524E+00  0.1640E+02
  15.457  0.8454E+00  0.1641E+02
  15.467  0.8385E+00  0.1642E+02
  15.477  0.8316E+00  0.1643E+02
  15.487  0.8248E+00  0.1644E+02
  15.497  0.8180E+00  0.1644E+02
  15.507  0.8113E+00  0.1645E+02
  15.517  0.8047E+00  0.1646E+02
  15.527  0.7982E+00  0.1647E+02
  15.537  0.7918E+00  0.1648E+02
  15.547  0.7854E+00  0.1648E+02
  15.557  0.7792E+00  0.1649E+02
  15.567  0.7730E+00  0.1650E+02
  15.577  0.7670E+00  0.1651E+02
  15.587  0.7611E+00  0.1651E+02
  15.597  0.7553E+00  0.1652E+02
  15.607  0.7496E+00  0.1653E+02
  15.617  0.7440E+00  0.1654E+02
  15.627  0.7385E+00  0.1654E+02
  15.637  0.7332E+00  0.1655E+02
  15.647  0.7281E+00  0.1656E+02
  15.657  0.7230E+00  0.1657E+02
  15.667  0.7181E+00  0.1657E+02
  15.677  0.7134E+00  0.1658E+02
  15.687  0.7087E+00  0.1659E+02
  15.697  0.7043E+00  0.1659E+02
  15.707  0.7000E+00  0.1660E+02
  15.717  0.6958E+00  0.1661E+02
  15.727  0.6918E+00  0.1662E+02
  15.737  0.6880E+00  0.1662E+02
  15.747  0.6843E+00  0.1663E+02
  15.757  0.6808E+00  0.1664E+02
  15.767  0.6774E+00  0.1664E+02
  15.777  0.6742E+00  0.1665E+02
  15.787  0.6711E+00  0.1666E+02
  15.797  0.6683E+00  0.1666E+02
  15.807  0.6655E+00  0.1667E+02
  15.817  0.6630E+00  0.1668E+02
  15.827  0.6606E+00  0.1668E+02
  15.837  0.6583E+00  0.1669E+02
  15.847  0.6562E+00  0.1670E+02
  15.857  0.6543E+00  0.1670E+02
  15.867  0.6525E+00  0.1671E+02
  15.877  0.6509E+00  0.1672E+02
  15.887  0.6494E+00  0.1672E+02
  15.897  0.6480E+00  0.1673E+02
  15.907  0.6469E+00  0.1673E+02
  15.917  0.6458E+00  0.1674E+02
  15.927  0.6449E+00  0.1675E+02
  15.937  0.6442E+00  0.1675E+02
  15.947  0.6435E+00  0.1676E+02
  15.957  0.6430E+00  0.1677E+02
  15.967  0.6427E+00  0.1677E+02
  15.977  0.6424E+00  0.1678E+02
  15.987  0.6423E+00  0.1679E+02
  15.997  0.6423E+00  0.1679E+02
  16.007  0.6424E+00  0.1680E+02
  16.017  0.6426E+00  0.1681E+02
  16.027  0.6429E+00  0.1681E+02
  16.037  0.6434E+00  0.1682E+02
  16.047  0.6439E+00  0.1682E+02
  16.057  0.6445E+00  0.1683E+02
  16.067  0.6452E+00  0.1684E+02
  16.077  0.6460E+00  0.1684E+02
  16.087  0.6469E+00  0.1685E+02
  16.097  0.6478E+00  0.1686E+02
  16.107  0.6489E+00  0.1686E+02
  16.117  0.6500E+00  0.1687E+02
  16.127  0.6511E+00  0.1688E+02
  16.137  0.6523E+00  0.1688E+02
  16.147  0.6536E+00  0.1689E+02
  16.157  0.6549E+00  0.1690E+02
  16.167  0.6563E+00  0.1690E+02
  16.177  0.6577E+00  0.1691E+02
  16.187  0.6591E+00  0.1692E+02
  16.197  0.6606E+00  0.1692E+02
  16.207  0.6621E+00  0.1693E+02
  16.217  0.6636E+00  0.1694E+02
  16.227  0.6652E+00  0.1694E+02
  16.237  0.6668E+00  0.1695E+02
  16.247  0.6684E+00  0.1696E+02
  16.257  0.6700E+00  0.1696E+02
  16.267  0.6716E+00  0.1697E+02
  16.277  0.6732E+00  0.1698E+02
  16.287  0.6748E+00  0.1698E+02
  16.297  0.6764E+00  0.1699E+02
  16.307  0.6780E+00  0.1700E+02
  16.317  0.6796E+00  0.1700E+02
  16.327  0.6812E+00  0.1701E+02
  16.337  0.6828E+00  0.1702E+02
  16.347  0.6844E+00  0.1702E+02
  16.357  0.6859E+00  0.1703E+02
  16.367  0.6875E+00  0.1704E+02
  16.377  0.6890E+00  0.1704E+02
  16.387  0.6905E+00  0.1705E+02
  16.397  0.6919E+00  0.1706E+02
  16.407  0.6934E+00  0.1706E+02
  16.417  0.6948E+00  0.1707E+02
  16.427  0.6962E+00  0.1708E+02
  16.437  0.6975E+00  0.1709E+02
  16.447  0.6989E+00  0.1709E+02
  16.457  0.7002E+00  0.1710E+02
  16.467  0.7014E+00  0.1711E+02
  16.477  0.7026E+00  0.1711E+02
  16.487  0.7038E+00  0.1712E+02
  16.497  0.7050E+00  0.1713E+02
  16.507  0.7061E+00  0.1713E+02
  16.517  0.7072E+00  0.1714E+02
  16.527  0.7083E+00  0.1715E+02
  16.537  0.7093E+00  0.1716E+02
  16.547  0.7103E+00  0.1716E+02
  16.557  0.7113E+00  0.1717E+02
  16.567  0.7122E+00  0.1718E+02
  16.577  0.7131E+00  0.1718E+02
  16.587  0.7140E+00  0.1719E+02
  16.597  0.7148E+00  0.1720E+02
  16.607  0.7156E+00  0.1721E+02
  16.617  0.7164E+00  0.1721E+02
  16.627  0.7172E+00  0.1722E+02
  16.637  0.7179E+00  0.1723E+02
  16.647  0.7186E+00  0.1723E+02
  16.657  0.7193E+00  0.1724E+02
  16.667  0.7199E+00  0.1725E+02
  16.677  0.7205E+00  0.1726E+02
  16.687  0.7211E+00  0.1726E+02
  16.697  0.7217E+00  0.1727E+02
  16.707  0.7223E+00  0.1728E+02
  16.717  0.7228E+00  0.1729E+02
  16.727  0.7233E+00  0.1729E+02
  16.737  0.7238E+00  0.1730E+02
  16.747  0.7243E+00  0.1731E+02
  16.757  0.7248E+00  0.1731E+02
  16.767  0.7253E+00  0.1732E+02
  16.777  0.7257E+00  0.1733E+02
  16.787  0.7262E+00  0.1734E+02
  16.797  0.7266E+00  0.1734E+02
  16.807  0.7270E+00  0.1735E+02
  16.817  0.7274E+00  0.1736E+02
  16.827  0.7278E+00  0.1736E+02
  16.837  0.7282E+00  0.1737E+02
  16.847  0.7286E+00  0.1738E+02
  16.857  0.7290E+00  0.1739E+02
  16.867  0.7294E+00  0.1739E+02
  16.877  0.7297E+00  0.1740E+02
  16.887  0.7301E+00  0.1741E+02
  16.897  0.7305E+00  0.1742E+02
  16.907  0.7309E+00  0.1742E+02
  16.917  0.7312E+00  0.1743E+02
  16.927  0.7316E+00  0.1744E+02
  16.937  0.7320E+00  0.1745E+02
  16.947  0.7323E+00  0.1745E+02
  16.957  0.7327E+00  0.1746E+02
  16.967  0.7331E+00  0.1747E+02
  16.977  0.7335E+00  0.1747E+02
  16.987  0.7338E+00  0.1748E+02
  16.997  0.7342E+00  0.1749E+02
  17.007  0.7346E+00  0.1750E+02
  17.017  0.7350E+00  0.1750E+02
  17.027  0.7353E+00  0.1751E+02
  17.037  0.7357E+00  0.1752E+02
  17.047  0.7361E+00  0.1753E+02
  17.057  0.7365E+00  0.1753E+02
  17.067  0.7368E+00  0.1754E+02
  17.077  0.7372E+00  0.1755E+02
  17.087  0.7376E+00  0.1756E+02
  17.097  0.7380E+00  0.1756E+02
  17.107  0.7383E+00  0.1757E+02
  17.117  0.7387E+00  0.1758E+02
  17.127  0.7390E+00  0.1759E+02
  17.137  0.7394E+00  0.1759E+02
  17.147  0.7397E+00  0.1760E+02
  17.157  0.7401E+00  0.1761E+02
  17.167  0.7404E+00  0.1761E+02
  17.177  0.7407E+00  0.1762E+02
  17.187  0.7410E+00  0.1763E+02
  17.197  0.7413E+00  0.1764E+02
  17.207  0.7416E+00  0.1764E+02
  17.217  0.7419E+00  0.1765E+02
  17.227  0.7422E+00  0.1766E+02
  17.237  0.7424E+00  0.1767E+02
  17.247  0.7426E+00  0.1767E+02
  17.257  0.7428E+00  0.1768E+02
  17.267  0.7430E+00  0.1769E+02
  17.277  0.7432E+00  0.1770E+02
  17.287  0.7434E+00  0.1770E+02
  17.297  0.7435E+00  0.1771E+02
  17.307  0.7436E+00  0.1772E+02
  17.317  0.7437E+00  0.1773E+02
  17.327  0.7437E+00  0.1773E+02
  17.337  0.7437E+00  0.1774E+02
  17.347  0.7437E+00  0.1775E+02
  17.357  0.7437E+00  0.1776E+02
  17.367  0.7436E+00  0.1776E+02
  17.377  0.7435E+00  0.1777E+02
  17.387  0.7434E+00  0.1778E+02
  17.397  0.7432E+00  0.1779E+02
  17.407  0.7430E+00  0.1779E+02
  17.417  0.7428E+00  0.1780E+02
  17.427  0.7425E+00  0.1781E+02
  17.437  0.7422E+00  0.1782E+02
  17.447  0.7419E+00  0.1782E+02
  17.457  0.7415E+00  0.1783E+02
  17.467  0.7411E+00  0.1784E+02
  17.477  0.7406E+00  0.1784E+02
  17.487  0.7401E+00  0.1785E+02
  17.497  0.7395E+00  0.1786E+02
  17.507  0.7389E+00  0.1787E+02
  17.517  0.7383E+00  0.1787E+02
  17.527  0.7376E+00  0.1788E+02
  17.537  0.7369E+00  0.1789E+02
  17.547  0.7361E+00  0.1790E+02
  17.557  0.7353E+00  0.1790E+02
  17.567  0.7344E+00  0.1791E+02
  17.577  0.7335E+00  0.1792E+02
  17.587  0.7325E+00  0.1793E+02
  17.597  0.7315E+00  0.1793E+02
  17.607  0.7304E+00  0.1794E+02
  17.617  0.7293E+00  0.1795E+02
  17.627  0.7281E+00  0.1796E+02
  17.637  0.7269E+00  0.1796E+02
  17.647  0.7257E+00  0.1797E+02
  17.657  0.7244E+00  0.1798E+02
  17.667  0.7230E+00  0.1798E+02
  17.677  0.7216E+00  0.1799E+02
  17.687  0.7201E+00  0.1800E+02
  17.697  0.7186E+00  0.1801E+02
  17.707  0.7171E+00  0.1801E+02
  17.717  0.7154E+00  0.1802E+02
  17.727  0.7138E+00  0.1803E+02
  17.737  0.7121E+00  0.1803E+02
  17.747  0.7103E+00  0.1804E+02
  17.757  0.7085E+00  0.1805E+02
  17.767  0.7067E+00  0.1806E+02
  17.777  0.7048E+00  0.1806E+02
  17.787  0.7028E+00  0.1807E+02
  17.797  0.7008E+00  0.1808E+02
  17.807  0.6988E+00  0.1808E+02
  17.817  0.6967E+00  0.1809E+02
  17.827  0.6945E+00  0.1810E+02
  17.837  0.6924E+00  0.1810E+02
  17.847  0.6901E+00  0.1811E+02
  17.857  0.6879E+00  0.1812E+02
  17.867  0.6855E+00  0.1813E+02
  17.877  0.6832E+00  0.1813E+02
  17.887  0.6808E+00  0.1814E+02
  17.897  0.6783E+00  0.1815E+02
  17.907  0.6758E+00  0.1815E+02
  17.917  0.6733E+00  0.1816E+02
  17.927  0.6707E+00  0.1817E+02
  17.937  0.6681E+00  0.1817E+02
  17.947  0.6655E+00  0.1818E+02
  17.957  0.6628E+00  0.1819E+02
  17.967  0.6601E+00  0.1819E+02
  17.977  0.6573E+00  0.1820E+02
  17.987  0.6545E+00  0.1821E+02
  17.997  0.6517E+00  0.1821E+02
  18.007  0.6488E+00  0.1822E+02
  18.017  0.6459E+00  0.1822E+02
  18.027  0.6429E+00  0.1823E+02
  18.037  0.6400E+00  0.1824E+02
  18.047  0.6369E+00  0.1824E+02
  18.057  0.6339E+00  0.1825E+02
  18.067  0.6308E+00  0.1826E+02
  18.077  0.6277E+00  0.1826E+02
  18.087  0.6246E+00  0.1827E+02
  18.097  0.6215E+00  0.1828E+02
  18.107  0.6183E+00  0.1828E+02
  18.117  0.6151E+00  0.1829E+02
  18.127  0.6119E+00  0.1829E+02
  18.137  0.6086E+00  0.1830E+02
  18.147  0.6054E+00  0.1831E+02
  18.157  0.6021E+00  0.1831E+02
  18.167  0.5988E+00  0.1832E+02
  18.177  0.5955E+00  0.1832E+02
  18.187  0.5921E+00  0.1833E+02
  18.197  0.5888E+00  0.1834E+02
  18.207  0.5854E+00  0.1834E+02
  18.217  0.5820E+00  0.1835E+02
  18.227  0.5787E+00  0.1835E+02
  18.237  0.5753E+00  0.1836E+02
  18.247  0.5719E+00  0.1836E+02
  18.257  0.5685E+00  0.1837E+02
  18.267  0.5651E+00  0.1838E+02
  18.277  0.5617E+00  0.1838E+02
  18.287  0.5583E+00  0.1839E+02
  18.297  0.5549E+00  0.1839E+02
  18.307  0.5516E+00  0.1840E+02
  18.317  0.5482E+00  0.1840E+02
  18.327  0.5448E+00  0.1841E+02
  18.337  0.5415E+00  0.1841E+02
  18.347  0.5382E+00  0.1842E+02
  18.357  0.5349E+00  0.1843E+02
  18.367  0.5316E+00  0.1843E+02
  18.377  0.5284E+00  0.1844E+02
  18.387  0.5252E+00  0.1844E+02
  18.397  0.5220E+00  0.1845E+02
  18.407  0.5188E+00  0.1845E+02
  18.417  0.5157E+00  0.1846E+02
  18.427  0.5127E+00  0.1846E+02
  18.437  0.5096E+00  0.1847E+02
  18.447  0.5067E+00  0.1847E+02
  18.457  0.5037E+00  0.1848E+02
  18.467  0.5009E+00  0.1848E+02
  18.477  0.4981E+00  0.1849E+02
  18.487  0.4953E+00  0.1849E+02
  18.497  0.4927E+00  0.1850E+02
  18.507  0.4901E+00  0.1850E+02
  18.517  0.4875E+00  0.1851E+02
  18.527  0.4851E+00  0.1851E+02
  18.537  0.4827E+00  0.1852E+02
  18.547  0.4804E+00  0.1852E+02
  18.557  0.4782E+00  0.1853E+02
  18.567  0.4761E+00  0.1853E+02
  18.577  0.4741E+00  0.1854E+02
  18.587  0.4723E+00  0.1854E+02
  18.597  0.4705E+00  0.1854E+02
  18.607  0.4688E+00  0.1855E+02
  18.617  0.4672E+00  0.1855E+02
  18.627  0.4658E+00  0.1856E+02
  18.637  0.4645E+00  0.1856E+02
  18.647  0.4633E+00  0.1857E+02
  18.657  0.4622E+00  0.1857E+02
  18.667  0.4613E+00  0.1858E+02
  18.677  0.4605E+00  0.1858E+02
  18.687  0.4599E+00  0.1859E+02
  18.697  0.4594E+00  0.1859E+02
  18.707  0.4590E+00  0.1860E+02
  18.717  0.4588E+00  0.1860E+02
  18.727  0.4588E+00  0.1861E+02
  18.737  0.4589E+00  0.1861E+02
  18.747  0.4592E+00  0.1861E+02
  18.757  0.4596E+00  0.1862E+02
  18.767  0.4603E+00  0.1862E+02
  18.777  0.4611E+00  0.1863E+02
  18.787  0.4620E+00  0.1863E+02
  18.797  0.4632E+00  0.1864E+02
  18.807  0.4645E+00  0.1864E+02
  18.817  0.4660E+00  0.1865E+02
  18.827  0.4677E+00  0.1865E+02
  18.837  0.4696E+00  0.1866E+02
  18.847  0.4717E+00  0.1866E+02
  18.857  0.4740E+00  0.1867E+02
  18.867  0.4764E+00  0.1867E+02
  18.877  0.4791E+00  0.1868E+02
  18.887  0.4819E+00  0.1868E+02
  18.897  0.4849E+00  0.1868E+02
  18.907  0.4881E+00  0.1869E+02
  18.917  0.4916E+00  0.1869E+02
  18.927  0.4952E+00  0.1870E+02
  18.937  0.4990E+00  0.1870E+02
  18.947  0.5030E+00  0.1871E+02
  18.957  0.5072E+00  0.1871E+02
  18.967  0.5116E+00  0.1872E+02
  18.977  0.5161E+00  0.1872E+02
  18.987  0.5209E+00  0.1873E+02
  18.997  0.5258E+00  0.1874E+02
  19.007  0.5310E+00  0.1874E+02
  19.017  0.5363E+00  0.1875E+02
  19.027  0.5417E+00  0.1875E+02
  19.037  0.5474E+00  0.1876E+02
  19.047  0.5532E+00  0.1876E+02
  19.057  0.5592E+00  0.1877E+02
  19.067  0.5654E+00  0.1877E+02
  19.077  0.5717E+00  0.1878E+02
  19.087  0.5782E+00  0.1879E+02
  19.097  0.5848E+00  0.1879E+02
  19.107  0.5916E+00  0.1880E+02
  19.117  0.5985E+00  0.1880E+02
  19.127  0.6055E+00  0.1881E+02
  19.137  0.6127E+00  0.1882E+02
  19.147  0.6200E+00  0.1882E+02
  19.157  0.6274E+00  0.1883E+02
  19.167  0.6349E+00  0.1883E+02
  19.177  0.6425E+00  0.1884E+02
  19.187  0.6502E+00  0.1885E+02
  19.197  0.6580E+00  0.1885E+02
  19.207  0.6658E+00  0.1886E+02
  19.217  0.6738E+00  0.1887E+02
  19.227  0.6818E+00  0.1887E+02
  19.237  0.6899E+00  0.1888E+02
  19.247  0.6980E+00  0.1889E+02
  19.257  0.7062E+00  0.1889E+02
  19.267  0.7144E+00  0.1890E+02
  19.277  0.7226E+00  0.1891E+02
  19.287  0.7308E+00  0.1892E+02
  19.297  0.7390E+00  0.1892E+02
  19.307  0.7473E+00  0.1893E+02
  19.317  0.7555E+00  0.1894E+02
  19.327  0.7637E+00  0.1895E+02
  19.337  0.7719E+00  0.1895E+02
  19.347  0.7801E+00  0.1896E+02
  19.357  0.7882E+00  0.1897E+02
  19.367  0.7962E+00  0.1898E+02
  19.377  0.8042E+00  0.1899E+02
  19.387  0.8121E+00  0.1899E+02
  19.397  0.8200E+00  0.1900E+02
  19.407  0.8277E+00  0.1901E+02
  19.417  0.8354E+00  0.1902E+02
  19.427  0.8429E+00  0.1903E+02
  19.437  0.8504E+00  0.1904E+02
  19.447  0.8577E+00  0.1904E+02
  19.457  0.8649E+00  0.1905E+02
  19.467  0.8720E+00  0.1906E+02
  19.477  0.8789E+00  0.1907E+02
  19.487  0.8856E+00  0.1908E+02
  19.497  0.8922E+00  0.1909E+02
  19.507  0.8987E+00  0.1910E+02
  19.517  0.9050E+00  0.1911E+02
  19.527  0.9111E+00  0.1912E+02
  19.537  0.9170E+00  0.1912E+02
  19.547  0.9227E+00  0.1913E+02
  19.557  0.9282E+00  0.1914E+02
  19.567  0.9336E+00  0.1915E+02
  19.577  0.9387E+00  0.1916E+02
  19.587  0.9436E+00  0.1917E+02
  19.597  0.9483E+00  0.1918E+02
  19.607  0.9528E+00  0.1919E+02
  19.617  0.9570E+00  0.1920E+02
  19.627  0.9611E+00  0.1921E+02
  19.637  0.9649E+00  0.1922E+02
  19.647  0.9685E+00  0.1923E+02
  19.657  0.9718E+00  0.1924E+02
  19.667  0.9749E+00  0.1925E+02
  19.677  0.9778E+00  0.1926E+02
  19.687  0.9804E+00  0.1927E+02
  19.697  0.9828E+00  0.1928E+02
  19.707  0.9850E+00  0.1929E+02
  19.717  0.9869E+00  0.1930E+02
  19.727  0.9886E+00  0.1931E+02
  19.737  0.9900E+00  0.1932E+02
  19.747  0.9912E+00  0.1933E+02
  19.757  0.9922E+00  0.1934E+02
  19.767  0.9929E+00  0.1935E+02
  19.777  0.9934E+00  0.1936E+02
  19.787  0.9937E+00  0.1937E+02
  19.797  0.9937E+00  0.1938E+02
  19.807  0.9935E+00  0.1939E+02
  19.817  0.9931E+00  0.1940E+02
  19.827  0.9925E+00  0.1941E+02
  19.837  0.9916E+00  0.1942E+02
  19.847  0.9906E+00  0.1943E+02
  19.857  0.9893E+00  0.1944E+02
  19.867  0.9878E+00  0.1945E+02
  19.877  0.9862E+00  0.1946E+02
  19.887  0.9843E+00  0.1947E+02
  19.897  0.9822E+00  0.1948E+02
  19.907  0.9800E+00  0.1949E+02
  19.917  0.9776E+00  0.1950E+02
  19.927  0.9750E+00  0.1950E+02
  19.937  0.9722E+00  0.1951E+02
  19.947  0.9693E+00  0.1952E+02
  19.957  0.9663E+00  0.1953E+02
  19.967  0.9631E+00  0.1954E+02
  19.977  0.9597E+00  0.1955E+02
  19.987  0.9562E+00  0.1956E+02
  19.997  0.9526E+00  0.1957E+02
  20.007  0.9489E+00  0.1958E+02
  20.017  0.9450E+00  0.1959E+02
  20.027  0.9411E+00  0.1960E+02
  20.037  0.9370E+00  0.1961E+02
  20.047  0.9329E+00  0.1962E+02
  20.057  0.9286E+00  0.1963E+02
  20.067  0.9243E+00  0.1964E+02
  20.077  0.9199E+00  0.1965E+02
  20.087  0.9155E+00  0.1966E+02
  20.097  0.9110E+00  0.1967E+02
  20.107  0.9064E+00  0.1967E+02
  20.117  0.9018E+00  0.1968E+02
  20.127  0.8972E+00  0.1969E+02
  20.137  0.8925E+00  0.1970E+02
  20.147  0.8878E+00  0.1971E+02
  20.157  0.8831E+00  0.1972E+02
  20.167  0.8784E+00  0.1973E+02
  20.177  0.8737E+00  0.1974E+02
  20.187  0.8690E+00  0.1975E+02
  20.197  0.8642E+00  0.1975E+02
  20.207  0.8595E+00  0.1976E+02
  20.217  0.8548E+00  0.1977E+02
  20.227  0.8502E+00  0.1978E+02
  20.237  0.8455E+00  0.1979E+02
  20.247  0.8409E+00  0.1980E+02
  20.257  0.8363E+00  0.1980E+02
  20.267  0.8318E+00  0.1981E+02
  20.277  0.8273E+00  0.1982E+02
  20.287  0.8229E+00  0.1983E+02
  20.297  0.8185E+00  0.1984E+02
  20.307  0.8142E+00  0.1985E+02
  20.317  0.8099E+00  0.1985E+02
  20.327  0.8057E+00  0.1986E+02
  20.337  0.8016E+00  0.1987E+02
  20.347  0.7975E+00  0.1988E+02
  20.357  0.7935E+00  0.1989E+02
  20.367  0.7896E+00  0.1989E+02
  20.377  0.7858E+00  0.1990E+02
  20.387  0.7820E+00  0.1991E+02
  20.397  0.7783E+00  0.1992E+02
  20.407  0.7747E+00  0.1992E+02
  20.417  0.7712E+00  0.1993E+02
  20.427  0.7678E+00  0.1994E+02
  20.437  0.7644E+00  0.1995E+02
  20.447  0.7611E+00  0.1996E+02
  20.457  0.7579E+00  0.1996E+02
  20.467  0.7548E+00  0.1997E+02
  20.477  0.7518E+00  0.1998E+02
  20.487  0.7489E+00  0.1999E+02
  20.497  0.7461E+00  0.1999E+02
  20.507  0.7433E+00  0.2000E+02
  20.517  0.7406E+00  0.2001E+02
  20.527  0.7380E+00  0.2002E+02
  20.537  0.7355E+00  0.2002E+02
  20.547  0.7331E+00  0.2003E+02
  20.557  0.7308E+00  0.2004E+02
  20.567  0.7285E+00  0.2004E+02
  20.577  0.7263E+00  0.2005E+02
  20.587  0.7242E+00  0.2006E+02
  20.597  0.7222E+00  0.2007E+02
  20.607  0.7202E+00  0.2007E+02
  20.617  0.7183E+00  0.2008E+02
  20.627  0.7165E+00  0.2009E+02
  20.637  0.7148E+00  0.2010E+02
  20.647  0.7131E+00  0.2010E+02
  20.657  0.7115E+00  0.2011E+02
  20.667  0.7100E+00  0.2012E+02
  20.677  0.7085E+00  0.2012E+02
  20.687  0.7071E+00  0.2013E+02
  20.697  0.7057E+00  0.2014E+02
  20.707  0.7045E+00  0.2014E+02
  20.717  0.7032E+00  0.2015E+02
  20.727  0.7021E+00  0.2016E+02
  20.737  0.7010E+00  0.2017E+02
  20.747  0.6999E+00  0.2017E+02
  20.757  0.6989E+00  0.2018E+02
  20.767  0.6980E+00  0.2019E+02
  20.777  0.6971E+00  0.2019E+02
  20.787  0.6963E+00  0.2020E+02
  20.797  0.6955E+00  0.2021E+02
  20.807  0.6948E+00  0.2021E+02
  20.817  0.6941E+00  0.2022E+02
  20.827  0.6935E+00  0.2023E+02
  20.837  0.6929E+00  0.2024E+02
  20.847  0.6924E+00  0.2024E+02
  20.857  0.6920E+00  0.2025E+02
  20.867  0.6915E+00  0.2026E+02
  20.877  0.6912E+00  0.2026E+02
  20.887  0.6909E+00  0.2027E+02
  20.897  0.6907E+00  0.2028E+02
  20.907  0.6905E+00  0.2028E+02
  20.917  0.6904E+00  0.2029E+02
  20.927  0.6903E+00  0.2030E+02
  20.937  0.6903E+00  0.2030E+02
  20.947  0.6904E+00  0.2031E+02
  20.957  0.6905E+00  0.2032E+02
  20.967  0.6907E+00  0.2033E+02
  20.977  0.6910E+00  0.2033E+02
  20.987  0.6913E+00  0.2034E+02
  20.997  0.6917E+00  0.2035E+02
  21.007  0.6922E+00  0.2035E+02
  21.017  0.6927E+00  0.2036E+02
  21.027  0.6934E+00  0.2037E+02
  21.037  0.6941E+00  0.2037E+02
  21.047  0.6949E+00  0.2038E+02
  21.057  0.6958E+00  0.2039E+02
  21.067  0.6967E+00  0.2039E+02
  21.077  0.6978E+00  0.2040E+02
  21.087  0.6990E+00  0.2041E+02
  21.097  0.7002E+00  0.2042E+02
  21.107  0.7016E+00  0.2042E+02
  21.117  0.7030E+00  0.2043E+02
  21.127  0.7046E+00  0.2044E+02
  21.137  0.7063E+00  0.2044E+02
  21.147  0.7081E+00  0.2045E+02
  21.157  0.7100E+00  0.2046E+02
  21.167  0.7120E+00  0.2046E+02
  21.177  0.7141E+00  0.2047E+02
  21.187  0.7164E+00  0.2048E+02
  21.197  0.7188E+00  0.2049E+02
  21.207  0.7213E+00  0.2049E+02
  21.217  0.7239E+00  0.2050E+02
  21.227  0.7267E+00  0.2051E+02
  21.237  0.7296E+00  0.2052E+02
  21.247  0.7327E+00  0.2052E+02
  21.257  0.7359E+00  0.2053E+02
  21.267  0.7392E+00  0.2054E+02
  21.277  0.7426E+00  0.2054E+02
  21.287  0.7462E+00  0.2055E+02
  21.297  0.7500E+00  0.2056E+02
  21.307  0.7539E+00  0.2057E+02
  21.317  0.7579E+00  0.2058E+02
  21.327  0.7621E+00  0.2058E+02
  21.337  0.7664E+00  0.2059E+02
  21.347  0.7709E+00  0.2060E+02
  21.357  0.7755E+00  0.2061E+02
  21.367  0.7802E+00  0.2061E+02
  21.377  0.7851E+00  0.2062E+02
  21.387  0.7902E+00  0.2063E+02
  21.397  0.7954E+00  0.2064E+02
  21.407  0.8007E+00  0.2065E+02
  21.417  0.8062E+00  0.2065E+02
  21.427  0.8118E+00  0.2066E+02
  21.437  0.8175E+00  0.2067E+02
  21.447  0.8234E+00  0.2068E+02
  21.457  0.8294E+00  0.2069E+02
  21.467  0.8356E+00  0.2069E+02
  21.477  0.8418E+00  0.2070E+02
  21.487  0.8482E+00  0.2071E+02
  21.497  0.8547E+00  0.2072E+02
  21.507  0.8613E+00  0.2073E+02
  21.517  0.8680E+00  0.2074E+02
  21.527  0.8749E+00  0.2075E+02
  21.537  0.8818E+00  0.2075E+02
  21.547  0.8888E+00  0.2076E+02
  21.557  0.8960E+00  0.2077E+02
  21.567  0.9032E+00  0.2078E+02
  21.577  0.9105E+00  0.2079E+02
  21.587  0.9178E+00  0.2080E+02
  21.597  0.9253E+00  0.2081E+02
  21.607  0.9328E+00  0.2082E+02
  21.617  0.9403E+00  0.2083E+02
  21.627  0.9479E+00  0.2084E+02
  21.637  0.9556E+00  0.2085E+02
  21.647  0.9633E+00  0.2086E+02
  21.657  0.9710E+00  0.2087E+02
  21.667  0.9788E+00  0.2088E+02
  21.677  0.9865E+00  0.2089E+02
  21.687  0.9943E+00  0.2090E+02
  21.697  0.1002E+01  0.2091E+02
  21.707  0.1010E+01  0.2092E+02
  21.717  0.1018E+01  0.2093E+02
  21.727  0.1025E+01  0.2094E+02
  21.737  0.1033E+01  0.2095E+02
  21.747  0.1041E+01  0.2096E+02
  21.757  0.1048E+01  0.2097E+02
  21.767  0.1056E+01  0.2098E+02
  21.777  0.1064E+01  0.2099E+02
  21.787  0.1071E+01  0.2100E+02
  21.797  0.1078E+01  0.2101E+02
  21.807  0.1086E+01  0.2102E+02
  21.817  0.1093E+01  0.2103E+02
  21.827  0.1100E+01  0.2104E+02
  21.837  0.1107E+01  0.2105E+02
  21.847  0.1114E+01  0.2107E+02
  21.857  0.1121E+01  0.2108E+02
  21.867  0.1128E+01  0.2109E+02
  21.877  0.1134E+01  0.2110E+02
  21.887  0.1141E+01  0.2111E+02
  21.897  0.1147E+01  0.2112E+02
  21.907  0.1153E+01  0.2113E+02
  21.917  0.1159E+01  0.2115E+02
  21.927  0.1165E+01  0.2116E+02
  21.937  0.1171E+01  0.2117E+02
  21.947  0.1176E+01  0.2118E+02
  21.957  0.1181E+01  0.2119E+02
  21.967  0.1187E+01  0.2120E+02
  21.977  0.1192E+01  0.2122E+02
  21.987  0.1196E+01  0.2123E+02
  21.997  0.1201E+01  0.2124E+02
  22.007  0.1205E+01  0.2125E+02
  22.017  0.1209E+01  0.2126E+02
  22.027  0.1214E+01  0.2128E+02
  22.037  0.1217E+01  0.2129E+02
  22.047  0.1221E+01  0.2130E+02
  22.057  0.1224E+01  0.2131E+02
  22.067  0.1227E+01  0.2133E+02
  22.077  0.1230E+01  0.2134E+02
  22.087  0.1233E+01  0.2135E+02
  22.097  0.1236E+01  0.2136E+02
  22.107  0.1238E+01  0.2137E+02
  22.117  0.1240E+01  0.2139E+02
  22.127  0.1242E+01  0.2140E+02
  22.137  0.1244E+01  0.2141E+02
  22.147  0.1245E+01  0.2142E+02
  22.157  0.1247E+01  0.2144E+02
  22.167  0.1248E+01  0.2145E+02
  22.177  0.1249E+01  0.2146E+02
  22.187  0.1250E+01  0.2147E+02
  22.197  0.1250E+01  0.2149E+02
  22.207  0.1250E+01  0.2150E+02
  22.217  0.1251E+01  0.2151E+02
  22.227  0.1251E+01  0.2152E+02
  22.237  0.1250E+01  0.2154E+02
  22.247  0.1250E+01  0.2155E+02
  22.257  0.1249E+01  0.2156E+02
  22.267  0.1249E+01  0.2157E+02
  22.277  0.1248E+01  0.2159E+02
  22.287  0.1247E+01  0.2160E+02
  22.297  0.1246E+01  0.2161E+02
  22.307  0.1244E+01  0.2162E+02
  22.317  0.1243E+01  0.2164E+02
  22.327  0.1241E+01  0.2165E+02
  22.337  0.1240E+01  0.2166E+02
  22.347  0.1238E+01  0.2167E+02
  22.357  0.1236E+01  0.2169E+02
  22.367  0.1234E+01  0.2170E+02
  22.377  0.1232E+01  0.2171E+02
  22.387  0.1230E+01  0.2172E+02
  22.397  0.1227E+01  0.2174E+02
  22.407  0.1225E+01  0.2175E+02
  22.417  0.1223E+01  0.2176E+02
  22.427  0.1220E+01  0.2177E+02
  22.437  0.1218E+01  0.2178E+02
  22.447  0.1215E+01  0.2180E+02
  22.457  0.1213E+01  0.2181E+02
  22.467  0.1210E+01  0.2182E+02
  22.477  0.1208E+01  0.2183E+02
  22.487  0.1205E+01  0.2184E+02
  22.497  0.1203E+01  0.2186E+02
  22.507  0.1201E+01  0.2187E+02
  22.517  0.1198E+01  0.2188E+02
  22.527  0.1196E+01  0.2189E+02
  22.537  0.1193E+01  0.2190E+02
  22.547  0.1191E+01  0.2192E+02
  22.557  0.1189E+01  0.2193E+02
  22.567  0.1187E+01  0.2194E+02
  22.577  0.1185E+01  0.2195E+02
  22.587  0.1183E+01  0.2196E+02
  22.597  0.1181E+01  0.2198E+02
  22.607  0.1179E+01  0.2199E+02
  22.617  0.1177E+01  0.2200E+02
  22.627  0.1176E+01  0.2201E+02
  22.637  0.1174E+01  0.2202E+02
  22.647  0.1173E+01  0.2203E+02
  22.657  0.1172E+01  0.2205E+02
  22.667  0.1171E+01  0.2206E+02
  22.677  0.1170E+01  0.2207E+02
  22.687  0.1169E+01  0.2208E+02
  22.697  0.1168E+01  0.2209E+02
  22.707  0.1168E+01  0.2210E+02
  22.717  0.1168E+01  0.2212E+02
  22.727  0.1168E+01  0.2213E+02
  22.737  0.1168E+01  0.2214E+02
  22.747  0.1168E+01  0.2215E+02
  22.757  0.1168E+01  0.2216E+02
  22.767  0.1169E+01  0.2217E+02
  22.777  0.1169E+01  0.2219E+02
  22.787  0.1170E+01  0.2220E+02
  22.797  0.1171E+01  0.2221E+02
  22.807  0.1173E+01  0.2222E+02
  22.817  0.1174E+01  0.2223E+02
  22.827  0.1176E+01  0.2225E+02
  22.837  0.1178E+01  0.2226E+02
  22.847  0.1180E+01  0.2227E+02
  22.857  0.1182E+01  0.2228E+02
  22.867  0.1184E+01  0.2229E+02
  22.877  0.1187E+01  0.2230E+02
  22.887  0.1189E+01  0.2232E+02
  22.897  0.1192E+01  0.2233E+02
  22.907  0.1195E+01  0.2234E+02
  22.917  0.1198E+01  0.2235E+02
  22.927  0.1201E+01  0.2236E+02
  22.937  0.1205E+01  0.2238E+02
  22.947  0.1208E+01  0.2239E+02
  22.957  0.1212E+01  0.2240E+02
  22.967  0.1216E+01  0.2241E+02
  22.977  0.1220E+01  0.2242E+02
  22.987  0.1224E+01  0.2244E+02
  22.997  0.1228E+01  0.2245E+02
  23.007  0.1233E+01  0.2246E+02
  23.017  0.1237E+01  0.2247E+02
  23.027  0.1242E+01  0.2249E+02
  23.037  0.1246E+01  0.2250E+02
  23.047  0.1251E+01  0.2251E+02
  23.057  0.1256E+01  0.2252E+02
  23.067  0.1260E+01  0.2254E+02
  23.077  0.1265E+01  0.2255E+02
  23.087  0.1270E+01  0.2256E+02
  23.097  0.1275E+01  0.2257E+02
  23.107  0.1280E+01  0.2259E+02
  23.117  0.1285E+01  0.2260E+02
  23.127  0.1290E+01  0.2261E+02
  23.137  0.1295E+01  0.2263E+02
  23.147  0.1300E+01  0.2264E+02
  23.157  0.1305E+01  0.2265E+02
  23.167  0.1309E+01  0.2266E+02
  23.177  0.1314E+01  0.2268E+02
  23.187  0.1319E+01  0.2269E+02
  23.197  0.1324E+01  0.2270E+02
  23.207  0.1328E+01  0.2272E+02
  23.217  0.1333E+01  0.2273E+02
  23.227  0.1337E+01  0.2274E+02
  23.237  0.1342E+01  0.2276E+02
  23.247  0.1346E+01  0.2277E+02
  23.257  0.1350E+01  0.2278E+02
  23.267  0.1354E+01  0.2280E+02
  23.277  0.1358E+01  0.2281E+02
  23.287  0.1361E+01  0.2283E+02
  23.297  0.1365E+01  0.2284E+02
  23.307  0.1368E+01  0.2285E+02
  23.317  0.1371E+01  0.2287E+02
  23.327  0.1374E+01  0.2288E+02
  23.337  0.1377E+01  0.2289E+02
  23.347  0.1380E+01  0.2291E+02
  23.357  0.1382E+01  0.2292E+02
  23.367  0.1384E+01  0.2294E+02
  23.377  0.1386E+01  0.2295E+02
  23.387  0.1388E+01  0.2296E+02
  23.397  0.1390E+01  0.2298E+02
  23.407  0.1391E+01  0.2299E+02
  23.417  0.1392E+01  0.2301E+02
  23.427  0.1393E+01  0.2302E+02
  23.437  0.1393E+01  0.2303E+02
  23.447  0.1393E+01  0.2305E+02
  23.457  0.1393E+01  0.2306E+02
  23.467  0.1393E+01  0.2307E+02
  23.477  0.1392E+01  0.2309E+02
  23.487  0.1391E+01  0.2310E+02
  23.497  0.1390E+01  0.2312E+02
  23.507  0.1389E+01  0.2313E+02
  23.517  0.1387E+01  0.2314E+02
  23.527  0.1385E+01  0.2316E+02
  23.537  0.1383E+01  0.2317E+02
  23.547  0.1381E+01  0.2319E+02
  23.557  0.1378E+01  0.2320E+02
  23.567  0.1375E+01  0.2321E+02
  23.577  0.1371E+01  0.2323E+02
  23.587  0.1368E+01  0.2324E+02
  23.597  0.1364E+01  0.2325E+02
  23.607  0.1359E+01  0.2327E+02
  23.617  0.1355E+01  0.2328E+02
  23.627  0.1350E+01  0.2329E+02
  23.637  0.1345E+01  0.2331E+02
  23.647  0.1340E+01  0.2332E+02
  23.657  0.1334E+01  0.2334E+02
  23.667  0.1328E+01  0.2335E+02
  23.677  0.1322E+01  0.2336E+02
  23.687  0.1316E+01  0.2337E+02
  23.697  0.1310E+01  0.2339E+02
  23.707  0.1303E+01  0.2340E+02
  23.717  0.1296E+01  0.2341E+02
  23.727  0.1289E+01  0.2343E+02
  23.737  0.1281E+01  0.2344E+02
  23.747  0.1274E+01  0.2345E+02
  23.757  0.1266E+01  0.2346E+02
  23.767  0.1258E+01  0.2348E+02
  23.777  0.1249E+01  0.2349E+02
  23.787  0.1241E+01  0.2350E+02
  23.797  0.1232E+01  0.2351E+02
  23.807  0.1224E+01  0.2353E+02
  23.817  0.1215E+01  0.2354E+02
  23.827  0.1206E+01  0.2355E+02
  23.837  0.1197E+01  0.2356E+02
  23.847  0.1187E+01  0.2358E+02
  23.857  0.1178E+01  0.2359E+02
  23.867  0.1168E+01  0.2360E+02
  23.877  0.1159E+01  0.2361E+02
  23.887  0.1149E+01  0.2362E+02
  23.897  0.1139E+01  0.2363E+02
  23.907  0.1130E+01  0.2364E+02
  23.917  0.1120E+01  0.2366E+02
  23.927  0.1110E+01  0.2367E+02
  23.937  0.1100E+01  0.2368E+02
  23.947  0.1090E+01  0.2369E+02
  23.957  0.1080E+01  0.2370E+02
  23.967  0.1070E+01  0.2371E+02
  23.977  0.1060E+01  0.2372E+02
  23.987  0.1050E+01  0.2373E+02
  23.997  0.1040E+01  0.2374E+02
  24.007  0.1030E+01  0.2375E+02
  24.017  0.1020E+01  0.2376E+02
  24.027  0.1010E+01  0.2377E+02
  24.037  0.1000E+01  0.2378E+02
  24.047  0.9905E+00  0.2379E+02
  24.057  0.9809E+00  0.2380E+02
  24.067  0.9713E+00  0.2381E+02
  24.077  0.9618E+00  0.2382E+02
  24.087  0.9524E+00  0.2383E+02
  24.097  0.9432E+00  0.2384E+02
  24.107  0.9340E+00  0.2385E+02
  24.117  0.9250E+00  0.2386E+02
  24.127  0.9161E+00  0.2387E+02
  24.137  0.9073E+00  0.2388E+02
  24.147  0.8987E+00  0.2389E+02
  24.157  0.8902E+00  0.2389E+02
  24.167  0.8819E+00  0.2390E+02
  24.177  0.8738E+00  0.2391E+02
  24.187  0.8658E+00  0.2392E+02
  24.197  0.8580E+00  0.2393E+02
  24.207  0.8503E+00  0.2394E+02
  24.217  0.8429E+00  0.2395E+02
  24.227  0.8356E+00  0.2395E+02
  24.237  0.8285E+00  0.2396E+02
  24.247  0.8216E+00  0.2397E+02
  24.257  0.8149E+00  0.2398E+02
  24.267  0.8085E+00  0.2399E+02
  24.277  0.8022E+00  0.2400E+02
  24.287  0.7961E+00  0.2400E+02
  24.297  0.7902E+00  0.2401E+02
  24.307  0.7845E+00  0.2402E+02
  24.317  0.7790E+00  0.2403E+02
  24.327  0.7738E+00  0.2403E+02
  24.337  0.7687E+00  0.2404E+02
  24.347  0.7639E+00  0.2405E+02
  24.357  0.7592E+00  0.2406E+02
  24.367  0.7548E+00  0.2407E+02
  24.377  0.7506E+00  0.2407E+02
  24.387  0.7466E+00  0.2408E+02
  24.397  0.7427E+00  0.2409E+02
  24.407  0.7391E+00  0.2410E+02
  24.417  0.7357E+00  0.2410E+02
  24.427  0.7325E+00  0.2411E+02
  24.437  0.7295E+00  0.2412E+02
  24.447  0.7266E+00  0.2412E+02
  24.457  0.7240E+00  0.2413E+02
  24.467  0.7215E+00  0.2414E+02
  24.477  0.7192E+00  0.2415E+02
  24.487  0.7171E+00  0.2415E+02
  24.497  0.7152E+00  0.2416E+02
  24.507  0.7134E+00  0.2417E+02
  24.517  0.7118E+00  0.2417E+02
  24.527  0.7104E+00  0.2418E+02
  24.537  0.7091E+00  0.2419E+02
  24.547  0.7079E+00  0.2420E+02
  24.557  0.7069E+00  0.2420E+02
  24.567  0.7061E+00  0.2421E+02
  24.577  0.7053E+00  0.2422E+02
  24.587  0.7047E+00  0.2422E+02
  24.597  0.7042E+00  0.2423E+02
  24.607  0.7039E+00  0.2424E+02
  24.617  0.7036E+00  0.2425E+02
  24.627  0.7035E+00  0.2425E+02
  24.637  0.7034E+00  0.2426E+02
  24.647  0.7034E+00  0.2427E+02
  24.657  0.7036E+00  0.2427E+02
  24.667  0.7038E+00  0.2428E+02
  24.677  0.7040E+00  0.2429E+02
  24.687  0.7044E+00  0.2429E+02
  24.697  0.7048E+00  0.2430E+02
  24.707  0.7053E+00  0.2431E+02
  24.717  0.7058E+00  0.2432E+02
  24.727  0.7063E+00  0.2432E+02
  24.737  0.7069E+00  0.2433E+02
  24.747  0.7075E+00  0.2434E+02
  24.757  0.7082E+00  0.2434E+02
  24.767  0.7089E+00  0.2435E+02
  24.777  0.7096E+00  0.2436E+02
  24.787  0.7103E+00  0.2437E+02
  24.797  0.7110E+00  0.2437E+02
  24.807  0.7117E+00  0.2438E+02
  24.817  0.7125E+00  0.2439E+02
  24.827  0.7132E+00  0.2439E+02
  24.837  0.7139E+00  0.2440E+02
  24.847  0.7146E+00  0.2441E+02
  24.857  0.7153E+00  0.2442E+02
  24.867  0.7159E+00  0.2442E+02
  24.877  0.7165E+00  0.2443E+02
  24.887  0.7171E+00  0.2444E+02
  24.897  0.7177E+00  0.2444E+02
  24.907  0.7182E+00  0.2445E+02
  24.917  0.7187E+00  0.2446E+02
  24.927  0.7192E+00  0.2447E+02
  24.937  0.7196E+00  0.2447E+02
  24.947  0.7200E+00  0.2448E+02
  24.957  0.7203E+00  0.2449E+02
  24.967  0.7206E+00  0.2449E+02
  24.977  0.7208E+00  0.2450E+02
  24.987  0.7210E+00  0.2451E+02
  24.997  0.7212E+00  0.2452E+02
  25.007  0.7213E+00  0.2452E+02
  25.017  0.7213E+00  0.2453E+02
  25.027  0.7213E+00  0.2454E+02
  25.037  0.7212E+00  0.2454E+02
  25.047  0.7211E+00  0.2455E+02
  25.057  0.7209E+00  0.2456E+02
  25.067  0.7207E+00  0.2457E+02
  25.077  0.7204E+00  0.2457E+02
  25.087  0.7201E+00  0.2458E+02
  25.097  0.7198E+00  0.2459E+02
  25.107  0.7193E+00  0.2460E+02
  25.117  0.7189E+00  0.2460E+02
  25.127  0.7184E+00  0.2461E+02
  25.137  0.7178E+00  0.2462E+02
  25.147  0.7172E+00  0.2462E+02
  25.157  0.7166E+00  0.2463E+02
  25.167  0.7159E+00  0.2464E+02
  25.177  0.7152E+00  0.2465E+02
  25.187  0.7145E+00  0.2465E+02
  25.197  0.7137E+00  0.2466E+02
  25.207  0.7129E+00  0.2467E+02
  25.217  0.7120E+00  0.2467E+02
  25.227  0.7111E+00  0.2468E+02
  25.237  0.7102E+00  0.2469E+02
  25.247  0.7093E+00  0.2470E+02
  25.257  0.7084E+00  0.2470E+02
  25.267  0.7074E+00  0.2471E+02
  25.277  0.7064E+00  0.2472E+02
  25.287  0.7054E+00  0.2472E+02
  25.297  0.7044E+00  0.2473E+02
  25.307  0.7034E+00  0.2474E+02
  25.317  0.7023E+00  0.2474E+02
  25.327  0.7013E+00  0.2475E+02
  25.337  0.7002E+00  0.2476E+02
  25.347  0.6992E+00  0.2477E+02
  25.357  0.6981E+00  0.2477E+02
  25.367  0.6970E+00  0.2478E+02
  25.377  0.6960E+00  0.2479E+02
  25.387  0.6949E+00  0.2479E+02
  25.397  0.6938E+00  0.2480E+02
  25.407  0.6927E+00  0.2481E+02
  25.417  0.6917E+00  0.2481E+02
  25.427  0.6906E+00  0.2482E+02
  25.437  0.6895E+00  0.2483E+02
  25.447  0.6885E+00  0.2483E+02
  25.457  0.6874E+00  0.2484E+02
  25.467  0.6864E+00  0.2485E+02
  25.477  0.6853E+00  0.2486E+02
  25.487  0.6843E+00  0.2486E+02
  25.497  0.6832E+00  0.2487E+02
  25.507  0.6822E+00  0.2488E+02
  25.517  0.6811E+00  0.2488E+02
  25.527  0.6801E+00  0.2489E+02
  25.537  0.6791E+00  0.2490E+02
