#  E (eV)   dos(E)     Int dos(E) EFermi =  17.688 eV
  -9.644  0.6719E-06  0.6719E-08
  -9.634  0.7374E-06  0.1409E-07
  -9.624  0.8089E-06  0.2218E-07
  -9.614  0.8870E-06  0.3105E-07
  -9.604  0.9723E-06  0.4078E-07
  -9.594  0.1065E-05  0.5143E-07
  -9.584  0.1167E-05  0.6310E-07
  -9.574  0.1278E-05  0.7587E-07
  -9.564  0.1398E-05  0.8986E-07
  -9.554  0.1530E-05  0.1052E-06
  -9.544  0.1673E-05  0.1219E-06
  -9.534  0.1829E-05  0.1402E-06
  -9.524  0.1998E-05  0.1601E-06
  -9.514  0.2183E-05  0.1820E-06
  -9.504  0.2383E-05  0.2058E-06
  -9.494  0.2601E-05  0.2318E-06
  -9.484  0.2838E-05  0.2602E-06
  -9.474  0.3095E-05  0.2912E-06
  -9.464  0.3375E-05  0.3249E-06
  -9.454  0.3678E-05  0.3617E-06
  -9.444  0.4006E-05  0.4017E-06
  -9.434  0.4363E-05  0.4454E-06
  -9.424  0.4749E-05  0.4929E-06
  -9.414  0.5167E-05  0.5445E-06
  -9.404  0.5621E-05  0.6007E-06
  -9.394  0.6111E-05  0.6618E-06
  -9.384  0.6642E-05  0.7283E-06
  -9.374  0.7216E-05  0.8004E-06
  -9.364  0.7837E-05  0.8788E-06
  -9.354  0.8508E-05  0.9639E-06
  -9.344  0.9233E-05  0.1056E-05
  -9.334  0.1002E-04  0.1156E-05
  -9.324  0.1086E-04  0.1265E-05
  -9.314  0.1177E-04  0.1383E-05
  -9.304  0.1276E-04  0.1510E-05
  -9.294  0.1382E-04  0.1648E-05
  -9.284  0.1496E-04  0.1798E-05
  -9.274  0.1619E-04  0.1960E-05
  -9.264  0.1752E-04  0.2135E-05
  -9.254  0.1895E-04  0.2325E-05
  -9.244  0.2048E-04  0.2530E-05
  -9.234  0.2214E-04  0.2751E-05
  -9.224  0.2391E-04  0.2990E-05
  -9.214  0.2582E-04  0.3248E-05
  -9.204  0.2787E-04  0.3527E-05
  -9.194  0.3008E-04  0.3828E-05
  -9.184  0.3244E-04  0.4152E-05
  -9.174  0.3498E-04  0.4502E-05
  -9.164  0.3770E-04  0.4879E-05
  -9.154  0.4062E-04  0.5285E-05
  -9.144  0.4375E-04  0.5723E-05
  -9.134  0.4711E-04  0.6194E-05
  -9.124  0.5070E-04  0.6701E-05
  -9.114  0.5454E-04  0.7246E-05
  -9.104  0.5865E-04  0.7833E-05
  -9.094  0.6305E-04  0.8463E-05
  -9.084  0.6775E-04  0.9141E-05
  -9.074  0.7278E-04  0.9869E-05
  -9.064  0.7815E-04  0.1065E-04
  -9.054  0.8389E-04  0.1149E-04
  -9.044  0.9001E-04  0.1239E-04
  -9.034  0.9655E-04  0.1335E-04
  -9.024  0.1035E-03  0.1439E-04
  -9.014  0.1110E-03  0.1550E-04
  -9.004  0.1189E-03  0.1669E-04
  -8.994  0.1273E-03  0.1796E-04
  -8.984  0.1363E-03  0.1932E-04
  -8.974  0.1459E-03  0.2078E-04
  -8.964  0.1561E-03  0.2234E-04
  -8.954  0.1669E-03  0.2401E-04
  -8.944  0.1784E-03  0.2580E-04
  -8.934  0.1907E-03  0.2770E-04
  -8.924  0.2037E-03  0.2974E-04
  -8.914  0.2175E-03  0.3191E-04
  -8.904  0.2321E-03  0.3424E-04
  -8.894  0.2477E-03  0.3671E-04
  -8.884  0.2642E-03  0.3936E-04
  -8.874  0.2817E-03  0.4217E-04
  -8.864  0.3003E-03  0.4518E-04
  -8.854  0.3200E-03  0.4838E-04
  -8.844  0.3408E-03  0.5178E-04
  -8.834  0.3628E-03  0.5541E-04
  -8.824  0.3862E-03  0.5927E-04
  -8.814  0.4108E-03  0.6338E-04
  -8.804  0.4369E-03  0.6775E-04
  -8.794  0.4645E-03  0.7240E-04
  -8.784  0.4937E-03  0.7733E-04
  -8.774  0.5245E-03  0.8258E-04
  -8.764  0.5570E-03  0.8815E-04
  -8.754  0.5913E-03  0.9406E-04
  -8.744  0.6275E-03  0.1003E-03
  -8.734  0.6656E-03  0.1070E-03
  -8.724  0.7059E-03  0.1141E-03
  -8.714  0.7483E-03  0.1215E-03
  -8.704  0.7929E-03  0.1295E-03
  -8.694  0.8399E-03  0.1379E-03
  -8.684  0.8894E-03  0.1468E-03
  -8.674  0.9414E-03  0.1562E-03
  -8.664  0.9962E-03  0.1661E-03
  -8.654  0.1054E-02  0.1767E-03
  -8.644  0.1114E-02  0.1878E-03
  -8.634  0.1178E-02  0.1996E-03
  -8.624  0.1244E-02  0.2120E-03
  -8.614  0.1314E-02  0.2252E-03
  -8.604  0.1388E-02  0.2390E-03
  -8.594  0.1465E-02  0.2537E-03
  -8.584  0.1545E-02  0.2691E-03
  -8.574  0.1630E-02  0.2854E-03
  -8.564  0.1718E-02  0.3026E-03
  -8.554  0.1811E-02  0.3207E-03
  -8.544  0.1908E-02  0.3398E-03
  -8.534  0.2010E-02  0.3599E-03
  -8.524  0.2116E-02  0.3811E-03
  -8.514  0.2227E-02  0.4033E-03
  -8.504  0.2343E-02  0.4268E-03
  -8.494  0.2464E-02  0.4514E-03
  -8.484  0.2590E-02  0.4773E-03
  -8.474  0.2722E-02  0.5045E-03
  -8.464  0.2860E-02  0.5331E-03
  -8.454  0.3004E-02  0.5632E-03
  -8.444  0.3154E-02  0.5947E-03
  -8.434  0.3310E-02  0.6278E-03
  -8.424  0.3472E-02  0.6625E-03
  -8.414  0.3641E-02  0.6990E-03
  -8.404  0.3817E-02  0.7371E-03
  -8.394  0.4001E-02  0.7771E-03
  -8.384  0.4191E-02  0.8190E-03
  -8.374  0.4389E-02  0.8629E-03
  -8.364  0.4595E-02  0.9089E-03
  -8.354  0.4809E-02  0.9570E-03
  -8.344  0.5031E-02  0.1007E-02
  -8.334  0.5261E-02  0.1060E-02
  -8.324  0.5500E-02  0.1115E-02
  -8.314  0.5748E-02  0.1172E-02
  -8.304  0.6005E-02  0.1232E-02
  -8.294  0.6272E-02  0.1295E-02
  -8.284  0.6548E-02  0.1361E-02
  -8.274  0.6833E-02  0.1429E-02
  -8.264  0.7129E-02  0.1500E-02
  -8.254  0.7435E-02  0.1575E-02
  -8.244  0.7751E-02  0.1652E-02
  -8.234  0.8078E-02  0.1733E-02
  -8.224  0.8416E-02  0.1817E-02
  -8.214  0.8765E-02  0.1905E-02
  -8.204  0.9125E-02  0.1996E-02
  -8.194  0.9497E-02  0.2091E-02
  -8.184  0.9881E-02  0.2190E-02
  -8.174  0.1028E-01  0.2293E-02
  -8.164  0.1069E-01  0.2399E-02
  -8.154  0.1111E-01  0.2510E-02
  -8.144  0.1154E-01  0.2626E-02
  -8.134  0.1198E-01  0.2746E-02
  -8.124  0.1244E-01  0.2870E-02
  -8.114  0.1292E-01  0.2999E-02
  -8.104  0.1340E-01  0.3133E-02
  -8.094  0.1390E-01  0.3272E-02
  -8.084  0.1441E-01  0.3416E-02
  -8.074  0.1494E-01  0.3566E-02
  -8.064  0.1548E-01  0.3721E-02
  -8.054  0.1604E-01  0.3881E-02
  -8.044  0.1661E-01  0.4047E-02
  -8.034  0.1719E-01  0.4219E-02
  -8.024  0.1779E-01  0.4397E-02
  -8.014  0.1841E-01  0.4581E-02
  -8.004  0.1904E-01  0.4771E-02
  -7.994  0.1968E-01  0.4968E-02
  -7.984  0.2034E-01  0.5172E-02
  -7.974  0.2101E-01  0.5382E-02
  -7.964  0.2170E-01  0.5599E-02
  -7.954  0.2241E-01  0.5823E-02
  -7.944  0.2313E-01  0.6054E-02
  -7.934  0.2387E-01  0.6293E-02
  -7.924  0.2462E-01  0.6539E-02
  -7.914  0.2539E-01  0.6793E-02
  -7.904  0.2617E-01  0.7055E-02
  -7.894  0.2697E-01  0.7324E-02
  -7.884  0.2779E-01  0.7602E-02
  -7.874  0.2862E-01  0.7888E-02
  -7.864  0.2946E-01  0.8183E-02
  -7.854  0.3032E-01  0.8486E-02
  -7.844  0.3120E-01  0.8798E-02
  -7.834  0.3210E-01  0.9119E-02
  -7.824  0.3300E-01  0.9449E-02
  -7.814  0.3393E-01  0.9788E-02
  -7.804  0.3487E-01  0.1014E-01
  -7.794  0.3582E-01  0.1050E-01
  -7.784  0.3679E-01  0.1086E-01
  -7.774  0.3778E-01  0.1124E-01
  -7.764  0.3878E-01  0.1163E-01
  -7.754  0.3979E-01  0.1203E-01
  -7.744  0.4082E-01  0.1243E-01
  -7.734  0.4186E-01  0.1285E-01
  -7.724  0.4292E-01  0.1328E-01
  -7.714  0.4399E-01  0.1372E-01
  -7.704  0.4508E-01  0.1417E-01
  -7.694  0.4618E-01  0.1464E-01
  -7.684  0.4729E-01  0.1511E-01
  -7.674  0.4842E-01  0.1559E-01
  -7.664  0.4956E-01  0.1609E-01
  -7.654  0.5071E-01  0.1660E-01
  -7.644  0.5187E-01  0.1711E-01
  -7.634  0.5305E-01  0.1764E-01
  -7.624  0.5424E-01  0.1819E-01
  -7.614  0.5544E-01  0.1874E-01
  -7.604  0.5665E-01  0.1931E-01
  -7.594  0.5787E-01  0.1989E-01
  -7.584  0.5910E-01  0.2048E-01
  -7.574  0.6035E-01  0.2108E-01
  -7.564  0.6160E-01  0.2170E-01
  -7.554  0.6287E-01  0.2233E-01
  -7.544  0.6414E-01  0.2297E-01
  -7.534  0.6543E-01  0.2362E-01
  -7.524  0.6672E-01  0.2429E-01
  -7.514  0.6802E-01  0.2497E-01
  -7.504  0.6934E-01  0.2566E-01
  -7.494  0.7065E-01  0.2637E-01
  -7.484  0.7198E-01  0.2709E-01
  -7.474  0.7332E-01  0.2782E-01
  -7.464  0.7466E-01  0.2857E-01
  -7.454  0.7601E-01  0.2933E-01
  -7.444  0.7737E-01  0.3010E-01
  -7.434  0.7873E-01  0.3089E-01
  -7.424  0.8010E-01  0.3169E-01
  -7.414  0.8147E-01  0.3250E-01
  -7.404  0.8286E-01  0.3333E-01
  -7.394  0.8424E-01  0.3418E-01
  -7.384  0.8564E-01  0.3503E-01
  -7.374  0.8703E-01  0.3590E-01
  -7.364  0.8843E-01  0.3679E-01
  -7.354  0.8984E-01  0.3769E-01
  -7.344  0.9125E-01  0.3860E-01
  -7.334  0.9267E-01  0.3952E-01
  -7.324  0.9408E-01  0.4047E-01
  -7.314  0.9551E-01  0.4142E-01
  -7.304  0.9693E-01  0.4239E-01
  -7.294  0.9836E-01  0.4337E-01
  -7.284  0.9979E-01  0.4437E-01
  -7.274  0.1012E+00  0.4538E-01
  -7.264  0.1027E+00  0.4641E-01
  -7.254  0.1041E+00  0.4745E-01
  -7.244  0.1055E+00  0.4851E-01
  -7.234  0.1070E+00  0.4958E-01
  -7.224  0.1084E+00  0.5066E-01
  -7.214  0.1099E+00  0.5176E-01
  -7.204  0.1113E+00  0.5287E-01
  -7.194  0.1128E+00  0.5400E-01
  -7.184  0.1142E+00  0.5514E-01
  -7.174  0.1157E+00  0.5630E-01
  -7.164  0.1171E+00  0.5747E-01
  -7.154  0.1186E+00  0.5866E-01
  -7.144  0.1200E+00  0.5986E-01
  -7.134  0.1215E+00  0.6107E-01
  -7.124  0.1230E+00  0.6230E-01
  -7.114  0.1244E+00  0.6355E-01
  -7.104  0.1259E+00  0.6481E-01
  -7.094  0.1273E+00  0.6608E-01
  -7.084  0.1288E+00  0.6737E-01
  -7.074  0.1303E+00  0.6867E-01
  -7.064  0.1317E+00  0.6999E-01
  -7.054  0.1332E+00  0.7132E-01
  -7.044  0.1346E+00  0.7266E-01
  -7.034  0.1361E+00  0.7403E-01
  -7.024  0.1375E+00  0.7540E-01
  -7.014  0.1390E+00  0.7679E-01
  -7.004  0.1405E+00  0.7819E-01
  -6.994  0.1419E+00  0.7961E-01
  -6.984  0.1434E+00  0.8105E-01
  -6.974  0.1448E+00  0.8250E-01
  -6.964  0.1463E+00  0.8396E-01
  -6.954  0.1477E+00  0.8544E-01
  -6.944  0.1492E+00  0.8693E-01
  -6.934  0.1506E+00  0.8843E-01
  -6.924  0.1520E+00  0.8995E-01
  -6.914  0.1535E+00  0.9149E-01
  -6.904  0.1549E+00  0.9304E-01
  -6.894  0.1564E+00  0.9460E-01
  -6.884  0.1578E+00  0.9618E-01
  -6.874  0.1592E+00  0.9777E-01
  -6.864  0.1606E+00  0.9938E-01
  -6.854  0.1621E+00  0.1010E+00
  -6.844  0.1635E+00  0.1026E+00
  -6.834  0.1649E+00  0.1043E+00
  -6.824  0.1663E+00  0.1059E+00
  -6.814  0.1677E+00  0.1076E+00
  -6.804  0.1691E+00  0.1093E+00
  -6.794  0.1705E+00  0.1110E+00
  -6.784  0.1719E+00  0.1127E+00
  -6.774  0.1733E+00  0.1145E+00
  -6.764  0.1746E+00  0.1162E+00
  -6.754  0.1760E+00  0.1180E+00
  -6.744  0.1774E+00  0.1198E+00
  -6.734  0.1787E+00  0.1215E+00
  -6.724  0.1801E+00  0.1233E+00
  -6.714  0.1814E+00  0.1252E+00
  -6.704  0.1827E+00  0.1270E+00
  -6.694  0.1840E+00  0.1288E+00
  -6.684  0.1853E+00  0.1307E+00
  -6.674  0.1866E+00  0.1325E+00
  -6.664  0.1879E+00  0.1344E+00
  -6.654  0.1892E+00  0.1363E+00
  -6.644  0.1905E+00  0.1382E+00
  -6.634  0.1917E+00  0.1401E+00
  -6.624  0.1930E+00  0.1421E+00
  -6.614  0.1942E+00  0.1440E+00
  -6.604  0.1954E+00  0.1460E+00
  -6.594  0.1966E+00  0.1479E+00
  -6.584  0.1978E+00  0.1499E+00
  -6.574  0.1990E+00  0.1519E+00
  -6.564  0.2001E+00  0.1539E+00
  -6.554  0.2013E+00  0.1559E+00
  -6.544  0.2024E+00  0.1579E+00
  -6.534  0.2035E+00  0.1600E+00
  -6.524  0.2046E+00  0.1620E+00
  -6.514  0.2057E+00  0.1641E+00
  -6.504  0.2067E+00  0.1661E+00
  -6.494  0.2078E+00  0.1682E+00
  -6.484  0.2088E+00  0.1703E+00
  -6.474  0.2098E+00  0.1724E+00
  -6.464  0.2108E+00  0.1745E+00
  -6.454  0.2118E+00  0.1766E+00
  -6.444  0.2128E+00  0.1788E+00
  -6.434  0.2137E+00  0.1809E+00
  -6.424  0.2147E+00  0.1830E+00
  -6.414  0.2156E+00  0.1852E+00
  -6.404  0.2165E+00  0.1874E+00
  -6.394  0.2174E+00  0.1895E+00
  -6.384  0.2182E+00  0.1917E+00
  -6.374  0.2191E+00  0.1939E+00
  -6.364  0.2199E+00  0.1961E+00
  -6.354  0.2207E+00  0.1983E+00
  -6.344  0.2215E+00  0.2005E+00
  -6.334  0.2223E+00  0.2028E+00
  -6.324  0.2231E+00  0.2050E+00
  -6.314  0.2238E+00  0.2072E+00
  -6.304  0.2246E+00  0.2095E+00
  -6.294  0.2253E+00  0.2117E+00
  -6.284  0.2260E+00  0.2140E+00
  -6.274  0.2267E+00  0.2162E+00
  -6.264  0.2274E+00  0.2185E+00
  -6.254  0.2281E+00  0.2208E+00
  -6.244  0.2287E+00  0.2231E+00
  -6.234  0.2294E+00  0.2254E+00
  -6.224  0.2300E+00  0.2277E+00
  -6.214  0.2306E+00  0.2300E+00
  -6.204  0.2313E+00  0.2323E+00
  -6.194  0.2319E+00  0.2346E+00
  -6.184  0.2325E+00  0.2369E+00
  -6.174  0.2331E+00  0.2393E+00
  -6.164  0.2337E+00  0.2416E+00
  -6.154  0.2342E+00  0.2440E+00
  -6.144  0.2348E+00  0.2463E+00
  -6.134  0.2354E+00  0.2487E+00
  -6.124  0.2360E+00  0.2510E+00
  -6.114  0.2365E+00  0.2534E+00
  -6.104  0.2371E+00  0.2558E+00
  -6.094  0.2377E+00  0.2581E+00
  -6.084  0.2382E+00  0.2605E+00
  -6.074  0.2388E+00  0.2629E+00
  -6.064  0.2394E+00  0.2653E+00
  -6.054  0.2399E+00  0.2677E+00
  -6.044  0.2405E+00  0.2701E+00
  -6.034  0.2411E+00  0.2725E+00
  -6.024  0.2417E+00  0.2749E+00
  -6.014  0.2423E+00  0.2773E+00
  -6.004  0.2429E+00  0.2798E+00
  -5.994  0.2435E+00  0.2822E+00
  -5.984  0.2441E+00  0.2847E+00
  -5.974  0.2447E+00  0.2871E+00
  -5.964  0.2453E+00  0.2896E+00
  -5.954  0.2460E+00  0.2920E+00
  -5.944  0.2466E+00  0.2945E+00
  -5.934  0.2473E+00  0.2970E+00
  -5.924  0.2480E+00  0.2994E+00
  -5.914  0.2487E+00  0.3019E+00
  -5.904  0.2494E+00  0.3044E+00
  -5.894  0.2501E+00  0.3069E+00
  -5.884  0.2508E+00  0.3094E+00
  -5.874  0.2516E+00  0.3119E+00
  -5.864  0.2523E+00  0.3145E+00
  -5.854  0.2531E+00  0.3170E+00
  -5.844  0.2539E+00  0.3195E+00
  -5.834  0.2547E+00  0.3221E+00
  -5.824  0.2555E+00  0.3246E+00
  -5.814  0.2564E+00  0.3272E+00
  -5.804  0.2572E+00  0.3298E+00
  -5.794  0.2581E+00  0.3324E+00
  -5.784  0.2590E+00  0.3349E+00
  -5.774  0.2599E+00  0.3375E+00
  -5.764  0.2608E+00  0.3401E+00
  -5.754  0.2618E+00  0.3428E+00
  -5.744  0.2627E+00  0.3454E+00
  -5.734  0.2637E+00  0.3480E+00
  -5.724  0.2647E+00  0.3507E+00
  -5.714  0.2657E+00  0.3533E+00
  -5.704  0.2667E+00  0.3560E+00
  -5.694  0.2677E+00  0.3587E+00
  -5.684  0.2688E+00  0.3614E+00
  -5.674  0.2698E+00  0.3641E+00
  -5.664  0.2709E+00  0.3668E+00
  -5.654  0.2720E+00  0.3695E+00
  -5.644  0.2731E+00  0.3722E+00
  -5.634  0.2742E+00  0.3750E+00
  -5.624  0.2753E+00  0.3777E+00
  -5.614  0.2764E+00  0.3805E+00
  -5.604  0.2776E+00  0.3833E+00
  -5.594  0.2787E+00  0.3860E+00
  -5.584  0.2799E+00  0.3888E+00
  -5.574  0.2810E+00  0.3917E+00
  -5.564  0.2822E+00  0.3945E+00
  -5.554  0.2834E+00  0.3973E+00
  -5.544  0.2845E+00  0.4002E+00
  -5.534  0.2857E+00  0.4030E+00
  -5.524  0.2869E+00  0.4059E+00
  -5.514  0.2881E+00  0.4088E+00
  -5.504  0.2892E+00  0.4117E+00
  -5.494  0.2904E+00  0.4146E+00
  -5.484  0.2916E+00  0.4175E+00
  -5.474  0.2928E+00  0.4204E+00
  -5.464  0.2940E+00  0.4233E+00
  -5.454  0.2951E+00  0.4263E+00
  -5.444  0.2963E+00  0.4293E+00
  -5.434  0.2974E+00  0.4322E+00
  -5.424  0.2986E+00  0.4352E+00
  -5.414  0.2997E+00  0.4382E+00
  -5.404  0.3009E+00  0.4412E+00
  -5.394  0.3020E+00  0.4442E+00
  -5.384  0.3031E+00  0.4473E+00
  -5.374  0.3042E+00  0.4503E+00
  -5.364  0.3053E+00  0.4534E+00
  -5.354  0.3064E+00  0.4564E+00
  -5.344  0.3075E+00  0.4595E+00
  -5.334  0.3085E+00  0.4626E+00
  -5.324  0.3096E+00  0.4657E+00
  -5.314  0.3106E+00  0.4688E+00
  -5.304  0.3116E+00  0.4719E+00
  -5.294  0.3126E+00  0.4750E+00
  -5.284  0.3136E+00  0.4782E+00
  -5.274  0.3146E+00  0.4813E+00
  -5.264  0.3155E+00  0.4845E+00
  -5.254  0.3165E+00  0.4876E+00
  -5.244  0.3174E+00  0.4908E+00
  -5.234  0.3183E+00  0.4940E+00
  -5.224  0.3192E+00  0.4972E+00
  -5.214  0.3200E+00  0.5004E+00
  -5.204  0.3209E+00  0.5036E+00
  -5.194  0.3217E+00  0.5068E+00
  -5.184  0.3225E+00  0.5100E+00
  -5.174  0.3233E+00  0.5133E+00
  -5.164  0.3240E+00  0.5165E+00
  -5.154  0.3248E+00  0.5198E+00
  -5.144  0.3255E+00  0.5230E+00
  -5.134  0.3262E+00  0.5263E+00
  -5.124  0.3269E+00  0.5295E+00
  -5.114  0.3276E+00  0.5328E+00
  -5.104  0.3283E+00  0.5361E+00
  -5.094  0.3289E+00  0.5394E+00
  -5.084  0.3295E+00  0.5427E+00
  -5.074  0.3302E+00  0.5460E+00
  -5.064  0.3307E+00  0.5493E+00
  -5.054  0.3313E+00  0.5526E+00
  -5.044  0.3319E+00  0.5559E+00
  -5.034  0.3324E+00  0.5593E+00
  -5.024  0.3330E+00  0.5626E+00
  -5.014  0.3335E+00  0.5659E+00
  -5.004  0.3340E+00  0.5693E+00
  -4.994  0.3345E+00  0.5726E+00
  -4.984  0.3349E+00  0.5760E+00
  -4.974  0.3354E+00  0.5793E+00
  -4.964  0.3359E+00  0.5827E+00
  -4.954  0.3363E+00  0.5860E+00
  -4.944  0.3367E+00  0.5894E+00
  -4.934  0.3371E+00  0.5928E+00
  -4.924  0.3376E+00  0.5961E+00
  -4.914  0.3380E+00  0.5995E+00
  -4.904  0.3383E+00  0.6029E+00
  -4.894  0.3387E+00  0.6063E+00
  -4.884  0.3391E+00  0.6097E+00
  -4.874  0.3395E+00  0.6131E+00
  -4.864  0.3398E+00  0.6165E+00
  -4.854  0.3402E+00  0.6199E+00
  -4.844  0.3405E+00  0.6233E+00
  -4.834  0.3409E+00  0.6267E+00
  -4.824  0.3412E+00  0.6301E+00
  -4.814  0.3415E+00  0.6335E+00
  -4.804  0.3419E+00  0.6369E+00
  -4.794  0.3422E+00  0.6404E+00
  -4.784  0.3425E+00  0.6438E+00
  -4.774  0.3428E+00  0.6472E+00
  -4.764  0.3431E+00  0.6506E+00
  -4.754  0.3434E+00  0.6541E+00
  -4.744  0.3437E+00  0.6575E+00
  -4.734  0.3440E+00  0.6610E+00
  -4.724  0.3443E+00  0.6644E+00
  -4.714  0.3446E+00  0.6678E+00
  -4.704  0.3449E+00  0.6713E+00
  -4.694  0.3452E+00  0.6747E+00
  -4.684  0.3455E+00  0.6782E+00
  -4.674  0.3458E+00  0.6817E+00
  -4.664  0.3461E+00  0.6851E+00
  -4.654  0.3464E+00  0.6886E+00
  -4.644  0.3466E+00  0.6921E+00
  -4.634  0.3469E+00  0.6955E+00
  -4.624  0.3472E+00  0.6990E+00
  -4.614  0.3475E+00  0.7025E+00
  -4.604  0.3477E+00  0.7059E+00
  -4.594  0.3480E+00  0.7094E+00
  -4.584  0.3483E+00  0.7129E+00
  -4.574  0.3485E+00  0.7164E+00
  -4.564  0.3488E+00  0.7199E+00
  -4.554  0.3491E+00  0.7234E+00
  -4.544  0.3493E+00  0.7269E+00
  -4.534  0.3496E+00  0.7304E+00
  -4.524  0.3498E+00  0.7339E+00
  -4.514  0.3501E+00  0.7374E+00
  -4.504  0.3503E+00  0.7409E+00
  -4.494  0.3505E+00  0.7444E+00
  -4.484  0.3508E+00  0.7479E+00
  -4.474  0.3510E+00  0.7514E+00
  -4.464  0.3512E+00  0.7549E+00
  -4.454  0.3514E+00  0.7584E+00
  -4.444  0.3517E+00  0.7619E+00
  -4.434  0.3519E+00  0.7654E+00
  -4.424  0.3521E+00  0.7690E+00
  -4.414  0.3523E+00  0.7725E+00
  -4.404  0.3525E+00  0.7760E+00
  -4.394  0.3527E+00  0.7795E+00
  -4.384  0.3529E+00  0.7831E+00
  -4.374  0.3531E+00  0.7866E+00
  -4.364  0.3533E+00  0.7901E+00
  -4.354  0.3534E+00  0.7937E+00
  -4.344  0.3536E+00  0.7972E+00
  -4.334  0.3538E+00  0.8007E+00
  -4.324  0.3540E+00  0.8043E+00
  -4.314  0.3541E+00  0.8078E+00
  -4.304  0.3543E+00  0.8114E+00
  -4.294  0.3545E+00  0.8149E+00
  -4.284  0.3546E+00  0.8185E+00
  -4.274  0.3548E+00  0.8220E+00
  -4.264  0.3550E+00  0.8256E+00
  -4.254  0.3551E+00  0.8291E+00
  -4.244  0.3553E+00  0.8327E+00
  -4.234  0.3555E+00  0.8362E+00
  -4.224  0.3556E+00  0.8398E+00
  -4.214  0.3558E+00  0.8433E+00
  -4.204  0.3560E+00  0.8469E+00
  -4.194  0.3562E+00  0.8505E+00
  -4.184  0.3564E+00  0.8540E+00
  -4.174  0.3565E+00  0.8576E+00
  -4.164  0.3567E+00  0.8612E+00
  -4.154  0.3569E+00  0.8647E+00
  -4.144  0.3572E+00  0.8683E+00
  -4.134  0.3574E+00  0.8719E+00
  -4.124  0.3576E+00  0.8754E+00
  -4.114  0.3578E+00  0.8790E+00
  -4.104  0.3581E+00  0.8826E+00
  -4.094  0.3584E+00  0.8862E+00
  -4.084  0.3587E+00  0.8898E+00
  -4.074  0.3589E+00  0.8934E+00
  -4.064  0.3593E+00  0.8970E+00
  -4.054  0.3596E+00  0.9005E+00
  -4.044  0.3599E+00  0.9041E+00
  -4.034  0.3603E+00  0.9078E+00
  -4.024  0.3607E+00  0.9114E+00
  -4.014  0.3611E+00  0.9150E+00
  -4.004  0.3615E+00  0.9186E+00
  -3.994  0.3620E+00  0.9222E+00
  -3.984  0.3624E+00  0.9258E+00
  -3.974  0.3629E+00  0.9295E+00
  -3.964  0.3634E+00  0.9331E+00
  -3.954  0.3640E+00  0.9367E+00
  -3.944  0.3645E+00  0.9404E+00
  -3.934  0.3651E+00  0.9440E+00
  -3.924  0.3658E+00  0.9477E+00
  -3.914  0.3664E+00  0.9514E+00
  -3.904  0.3671E+00  0.9550E+00
  -3.894  0.3678E+00  0.9587E+00
  -3.884  0.3685E+00  0.9624E+00
  -3.874  0.3693E+00  0.9661E+00
  -3.864  0.3701E+00  0.9698E+00
  -3.854  0.3709E+00  0.9735E+00
  -3.844  0.3718E+00  0.9772E+00
  -3.834  0.3727E+00  0.9809E+00
  -3.824  0.3736E+00  0.9847E+00
  -3.814  0.3746E+00  0.9884E+00
  -3.804  0.3756E+00  0.9922E+00
  -3.794  0.3766E+00  0.9959E+00
  -3.784  0.3776E+00  0.9997E+00
  -3.774  0.3787E+00  0.1004E+01
  -3.764  0.3798E+00  0.1007E+01
  -3.754  0.3810E+00  0.1011E+01
  -3.744  0.3821E+00  0.1015E+01
  -3.734  0.3833E+00  0.1019E+01
  -3.724  0.3846E+00  0.1023E+01
  -3.714  0.3858E+00  0.1026E+01
  -3.704  0.3871E+00  0.1030E+01
  -3.694  0.3884E+00  0.1034E+01
  -3.684  0.3898E+00  0.1038E+01
  -3.674  0.3911E+00  0.1042E+01
  -3.664  0.3925E+00  0.1046E+01
  -3.654  0.3940E+00  0.1050E+01
  -3.644  0.3954E+00  0.1054E+01
  -3.634  0.3969E+00  0.1058E+01
  -3.624  0.3983E+00  0.1062E+01
  -3.614  0.3998E+00  0.1066E+01
  -3.604  0.4014E+00  0.1070E+01
  -3.594  0.4029E+00  0.1074E+01
  -3.584  0.4045E+00  0.1078E+01
  -3.574  0.4060E+00  0.1082E+01
  -3.564  0.4076E+00  0.1086E+01
  -3.554  0.4092E+00  0.1090E+01
  -3.544  0.4108E+00  0.1094E+01
  -3.534  0.4124E+00  0.1098E+01
  -3.524  0.4140E+00  0.1102E+01
  -3.514  0.4157E+00  0.1107E+01
  -3.504  0.4173E+00  0.1111E+01
  -3.494  0.4189E+00  0.1115E+01
  -3.484  0.4206E+00  0.1119E+01
  -3.474  0.4222E+00  0.1123E+01
  -3.464  0.4239E+00  0.1128E+01
  -3.454  0.4255E+00  0.1132E+01
  -3.444  0.4271E+00  0.1136E+01
  -3.434  0.4287E+00  0.1140E+01
  -3.424  0.4304E+00  0.1145E+01
  -3.414  0.4320E+00  0.1149E+01
  -3.404  0.4336E+00  0.1153E+01
  -3.394  0.4352E+00  0.1158E+01
  -3.384  0.4367E+00  0.1162E+01
  -3.374  0.4383E+00  0.1167E+01
  -3.364  0.4399E+00  0.1171E+01
  -3.354  0.4414E+00  0.1175E+01
  -3.344  0.4429E+00  0.1180E+01
  -3.334  0.4444E+00  0.1184E+01
  -3.324  0.4459E+00  0.1189E+01
  -3.314  0.4473E+00  0.1193E+01
  -3.304  0.4488E+00  0.1198E+01
  -3.294  0.4502E+00  0.1202E+01
  -3.284  0.4515E+00  0.1207E+01
  -3.274  0.4529E+00  0.1211E+01
  -3.264  0.4542E+00  0.1216E+01
  -3.254  0.4555E+00  0.1220E+01
  -3.244  0.4568E+00  0.1225E+01
  -3.234  0.4580E+00  0.1229E+01
  -3.224  0.4593E+00  0.1234E+01
  -3.214  0.4604E+00  0.1239E+01
  -3.204  0.4616E+00  0.1243E+01
  -3.194  0.4627E+00  0.1248E+01
  -3.184  0.4638E+00  0.1253E+01
  -3.174  0.4648E+00  0.1257E+01
  -3.164  0.4658E+00  0.1262E+01
  -3.154  0.4668E+00  0.1266E+01
  -3.144  0.4677E+00  0.1271E+01
  -3.134  0.4686E+00  0.1276E+01
  -3.124  0.4695E+00  0.1281E+01
  -3.114  0.4703E+00  0.1285E+01
  -3.104  0.4711E+00  0.1290E+01
  -3.094  0.4719E+00  0.1295E+01
  -3.084  0.4726E+00  0.1299E+01
  -3.074  0.4733E+00  0.1304E+01
  -3.064  0.4739E+00  0.1309E+01
  -3.054  0.4745E+00  0.1314E+01
  -3.044  0.4751E+00  0.1318E+01
  -3.034  0.4756E+00  0.1323E+01
  -3.024  0.4761E+00  0.1328E+01
  -3.014  0.4765E+00  0.1333E+01
  -3.004  0.4770E+00  0.1337E+01
  -2.994  0.4773E+00  0.1342E+01
  -2.984  0.4776E+00  0.1347E+01
  -2.974  0.4779E+00  0.1352E+01
  -2.964  0.4782E+00  0.1357E+01
  -2.954  0.4784E+00  0.1361E+01
  -2.944  0.4786E+00  0.1366E+01
  -2.934  0.4787E+00  0.1371E+01
  -2.924  0.4788E+00  0.1376E+01
  -2.914  0.4789E+00  0.1380E+01
  -2.904  0.4789E+00  0.1385E+01
  -2.894  0.4789E+00  0.1390E+01
  -2.884  0.4788E+00  0.1395E+01
  -2.874  0.4787E+00  0.1400E+01
  -2.864  0.4786E+00  0.1404E+01
  -2.854  0.4785E+00  0.1409E+01
  -2.844  0.4783E+00  0.1414E+01
  -2.834  0.4780E+00  0.1419E+01
  -2.824  0.4778E+00  0.1424E+01
  -2.814  0.4775E+00  0.1428E+01
  -2.804  0.4771E+00  0.1433E+01
  -2.794  0.4767E+00  0.1438E+01
  -2.784  0.4763E+00  0.1443E+01
  -2.774  0.4759E+00  0.1447E+01
  -2.764  0.4754E+00  0.1452E+01
  -2.754  0.4749E+00  0.1457E+01
  -2.744  0.4744E+00  0.1462E+01
  -2.734  0.4738E+00  0.1466E+01
  -2.724  0.4732E+00  0.1471E+01
  -2.714  0.4726E+00  0.1476E+01
  -2.704  0.4720E+00  0.1481E+01
  -2.694  0.4713E+00  0.1485E+01
  -2.684  0.4706E+00  0.1490E+01
  -2.674  0.4698E+00  0.1495E+01
  -2.664  0.4691E+00  0.1499E+01
  -2.654  0.4683E+00  0.1504E+01
  -2.644  0.4675E+00  0.1509E+01
  -2.634  0.4666E+00  0.1513E+01
  -2.624  0.4658E+00  0.1518E+01
  -2.614  0.4649E+00  0.1523E+01
  -2.604  0.4640E+00  0.1527E+01
  -2.594  0.4630E+00  0.1532E+01
  -2.584  0.4621E+00  0.1537E+01
  -2.574  0.4611E+00  0.1541E+01
  -2.564  0.4602E+00  0.1546E+01
  -2.554  0.4592E+00  0.1550E+01
  -2.544  0.4582E+00  0.1555E+01
  -2.534  0.4571E+00  0.1560E+01
  -2.524  0.4561E+00  0.1564E+01
  -2.514  0.4550E+00  0.1569E+01
  -2.504  0.4540E+00  0.1573E+01
  -2.494  0.4529E+00  0.1578E+01
  -2.484  0.4518E+00  0.1582E+01
  -2.474  0.4508E+00  0.1587E+01
  -2.464  0.4497E+00  0.1591E+01
  -2.454  0.4486E+00  0.1596E+01
  -2.444  0.4475E+00  0.1600E+01
  -2.434  0.4464E+00  0.1605E+01
  -2.424  0.4453E+00  0.1609E+01
  -2.414  0.4443E+00  0.1614E+01
  -2.404  0.4432E+00  0.1618E+01
  -2.394  0.4421E+00  0.1622E+01
  -2.384  0.4411E+00  0.1627E+01
  -2.374  0.4400E+00  0.1631E+01
  -2.364  0.4390E+00  0.1636E+01
  -2.354  0.4380E+00  0.1640E+01
  -2.344  0.4370E+00  0.1644E+01
  -2.334  0.4360E+00  0.1649E+01
  -2.324  0.4350E+00  0.1653E+01
  -2.314  0.4341E+00  0.1657E+01
  -2.304  0.4332E+00  0.1662E+01
  -2.294  0.4323E+00  0.1666E+01
  -2.284  0.4314E+00  0.1670E+01
  -2.274  0.4306E+00  0.1675E+01
  -2.264  0.4298E+00  0.1679E+01
  -2.254  0.4290E+00  0.1683E+01
  -2.244  0.4283E+00  0.1688E+01
  -2.234  0.4276E+00  0.1692E+01
  -2.224  0.4269E+00  0.1696E+01
  -2.214  0.4263E+00  0.1700E+01
  -2.204  0.4258E+00  0.1705E+01
  -2.194  0.4252E+00  0.1709E+01
  -2.184  0.4248E+00  0.1713E+01
  -2.174  0.4243E+00  0.1717E+01
  -2.164  0.4240E+00  0.1722E+01
  -2.154  0.4236E+00  0.1726E+01
  -2.144  0.4234E+00  0.1730E+01
  -2.134  0.4231E+00  0.1734E+01
  -2.124  0.4230E+00  0.1739E+01
  -2.114  0.4229E+00  0.1743E+01
  -2.104  0.4228E+00  0.1747E+01
  -2.094  0.4229E+00  0.1751E+01
  -2.084  0.4229E+00  0.1755E+01
  -2.074  0.4231E+00  0.1760E+01
  -2.064  0.4233E+00  0.1764E+01
  -2.054  0.4235E+00  0.1768E+01
  -2.044  0.4239E+00  0.1772E+01
  -2.034  0.4243E+00  0.1777E+01
  -2.024  0.4248E+00  0.1781E+01
  -2.014  0.4253E+00  0.1785E+01
  -2.004  0.4259E+00  0.1789E+01
  -1.994  0.4266E+00  0.1794E+01
  -1.984  0.4273E+00  0.1798E+01
  -1.974  0.4281E+00  0.1802E+01
  -1.964  0.4290E+00  0.1807E+01
  -1.954  0.4300E+00  0.1811E+01
  -1.944  0.4310E+00  0.1815E+01
  -1.934  0.4321E+00  0.1819E+01
  -1.924  0.4332E+00  0.1824E+01
  -1.914  0.4345E+00  0.1828E+01
  -1.904  0.4358E+00  0.1832E+01
  -1.894  0.4371E+00  0.1837E+01
  -1.884  0.4385E+00  0.1841E+01
  -1.874  0.4400E+00  0.1846E+01
  -1.864  0.4416E+00  0.1850E+01
  -1.854  0.4432E+00  0.1854E+01
  -1.844  0.4449E+00  0.1859E+01
  -1.834  0.4466E+00  0.1863E+01
  -1.824  0.4484E+00  0.1868E+01
  -1.814  0.4503E+00  0.1872E+01
  -1.804  0.4522E+00  0.1877E+01
  -1.794  0.4542E+00  0.1881E+01
  -1.784  0.4562E+00  0.1886E+01
  -1.774  0.4583E+00  0.1891E+01
  -1.764  0.4604E+00  0.1895E+01
  -1.754  0.4626E+00  0.1900E+01
  -1.744  0.4648E+00  0.1904E+01
  -1.734  0.4671E+00  0.1909E+01
  -1.724  0.4694E+00  0.1914E+01
  -1.714  0.4717E+00  0.1919E+01
  -1.704  0.4741E+00  0.1923E+01
  -1.694  0.4765E+00  0.1928E+01
  -1.684  0.4790E+00  0.1933E+01
  -1.674  0.4815E+00  0.1938E+01
  -1.664  0.4840E+00  0.1942E+01
  -1.654  0.4865E+00  0.1947E+01
  -1.644  0.4890E+00  0.1952E+01
  -1.634  0.4916E+00  0.1957E+01
  -1.624  0.4942E+00  0.1962E+01
  -1.614  0.4968E+00  0.1967E+01
  -1.604  0.4994E+00  0.1972E+01
  -1.594  0.5020E+00  0.1977E+01
  -1.584  0.5047E+00  0.1982E+01
  -1.574  0.5073E+00  0.1987E+01
  -1.564  0.5099E+00  0.1992E+01
  -1.554  0.5126E+00  0.1997E+01
  -1.544  0.5152E+00  0.2003E+01
  -1.534  0.5178E+00  0.2008E+01
  -1.524  0.5204E+00  0.2013E+01
  -1.514  0.5230E+00  0.2018E+01
  -1.504  0.5256E+00  0.2023E+01
  -1.494  0.5282E+00  0.2029E+01
  -1.484  0.5308E+00  0.2034E+01
  -1.474  0.5333E+00  0.2039E+01
  -1.464  0.5358E+00  0.2045E+01
  -1.454  0.5383E+00  0.2050E+01
  -1.444  0.5408E+00  0.2056E+01
  -1.434  0.5432E+00  0.2061E+01
  -1.424  0.5456E+00  0.2066E+01
  -1.414  0.5480E+00  0.2072E+01
  -1.404  0.5504E+00  0.2077E+01
  -1.394  0.5527E+00  0.2083E+01
  -1.384  0.5550E+00  0.2088E+01
  -1.374  0.5572E+00  0.2094E+01
  -1.364  0.5594E+00  0.2100E+01
  -1.354  0.5616E+00  0.2105E+01
  -1.344  0.5637E+00  0.2111E+01
  -1.334  0.5658E+00  0.2117E+01
  -1.324  0.5678E+00  0.2122E+01
  -1.314  0.5698E+00  0.2128E+01
  -1.304  0.5718E+00  0.2134E+01
  -1.294  0.5737E+00  0.2139E+01
  -1.284  0.5755E+00  0.2145E+01
  -1.274  0.5773E+00  0.2151E+01
  -1.264  0.5791E+00  0.2157E+01
  -1.254  0.5808E+00  0.2163E+01
  -1.244  0.5825E+00  0.2168E+01
  -1.234  0.5841E+00  0.2174E+01
  -1.224  0.5857E+00  0.2180E+01
  -1.214  0.5872E+00  0.2186E+01
  -1.204  0.5887E+00  0.2192E+01
  -1.194  0.5901E+00  0.2198E+01
  -1.184  0.5915E+00  0.2204E+01
  -1.174  0.5928E+00  0.2210E+01
  -1.164  0.5941E+00  0.2215E+01
  -1.154  0.5954E+00  0.2221E+01
  -1.144  0.5966E+00  0.2227E+01
  -1.134  0.5977E+00  0.2233E+01
  -1.124  0.5988E+00  0.2239E+01
  -1.114  0.5999E+00  0.2245E+01
  -1.104  0.6009E+00  0.2251E+01
  -1.094  0.6019E+00  0.2257E+01
  -1.084  0.6028E+00  0.2263E+01
  -1.074  0.6037E+00  0.2269E+01
  -1.064  0.6046E+00  0.2276E+01
  -1.054  0.6054E+00  0.2282E+01
  -1.044  0.6061E+00  0.2288E+01
  -1.034  0.6068E+00  0.2294E+01
  -1.024  0.6075E+00  0.2300E+01
  -1.014  0.6082E+00  0.2306E+01
  -1.004  0.6088E+00  0.2312E+01
  -0.994  0.6094E+00  0.2318E+01
  -0.984  0.6099E+00  0.2324E+01
  -0.974  0.6104E+00  0.2330E+01
  -0.964  0.6109E+00  0.2336E+01
  -0.954  0.6113E+00  0.2342E+01
  -0.944  0.6117E+00  0.2349E+01
  -0.934  0.6121E+00  0.2355E+01
  -0.924  0.6124E+00  0.2361E+01
  -0.914  0.6127E+00  0.2367E+01
  -0.904  0.6130E+00  0.2373E+01
  -0.894  0.6132E+00  0.2379E+01
  -0.884  0.6134E+00  0.2385E+01
  -0.874  0.6136E+00  0.2391E+01
  -0.864  0.6137E+00  0.2398E+01
  -0.854  0.6138E+00  0.2404E+01
  -0.844  0.6139E+00  0.2410E+01
  -0.834  0.6140E+00  0.2416E+01
  -0.824  0.6140E+00  0.2422E+01
  -0.814  0.6140E+00  0.2428E+01
  -0.804  0.6139E+00  0.2434E+01
  -0.794  0.6139E+00  0.2441E+01
  -0.784  0.6138E+00  0.2447E+01
  -0.774  0.6137E+00  0.2453E+01
  -0.764  0.6135E+00  0.2459E+01
  -0.754  0.6133E+00  0.2465E+01
  -0.744  0.6131E+00  0.2471E+01
  -0.734  0.6129E+00  0.2477E+01
  -0.724  0.6126E+00  0.2484E+01
  -0.714  0.6123E+00  0.2490E+01
  -0.704  0.6120E+00  0.2496E+01
  -0.694  0.6116E+00  0.2502E+01
  -0.684  0.6112E+00  0.2508E+01
  -0.674  0.6108E+00  0.2514E+01
  -0.664  0.6104E+00  0.2520E+01
  -0.654  0.6099E+00  0.2526E+01
  -0.644  0.6094E+00  0.2532E+01
  -0.634  0.6088E+00  0.2538E+01
  -0.624  0.6082E+00  0.2545E+01
  -0.614  0.6076E+00  0.2551E+01
  -0.604  0.6070E+00  0.2557E+01
  -0.594  0.6063E+00  0.2563E+01
  -0.584  0.6056E+00  0.2569E+01
  -0.574  0.6049E+00  0.2575E+01
  -0.564  0.6041E+00  0.2581E+01
  -0.554  0.6033E+00  0.2587E+01
  -0.544  0.6025E+00  0.2593E+01
  -0.534  0.6016E+00  0.2599E+01
  -0.524  0.6007E+00  0.2605E+01
  -0.514  0.5998E+00  0.2611E+01
  -0.504  0.5988E+00  0.2617E+01
  -0.494  0.5979E+00  0.2623E+01
  -0.484  0.5968E+00  0.2629E+01
  -0.474  0.5958E+00  0.2635E+01
  -0.464  0.5947E+00  0.2641E+01
  -0.454  0.5936E+00  0.2647E+01
  -0.444  0.5924E+00  0.2653E+01
  -0.434  0.5913E+00  0.2659E+01
  -0.424  0.5901E+00  0.2665E+01
  -0.414  0.5889E+00  0.2670E+01
  -0.404  0.5876E+00  0.2676E+01
  -0.394  0.5863E+00  0.2682E+01
  -0.384  0.5850E+00  0.2688E+01
  -0.374  0.5837E+00  0.2694E+01
  -0.364  0.5823E+00  0.2700E+01
  -0.354  0.5810E+00  0.2705E+01
  -0.344  0.5796E+00  0.2711E+01
  -0.334  0.5782E+00  0.2717E+01
  -0.324  0.5767E+00  0.2723E+01
  -0.314  0.5753E+00  0.2729E+01
  -0.304  0.5738E+00  0.2734E+01
  -0.294  0.5723E+00  0.2740E+01
  -0.284  0.5708E+00  0.2746E+01
  -0.274  0.5693E+00  0.2751E+01
  -0.264  0.5678E+00  0.2757E+01
  -0.254  0.5663E+00  0.2763E+01
  -0.244  0.5648E+00  0.2768E+01
  -0.234  0.5632E+00  0.2774E+01
  -0.224  0.5617E+00  0.2780E+01
  -0.214  0.5602E+00  0.2785E+01
  -0.204  0.5586E+00  0.2791E+01
  -0.194  0.5571E+00  0.2796E+01
  -0.184  0.5555E+00  0.2802E+01
  -0.174  0.5540E+00  0.2808E+01
  -0.164  0.5525E+00  0.2813E+01
  -0.154  0.5510E+00  0.2819E+01
  -0.144  0.5495E+00  0.2824E+01
  -0.134  0.5480E+00  0.2830E+01
  -0.124  0.5465E+00  0.2835E+01
  -0.114  0.5450E+00  0.2840E+01
  -0.104  0.5436E+00  0.2846E+01
  -0.094  0.5422E+00  0.2851E+01
  -0.084  0.5408E+00  0.2857E+01
  -0.074  0.5394E+00  0.2862E+01
  -0.064  0.5380E+00  0.2867E+01
  -0.054  0.5367E+00  0.2873E+01
  -0.044  0.5354E+00  0.2878E+01
  -0.034  0.5341E+00  0.2884E+01
  -0.024  0.5329E+00  0.2889E+01
  -0.014  0.5316E+00  0.2894E+01
  -0.004  0.5305E+00  0.2899E+01
   0.006  0.5293E+00  0.2905E+01
   0.016  0.5282E+00  0.2910E+01
   0.026  0.5271E+00  0.2915E+01
   0.036  0.5261E+00  0.2921E+01
   0.046  0.5251E+00  0.2926E+01
   0.056  0.5241E+00  0.2931E+01
   0.066  0.5232E+00  0.2936E+01
   0.076  0.5223E+00  0.2942E+01
   0.086  0.5215E+00  0.2947E+01
   0.096  0.5207E+00  0.2952E+01
   0.106  0.5200E+00  0.2957E+01
   0.116  0.5193E+00  0.2962E+01
   0.126  0.5186E+00  0.2968E+01
   0.136  0.5180E+00  0.2973E+01
   0.146  0.5175E+00  0.2978E+01
   0.156  0.5170E+00  0.2983E+01
   0.166  0.5165E+00  0.2988E+01
   0.176  0.5161E+00  0.2993E+01
   0.186  0.5157E+00  0.2999E+01
   0.196  0.5154E+00  0.3004E+01
   0.206  0.5151E+00  0.3009E+01
   0.216  0.5149E+00  0.3014E+01
   0.226  0.5147E+00  0.3019E+01
   0.236  0.5146E+00  0.3024E+01
   0.246  0.5145E+00  0.3029E+01
   0.256  0.5145E+00  0.3035E+01
   0.266  0.5145E+00  0.3040E+01
   0.276  0.5146E+00  0.3045E+01
   0.286  0.5147E+00  0.3050E+01
   0.296  0.5148E+00  0.3055E+01
   0.306  0.5150E+00  0.3060E+01
   0.316  0.5153E+00  0.3065E+01
   0.326  0.5156E+00  0.3071E+01
   0.336  0.5159E+00  0.3076E+01
   0.346  0.5163E+00  0.3081E+01
   0.356  0.5167E+00  0.3086E+01
   0.366  0.5172E+00  0.3091E+01
   0.376  0.5177E+00  0.3096E+01
   0.386  0.5183E+00  0.3102E+01
   0.396  0.5188E+00  0.3107E+01
   0.406  0.5195E+00  0.3112E+01
   0.416  0.5202E+00  0.3117E+01
   0.426  0.5209E+00  0.3122E+01
   0.436  0.5216E+00  0.3128E+01
   0.446  0.5224E+00  0.3133E+01
   0.456  0.5232E+00  0.3138E+01
   0.466  0.5241E+00  0.3143E+01
   0.476  0.5250E+00  0.3149E+01
   0.486  0.5259E+00  0.3154E+01
   0.496  0.5269E+00  0.3159E+01
   0.506  0.5279E+00  0.3164E+01
   0.516  0.5289E+00  0.3170E+01
   0.526  0.5300E+00  0.3175E+01
   0.536  0.5310E+00  0.3180E+01
   0.546  0.5322E+00  0.3186E+01
   0.556  0.5333E+00  0.3191E+01
   0.566  0.5345E+00  0.3196E+01
   0.576  0.5357E+00  0.3202E+01
   0.586  0.5369E+00  0.3207E+01
   0.596  0.5382E+00  0.3212E+01
   0.606  0.5395E+00  0.3218E+01
   0.616  0.5408E+00  0.3223E+01
   0.626  0.5421E+00  0.3229E+01
   0.636  0.5435E+00  0.3234E+01
   0.646  0.5449E+00  0.3240E+01
   0.656  0.5463E+00  0.3245E+01
   0.666  0.5477E+00  0.3250E+01
   0.676  0.5492E+00  0.3256E+01
   0.686  0.5506E+00  0.3261E+01
   0.696  0.5521E+00  0.3267E+01
   0.706  0.5536E+00  0.3273E+01
   0.716  0.5552E+00  0.3278E+01
   0.726  0.5567E+00  0.3284E+01
   0.736  0.5583E+00  0.3289E+01
   0.746  0.5598E+00  0.3295E+01
   0.756  0.5614E+00  0.3300E+01
   0.766  0.5631E+00  0.3306E+01
   0.776  0.5647E+00  0.3312E+01
   0.786  0.5663E+00  0.3317E+01
   0.796  0.5680E+00  0.3323E+01
   0.806  0.5696E+00  0.3329E+01
   0.816  0.5713E+00  0.3334E+01
   0.826  0.5730E+00  0.3340E+01
   0.836  0.5747E+00  0.3346E+01
   0.846  0.5764E+00  0.3352E+01
   0.856  0.5781E+00  0.3357E+01
   0.866  0.5798E+00  0.3363E+01
   0.876  0.5815E+00  0.3369E+01
   0.886  0.5832E+00  0.3375E+01
   0.896  0.5849E+00  0.3381E+01
   0.906  0.5867E+00  0.3387E+01
   0.916  0.5884E+00  0.3393E+01
   0.926  0.5901E+00  0.3398E+01
   0.936  0.5919E+00  0.3404E+01
   0.946  0.5936E+00  0.3410E+01
   0.956  0.5953E+00  0.3416E+01
   0.966  0.5970E+00  0.3422E+01
   0.976  0.5987E+00  0.3428E+01
   0.986  0.6004E+00  0.3434E+01
   0.996  0.6021E+00  0.3440E+01
   1.006  0.6038E+00  0.3446E+01
   1.016  0.6055E+00  0.3452E+01
   1.026  0.6072E+00  0.3458E+01
   1.036  0.6088E+00  0.3464E+01
   1.046  0.6104E+00  0.3471E+01
   1.056  0.6121E+00  0.3477E+01
   1.066  0.6137E+00  0.3483E+01
   1.076  0.6152E+00  0.3489E+01
   1.086  0.6168E+00  0.3495E+01
   1.096  0.6183E+00  0.3501E+01
   1.106  0.6198E+00  0.3508E+01
   1.116  0.6213E+00  0.3514E+01
   1.126  0.6228E+00  0.3520E+01
   1.136  0.6242E+00  0.3526E+01
   1.146  0.6256E+00  0.3532E+01
   1.156  0.6269E+00  0.3539E+01
   1.166  0.6283E+00  0.3545E+01
   1.176  0.6296E+00  0.3551E+01
   1.186  0.6308E+00  0.3558E+01
   1.196  0.6320E+00  0.3564E+01
   1.206  0.6332E+00  0.3570E+01
   1.216  0.6344E+00  0.3577E+01
   1.226  0.6355E+00  0.3583E+01
   1.236  0.6365E+00  0.3589E+01
   1.246  0.6375E+00  0.3596E+01
   1.256  0.6385E+00  0.3602E+01
   1.266  0.6394E+00  0.3609E+01
   1.276  0.6403E+00  0.3615E+01
   1.286  0.6411E+00  0.3621E+01
   1.296  0.6419E+00  0.3628E+01
   1.306  0.6426E+00  0.3634E+01
   1.316  0.6433E+00  0.3641E+01
   1.326  0.6439E+00  0.3647E+01
   1.336  0.6444E+00  0.3653E+01
   1.346  0.6449E+00  0.3660E+01
   1.356  0.6454E+00  0.3666E+01
   1.366  0.6458E+00  0.3673E+01
   1.376  0.6461E+00  0.3679E+01
   1.386  0.6464E+00  0.3686E+01
   1.396  0.6466E+00  0.3692E+01
   1.406  0.6468E+00  0.3699E+01
   1.416  0.6469E+00  0.3705E+01
   1.426  0.6469E+00  0.3712E+01
   1.436  0.6469E+00  0.3718E+01
   1.446  0.6469E+00  0.3725E+01
   1.456  0.6467E+00  0.3731E+01
   1.466  0.6465E+00  0.3738E+01
   1.476  0.6463E+00  0.3744E+01
   1.486  0.6460E+00  0.3750E+01
   1.496  0.6457E+00  0.3757E+01
   1.506  0.6452E+00  0.3763E+01
   1.516  0.6448E+00  0.3770E+01
   1.526  0.6443E+00  0.3776E+01
   1.536  0.6437E+00  0.3783E+01
   1.546  0.6431E+00  0.3789E+01
   1.556  0.6424E+00  0.3796E+01
   1.566  0.6417E+00  0.3802E+01
   1.576  0.6409E+00  0.3808E+01
   1.586  0.6401E+00  0.3815E+01
   1.596  0.6392E+00  0.3821E+01
   1.606  0.6383E+00  0.3828E+01
   1.616  0.6373E+00  0.3834E+01
   1.626  0.6363E+00  0.3840E+01
   1.636  0.6353E+00  0.3847E+01
   1.646  0.6342E+00  0.3853E+01
   1.656  0.6331E+00  0.3859E+01
   1.666  0.6319E+00  0.3866E+01
   1.676  0.6307E+00  0.3872E+01
   1.686  0.6295E+00  0.3878E+01
   1.696  0.6283E+00  0.3884E+01
   1.706  0.6270E+00  0.3891E+01
   1.716  0.6257E+00  0.3897E+01
   1.726  0.6243E+00  0.3903E+01
   1.736  0.6230E+00  0.3909E+01
   1.746  0.6216E+00  0.3916E+01
   1.756  0.6202E+00  0.3922E+01
   1.766  0.6188E+00  0.3928E+01
   1.776  0.6174E+00  0.3934E+01
   1.786  0.6160E+00  0.3940E+01
   1.796  0.6146E+00  0.3947E+01
   1.806  0.6131E+00  0.3953E+01
   1.816  0.6117E+00  0.3959E+01
   1.826  0.6103E+00  0.3965E+01
   1.836  0.6088E+00  0.3971E+01
   1.846  0.6074E+00  0.3977E+01
   1.856  0.6060E+00  0.3983E+01
   1.866  0.6046E+00  0.3989E+01
   1.876  0.6031E+00  0.3995E+01
   1.886  0.6017E+00  0.4001E+01
   1.896  0.6004E+00  0.4007E+01
   1.906  0.5990E+00  0.4013E+01
   1.916  0.5977E+00  0.4019E+01
   1.926  0.5963E+00  0.4025E+01
   1.936  0.5950E+00  0.4031E+01
   1.946  0.5938E+00  0.4037E+01
   1.956  0.5925E+00  0.4043E+01
   1.966  0.5913E+00  0.4049E+01
   1.976  0.5901E+00  0.4055E+01
   1.986  0.5890E+00  0.4061E+01
   1.996  0.5879E+00  0.4067E+01
   2.006  0.5868E+00  0.4072E+01
   2.016  0.5857E+00  0.4078E+01
   2.026  0.5847E+00  0.4084E+01
   2.036  0.5838E+00  0.4090E+01
   2.046  0.5829E+00  0.4096E+01
   2.056  0.5820E+00  0.4102E+01
   2.066  0.5812E+00  0.4107E+01
   2.076  0.5804E+00  0.4113E+01
   2.086  0.5797E+00  0.4119E+01
   2.096  0.5790E+00  0.4125E+01
   2.106  0.5784E+00  0.4131E+01
   2.116  0.5778E+00  0.4136E+01
   2.126  0.5773E+00  0.4142E+01
   2.136  0.5768E+00  0.4148E+01
   2.146  0.5764E+00  0.4154E+01
   2.156  0.5761E+00  0.4159E+01
   2.166  0.5757E+00  0.4165E+01
   2.176  0.5755E+00  0.4171E+01
   2.186  0.5753E+00  0.4177E+01
   2.196  0.5752E+00  0.4182E+01
   2.206  0.5751E+00  0.4188E+01
   2.216  0.5751E+00  0.4194E+01
   2.226  0.5751E+00  0.4200E+01
   2.236  0.5752E+00  0.4205E+01
   2.246  0.5754E+00  0.4211E+01
   2.256  0.5756E+00  0.4217E+01
   2.266  0.5759E+00  0.4223E+01
   2.276  0.5762E+00  0.4229E+01
   2.286  0.5766E+00  0.4234E+01
   2.296  0.5770E+00  0.4240E+01
   2.306  0.5775E+00  0.4246E+01
   2.316  0.5781E+00  0.4252E+01
   2.326  0.5787E+00  0.4257E+01
   2.336  0.5794E+00  0.4263E+01
   2.346  0.5801E+00  0.4269E+01
   2.356  0.5809E+00  0.4275E+01
   2.366  0.5817E+00  0.4281E+01
   2.376  0.5826E+00  0.4286E+01
   2.386  0.5835E+00  0.4292E+01
   2.396  0.5845E+00  0.4298E+01
   2.406  0.5856E+00  0.4304E+01
   2.416  0.5867E+00  0.4310E+01
   2.426  0.5878E+00  0.4316E+01
   2.436  0.5890E+00  0.4322E+01
   2.446  0.5903E+00  0.4328E+01
   2.456  0.5916E+00  0.4333E+01
   2.466  0.5929E+00  0.4339E+01
   2.476  0.5943E+00  0.4345E+01
   2.486  0.5958E+00  0.4351E+01
   2.496  0.5973E+00  0.4357E+01
   2.506  0.5988E+00  0.4363E+01
   2.516  0.6004E+00  0.4369E+01
   2.526  0.6020E+00  0.4375E+01
   2.536  0.6036E+00  0.4381E+01
   2.546  0.6053E+00  0.4387E+01
   2.556  0.6071E+00  0.4393E+01
   2.566  0.6088E+00  0.4400E+01
   2.576  0.6107E+00  0.4406E+01
   2.586  0.6125E+00  0.4412E+01
   2.596  0.6144E+00  0.4418E+01
   2.606  0.6163E+00  0.4424E+01
   2.616  0.6183E+00  0.4430E+01
   2.626  0.6203E+00  0.4436E+01
   2.636  0.6223E+00  0.4443E+01
   2.646  0.6244E+00  0.4449E+01
   2.656  0.6265E+00  0.4455E+01
   2.666  0.6286E+00  0.4461E+01
   2.676  0.6307E+00  0.4468E+01
   2.686  0.6329E+00  0.4474E+01
   2.696  0.6351E+00  0.4480E+01
   2.706  0.6373E+00  0.4487E+01
   2.716  0.6396E+00  0.4493E+01
   2.726  0.6419E+00  0.4500E+01
   2.736  0.6442E+00  0.4506E+01
   2.746  0.6465E+00  0.4513E+01
   2.756  0.6489E+00  0.4519E+01
   2.766  0.6513E+00  0.4526E+01
   2.776  0.6536E+00  0.4532E+01
   2.786  0.6561E+00  0.4539E+01
   2.796  0.6585E+00  0.4545E+01
   2.806  0.6609E+00  0.4552E+01
   2.816  0.6634E+00  0.4558E+01
   2.826  0.6659E+00  0.4565E+01
   2.836  0.6683E+00  0.4572E+01
   2.846  0.6708E+00  0.4579E+01
   2.856  0.6733E+00  0.4585E+01
   2.866  0.6759E+00  0.4592E+01
   2.876  0.6784E+00  0.4599E+01
   2.886  0.6809E+00  0.4606E+01
   2.896  0.6834E+00  0.4612E+01
   2.906  0.6860E+00  0.4619E+01
   2.916  0.6885E+00  0.4626E+01
   2.926  0.6910E+00  0.4633E+01
   2.936  0.6936E+00  0.4640E+01
   2.946  0.6961E+00  0.4647E+01
   2.956  0.6986E+00  0.4654E+01
   2.966  0.7011E+00  0.4661E+01
   2.976  0.7036E+00  0.4668E+01
   2.986  0.7061E+00  0.4675E+01
   2.996  0.7086E+00  0.4682E+01
   3.006  0.7111E+00  0.4689E+01
   3.016  0.7135E+00  0.4696E+01
   3.026  0.7159E+00  0.4704E+01
   3.036  0.7183E+00  0.4711E+01
   3.046  0.7207E+00  0.4718E+01
   3.056  0.7230E+00  0.4725E+01
   3.066  0.7253E+00  0.4732E+01
   3.076  0.7276E+00  0.4740E+01
   3.086  0.7299E+00  0.4747E+01
   3.096  0.7321E+00  0.4754E+01
   3.106  0.7342E+00  0.4762E+01
   3.116  0.7364E+00  0.4769E+01
   3.126  0.7384E+00  0.4776E+01
   3.136  0.7405E+00  0.4784E+01
   3.146  0.7424E+00  0.4791E+01
   3.156  0.7444E+00  0.4799E+01
   3.166  0.7462E+00  0.4806E+01
   3.176  0.7480E+00  0.4814E+01
   3.186  0.7498E+00  0.4821E+01
   3.196  0.7515E+00  0.4829E+01
   3.206  0.7531E+00  0.4836E+01
   3.216  0.7546E+00  0.4844E+01
   3.226  0.7561E+00  0.4851E+01
   3.236  0.7575E+00  0.4859E+01
   3.246  0.7588E+00  0.4866E+01
   3.256  0.7600E+00  0.4874E+01
   3.266  0.7612E+00  0.4882E+01
   3.276  0.7622E+00  0.4889E+01
   3.286  0.7632E+00  0.4897E+01
   3.296  0.7641E+00  0.4905E+01
   3.306  0.7649E+00  0.4912E+01
   3.316  0.7656E+00  0.4920E+01
   3.326  0.7662E+00  0.4928E+01
   3.336  0.7667E+00  0.4935E+01
   3.346  0.7671E+00  0.4943E+01
   3.356  0.7674E+00  0.4951E+01
   3.366  0.7676E+00  0.4958E+01
   3.376  0.7677E+00  0.4966E+01
   3.386  0.7677E+00  0.4974E+01
   3.396  0.7676E+00  0.4981E+01
   3.406  0.7673E+00  0.4989E+01
   3.416  0.7670E+00  0.4997E+01
   3.426  0.7665E+00  0.5004E+01
   3.436  0.7660E+00  0.5012E+01
   3.446  0.7653E+00  0.5020E+01
   3.456  0.7645E+00  0.5027E+01
   3.466  0.7636E+00  0.5035E+01
   3.476  0.7626E+00  0.5042E+01
   3.486  0.7614E+00  0.5050E+01
   3.496  0.7602E+00  0.5058E+01
   3.506  0.7588E+00  0.5065E+01
   3.516  0.7573E+00  0.5073E+01
   3.526  0.7558E+00  0.5080E+01
   3.536  0.7541E+00  0.5088E+01
   3.546  0.7523E+00  0.5095E+01
   3.556  0.7504E+00  0.5103E+01
   3.566  0.7484E+00  0.5110E+01
   3.576  0.7462E+00  0.5118E+01
   3.586  0.7440E+00  0.5125E+01
   3.596  0.7417E+00  0.5133E+01
   3.606  0.7393E+00  0.5140E+01
   3.616  0.7368E+00  0.5148E+01
   3.626  0.7342E+00  0.5155E+01
   3.636  0.7315E+00  0.5162E+01
   3.646  0.7287E+00  0.5169E+01
   3.656  0.7258E+00  0.5177E+01
   3.666  0.7229E+00  0.5184E+01
   3.676  0.7199E+00  0.5191E+01
   3.686  0.7168E+00  0.5198E+01
   3.696  0.7136E+00  0.5205E+01
   3.706  0.7104E+00  0.5213E+01
   3.716  0.7071E+00  0.5220E+01
   3.726  0.7038E+00  0.5227E+01
   3.736  0.7004E+00  0.5234E+01
   3.746  0.6970E+00  0.5241E+01
   3.756  0.6935E+00  0.5248E+01
   3.766  0.6900E+00  0.5254E+01
   3.776  0.6864E+00  0.5261E+01
   3.786  0.6828E+00  0.5268E+01
   3.796  0.6792E+00  0.5275E+01
   3.806  0.6756E+00  0.5282E+01
   3.816  0.6720E+00  0.5288E+01
   3.826  0.6684E+00  0.5295E+01
   3.836  0.6647E+00  0.5302E+01
   3.846  0.6611E+00  0.5308E+01
   3.856  0.6575E+00  0.5315E+01
   3.866  0.6538E+00  0.5322E+01
   3.876  0.6503E+00  0.5328E+01
   3.886  0.6467E+00  0.5334E+01
   3.896  0.6432E+00  0.5341E+01
   3.906  0.6397E+00  0.5347E+01
   3.916  0.6362E+00  0.5354E+01
   3.926  0.6328E+00  0.5360E+01
   3.936  0.6295E+00  0.5366E+01
   3.946  0.6262E+00  0.5373E+01
   3.956  0.6230E+00  0.5379E+01
   3.966  0.6198E+00  0.5385E+01
   3.976  0.6167E+00  0.5391E+01
   3.986  0.6137E+00  0.5397E+01
   3.996  0.6108E+00  0.5403E+01
   4.006  0.6080E+00  0.5409E+01
   4.016  0.6053E+00  0.5416E+01
   4.026  0.6026E+00  0.5422E+01
   4.036  0.6001E+00  0.5428E+01
   4.046  0.5977E+00  0.5434E+01
   4.056  0.5954E+00  0.5439E+01
   4.066  0.5932E+00  0.5445E+01
   4.076  0.5912E+00  0.5451E+01
   4.086  0.5892E+00  0.5457E+01
   4.096  0.5874E+00  0.5463E+01
   4.106  0.5858E+00  0.5469E+01
   4.116  0.5842E+00  0.5475E+01
   4.126  0.5829E+00  0.5481E+01
   4.136  0.5816E+00  0.5486E+01
   4.146  0.5805E+00  0.5492E+01
   4.156  0.5796E+00  0.5498E+01
   4.166  0.5788E+00  0.5504E+01
   4.176  0.5782E+00  0.5510E+01
   4.186  0.5777E+00  0.5515E+01
   4.196  0.5774E+00  0.5521E+01
   4.206  0.5772E+00  0.5527E+01
   4.216  0.5773E+00  0.5533E+01
   4.226  0.5774E+00  0.5538E+01
   4.236  0.5778E+00  0.5544E+01
   4.246  0.5783E+00  0.5550E+01
   4.256  0.5790E+00  0.5556E+01
   4.266  0.5798E+00  0.5562E+01
   4.276  0.5808E+00  0.5567E+01
   4.286  0.5820E+00  0.5573E+01
   4.296  0.5834E+00  0.5579E+01
   4.306  0.5849E+00  0.5585E+01
   4.316  0.5866E+00  0.5591E+01
   4.326  0.5885E+00  0.5597E+01
   4.336  0.5905E+00  0.5603E+01
   4.346  0.5927E+00  0.5609E+01
   4.356  0.5950E+00  0.5614E+01
   4.366  0.5976E+00  0.5620E+01
   4.376  0.6002E+00  0.5626E+01
   4.386  0.6031E+00  0.5632E+01
   4.396  0.6061E+00  0.5639E+01
   4.406  0.6092E+00  0.5645E+01
   4.416  0.6125E+00  0.5651E+01
   4.426  0.6159E+00  0.5657E+01
   4.436  0.6195E+00  0.5663E+01
   4.446  0.6233E+00  0.5669E+01
   4.456  0.6271E+00  0.5676E+01
   4.466  0.6311E+00  0.5682E+01
   4.476  0.6352E+00  0.5688E+01
   4.486  0.6395E+00  0.5695E+01
   4.496  0.6439E+00  0.5701E+01
   4.506  0.6484E+00  0.5708E+01
   4.516  0.6530E+00  0.5714E+01
   4.526  0.6577E+00  0.5721E+01
   4.536  0.6625E+00  0.5727E+01
   4.546  0.6674E+00  0.5734E+01
   4.556  0.6724E+00  0.5741E+01
   4.566  0.6775E+00  0.5748E+01
   4.576  0.6826E+00  0.5754E+01
   4.586  0.6879E+00  0.5761E+01
   4.596  0.6932E+00  0.5768E+01
   4.606  0.6985E+00  0.5775E+01
   4.616  0.7040E+00  0.5782E+01
   4.626  0.7095E+00  0.5789E+01
   4.636  0.7150E+00  0.5796E+01
   4.646  0.7206E+00  0.5804E+01
   4.656  0.7262E+00  0.5811E+01
   4.666  0.7318E+00  0.5818E+01
   4.676  0.7375E+00  0.5826E+01
   4.686  0.7431E+00  0.5833E+01
   4.696  0.7488E+00  0.5840E+01
   4.706  0.7545E+00  0.5848E+01
   4.716  0.7602E+00  0.5856E+01
   4.726  0.7658E+00  0.5863E+01
   4.736  0.7715E+00  0.5871E+01
   4.746  0.7771E+00  0.5879E+01
   4.756  0.7827E+00  0.5887E+01
   4.766  0.7883E+00  0.5894E+01
   4.776  0.7938E+00  0.5902E+01
   4.786  0.7993E+00  0.5910E+01
   4.796  0.8048E+00  0.5918E+01
   4.806  0.8101E+00  0.5927E+01
   4.816  0.8155E+00  0.5935E+01
   4.826  0.8207E+00  0.5943E+01
   4.836  0.8259E+00  0.5951E+01
   4.846  0.8310E+00  0.5959E+01
   4.856  0.8360E+00  0.5968E+01
   4.866  0.8409E+00  0.5976E+01
   4.876  0.8457E+00  0.5985E+01
   4.886  0.8505E+00  0.5993E+01
   4.896  0.8551E+00  0.6002E+01
   4.906  0.8596E+00  0.6010E+01
   4.916  0.8640E+00  0.6019E+01
   4.926  0.8683E+00  0.6028E+01
   4.936  0.8724E+00  0.6036E+01
   4.946  0.8765E+00  0.6045E+01
   4.956  0.8804E+00  0.6054E+01
   4.966  0.8842E+00  0.6063E+01
   4.976  0.8878E+00  0.6072E+01
   4.986  0.8913E+00  0.6081E+01
   4.996  0.8947E+00  0.6090E+01
   5.006  0.8979E+00  0.6099E+01
   5.016  0.9010E+00  0.6108E+01
   5.026  0.9039E+00  0.6117E+01
   5.036  0.9067E+00  0.6126E+01
   5.046  0.9094E+00  0.6135E+01
   5.056  0.9118E+00  0.6144E+01
   5.066  0.9142E+00  0.6153E+01
   5.076  0.9163E+00  0.6162E+01
   5.086  0.9184E+00  0.6171E+01
   5.096  0.9202E+00  0.6181E+01
   5.106  0.9219E+00  0.6190E+01
   5.116  0.9235E+00  0.6199E+01
   5.126  0.9249E+00  0.6208E+01
   5.136  0.9261E+00  0.6218E+01
   5.146  0.9272E+00  0.6227E+01
   5.156  0.9281E+00  0.6236E+01
   5.166  0.9289E+00  0.6245E+01
   5.176  0.9295E+00  0.6255E+01
   5.186  0.9300E+00  0.6264E+01
   5.196  0.9303E+00  0.6273E+01
   5.206  0.9305E+00  0.6283E+01
   5.216  0.9305E+00  0.6292E+01
   5.226  0.9304E+00  0.6301E+01
   5.236  0.9302E+00  0.6310E+01
   5.246  0.9298E+00  0.6320E+01
   5.256  0.9292E+00  0.6329E+01
   5.266  0.9286E+00  0.6338E+01
   5.276  0.9278E+00  0.6348E+01
   5.286  0.9268E+00  0.6357E+01
   5.296  0.9258E+00  0.6366E+01
   5.306  0.9246E+00  0.6375E+01
   5.316  0.9233E+00  0.6385E+01
   5.326  0.9219E+00  0.6394E+01
   5.336  0.9204E+00  0.6403E+01
   5.346  0.9188E+00  0.6412E+01
   5.356  0.9171E+00  0.6421E+01
   5.366  0.9153E+00  0.6431E+01
   5.376  0.9133E+00  0.6440E+01
   5.386  0.9113E+00  0.6449E+01
   5.396  0.9092E+00  0.6458E+01
   5.406  0.9070E+00  0.6467E+01
   5.416  0.9048E+00  0.6476E+01
   5.426  0.9024E+00  0.6485E+01
   5.436  0.9000E+00  0.6494E+01
   5.446  0.8976E+00  0.6503E+01
   5.456  0.8950E+00  0.6512E+01
   5.466  0.8924E+00  0.6521E+01
   5.476  0.8898E+00  0.6530E+01
   5.486  0.8870E+00  0.6539E+01
   5.496  0.8843E+00  0.6548E+01
   5.506  0.8815E+00  0.6556E+01
   5.516  0.8786E+00  0.6565E+01
   5.526  0.8758E+00  0.6574E+01
   5.536  0.8729E+00  0.6583E+01
   5.546  0.8699E+00  0.6591E+01
   5.556  0.8670E+00  0.6600E+01
   5.566  0.8640E+00  0.6609E+01
   5.576  0.8610E+00  0.6617E+01
   5.586  0.8580E+00  0.6626E+01
   5.596  0.8549E+00  0.6634E+01
   5.606  0.8519E+00  0.6643E+01
   5.616  0.8488E+00  0.6651E+01
   5.626  0.8458E+00  0.6660E+01
   5.636  0.8427E+00  0.6668E+01
   5.646  0.8397E+00  0.6677E+01
   5.656  0.8367E+00  0.6685E+01
   5.666  0.8336E+00  0.6693E+01
   5.676  0.8306E+00  0.6702E+01
   5.686  0.8276E+00  0.6710E+01
   5.696  0.8246E+00  0.6718E+01
   5.706  0.8216E+00  0.6726E+01
   5.716  0.8187E+00  0.6735E+01
   5.726  0.8157E+00  0.6743E+01
   5.736  0.8128E+00  0.6751E+01
   5.746  0.8099E+00  0.6759E+01
   5.756  0.8070E+00  0.6767E+01
   5.766  0.8042E+00  0.6775E+01
   5.776  0.8014E+00  0.6783E+01
   5.786  0.7986E+00  0.6791E+01
   5.796  0.7958E+00  0.6799E+01
   5.806  0.7931E+00  0.6807E+01
   5.816  0.7904E+00  0.6815E+01
   5.826  0.7877E+00  0.6823E+01
   5.836  0.7851E+00  0.6831E+01
   5.846  0.7825E+00  0.6838E+01
   5.856  0.7799E+00  0.6846E+01
   5.866  0.7773E+00  0.6854E+01
   5.876  0.7748E+00  0.6862E+01
   5.886  0.7723E+00  0.6869E+01
   5.896  0.7699E+00  0.6877E+01
   5.906  0.7675E+00  0.6885E+01
   5.916  0.7651E+00  0.6892E+01
   5.926  0.7628E+00  0.6900E+01
   5.936  0.7605E+00  0.6908E+01
   5.946  0.7582E+00  0.6915E+01
   5.956  0.7559E+00  0.6923E+01
   5.966  0.7537E+00  0.6930E+01
   5.976  0.7516E+00  0.6938E+01
   5.986  0.7494E+00  0.6945E+01
   5.996  0.7473E+00  0.6953E+01
   6.006  0.7452E+00  0.6960E+01
   6.016  0.7432E+00  0.6968E+01
   6.026  0.7412E+00  0.6975E+01
   6.036  0.7392E+00  0.6983E+01
   6.046  0.7373E+00  0.6990E+01
   6.056  0.7354E+00  0.6997E+01
   6.066  0.7335E+00  0.7005E+01
   6.076  0.7317E+00  0.7012E+01
   6.086  0.7299E+00  0.7019E+01
   6.096  0.7281E+00  0.7027E+01
   6.106  0.7264E+00  0.7034E+01
   6.116  0.7247E+00  0.7041E+01
   6.126  0.7231E+00  0.7048E+01
   6.136  0.7214E+00  0.7055E+01
   6.146  0.7199E+00  0.7063E+01
   6.156  0.7183E+00  0.7070E+01
   6.166  0.7168E+00  0.7077E+01
   6.176  0.7154E+00  0.7084E+01
   6.186  0.7140E+00  0.7091E+01
   6.196  0.7126E+00  0.7098E+01
   6.206  0.7113E+00  0.7106E+01
   6.216  0.7100E+00  0.7113E+01
   6.226  0.7088E+00  0.7120E+01
   6.236  0.7076E+00  0.7127E+01
   6.246  0.7065E+00  0.7134E+01
   6.256  0.7054E+00  0.7141E+01
   6.266  0.7044E+00  0.7148E+01
   6.276  0.7034E+00  0.7155E+01
   6.286  0.7025E+00  0.7162E+01
   6.296  0.7017E+00  0.7169E+01
   6.306  0.7009E+00  0.7176E+01
   6.316  0.7002E+00  0.7183E+01
   6.326  0.6996E+00  0.7190E+01
   6.336  0.6990E+00  0.7197E+01
   6.346  0.6985E+00  0.7204E+01
   6.356  0.6981E+00  0.7211E+01
   6.366  0.6977E+00  0.7218E+01
   6.376  0.6974E+00  0.7225E+01
   6.386  0.6972E+00  0.7232E+01
   6.396  0.6971E+00  0.7239E+01
   6.406  0.6971E+00  0.7246E+01
   6.416  0.6972E+00  0.7253E+01
   6.426  0.6973E+00  0.7260E+01
   6.436  0.6975E+00  0.7267E+01
   6.446  0.6979E+00  0.7274E+01
   6.456  0.6983E+00  0.7281E+01
   6.466  0.6988E+00  0.7288E+01
   6.476  0.6995E+00  0.7295E+01
   6.486  0.7002E+00  0.7302E+01
   6.496  0.7010E+00  0.7309E+01
   6.506  0.7020E+00  0.7316E+01
   6.516  0.7030E+00  0.7323E+01
   6.526  0.7042E+00  0.7330E+01
   6.536  0.7054E+00  0.7337E+01
   6.546  0.7068E+00  0.7344E+01
   6.556  0.7083E+00  0.7351E+01
   6.566  0.7099E+00  0.7358E+01
   6.576  0.7116E+00  0.7365E+01
   6.586  0.7135E+00  0.7372E+01
   6.596  0.7154E+00  0.7380E+01
   6.606  0.7175E+00  0.7387E+01
   6.616  0.7196E+00  0.7394E+01
   6.626  0.7219E+00  0.7401E+01
   6.636  0.7243E+00  0.7408E+01
   6.646  0.7269E+00  0.7416E+01
   6.656  0.7295E+00  0.7423E+01
   6.666  0.7322E+00  0.7430E+01
   6.676  0.7351E+00  0.7438E+01
   6.686  0.7381E+00  0.7445E+01
   6.696  0.7412E+00  0.7452E+01
   6.706  0.7443E+00  0.7460E+01
   6.716  0.7476E+00  0.7467E+01
   6.726  0.7510E+00  0.7475E+01
   6.736  0.7545E+00  0.7482E+01
   6.746  0.7581E+00  0.7490E+01
   6.756  0.7618E+00  0.7498E+01
   6.766  0.7656E+00  0.7505E+01
   6.776  0.7695E+00  0.7513E+01
   6.786  0.7735E+00  0.7521E+01
   6.796  0.7775E+00  0.7528E+01
   6.806  0.7816E+00  0.7536E+01
   6.816  0.7858E+00  0.7544E+01
   6.826  0.7901E+00  0.7552E+01
   6.836  0.7945E+00  0.7560E+01
   6.846  0.7989E+00  0.7568E+01
   6.856  0.8033E+00  0.7576E+01
   6.866  0.8078E+00  0.7584E+01
   6.876  0.8124E+00  0.7592E+01
   6.886  0.8170E+00  0.7600E+01
   6.896  0.8216E+00  0.7609E+01
   6.906  0.8263E+00  0.7617E+01
   6.916  0.8310E+00  0.7625E+01
   6.926  0.8357E+00  0.7634E+01
   6.936  0.8404E+00  0.7642E+01
   6.946  0.8452E+00  0.7650E+01
   6.956  0.8499E+00  0.7659E+01
   6.966  0.8546E+00  0.7667E+01
   6.976  0.8593E+00  0.7676E+01
   6.986  0.8641E+00  0.7685E+01
   6.996  0.8687E+00  0.7693E+01
   7.006  0.8734E+00  0.7702E+01
   7.016  0.8780E+00  0.7711E+01
   7.026  0.8826E+00  0.7720E+01
   7.036  0.8871E+00  0.7729E+01
   7.046  0.8916E+00  0.7737E+01
   7.056  0.8960E+00  0.7746E+01
   7.066  0.9004E+00  0.7755E+01
   7.076  0.9047E+00  0.7765E+01
   7.086  0.9089E+00  0.7774E+01
   7.096  0.9130E+00  0.7783E+01
   7.106  0.9171E+00  0.7792E+01
   7.116  0.9210E+00  0.7801E+01
   7.126  0.9249E+00  0.7810E+01
   7.136  0.9286E+00  0.7820E+01
   7.146  0.9322E+00  0.7829E+01
   7.156  0.9358E+00  0.7838E+01
   7.166  0.9391E+00  0.7848E+01
   7.176  0.9424E+00  0.7857E+01
   7.186  0.9456E+00  0.7867E+01
   7.196  0.9486E+00  0.7876E+01
   7.206  0.9515E+00  0.7886E+01
   7.216  0.9542E+00  0.7895E+01
   7.226  0.9568E+00  0.7905E+01
   7.236  0.9592E+00  0.7914E+01
   7.246  0.9615E+00  0.7924E+01
   7.256  0.9637E+00  0.7934E+01
   7.266  0.9656E+00  0.7943E+01
   7.276  0.9675E+00  0.7953E+01
   7.286  0.9691E+00  0.7963E+01
   7.296  0.9706E+00  0.7972E+01
   7.306  0.9720E+00  0.7982E+01
   7.316  0.9731E+00  0.7992E+01
   7.326  0.9741E+00  0.8001E+01
   7.336  0.9750E+00  0.8011E+01
   7.346  0.9757E+00  0.8021E+01
   7.356  0.9762E+00  0.8031E+01
   7.366  0.9765E+00  0.8041E+01
   7.376  0.9767E+00  0.8050E+01
   7.386  0.9767E+00  0.8060E+01
   7.396  0.9765E+00  0.8070E+01
   7.406  0.9762E+00  0.8080E+01
   7.416  0.9757E+00  0.8089E+01
   7.426  0.9750E+00  0.8099E+01
   7.436  0.9742E+00  0.8109E+01
   7.446  0.9732E+00  0.8119E+01
   7.456  0.9721E+00  0.8128E+01
   7.466  0.9708E+00  0.8138E+01
   7.476  0.9694E+00  0.8148E+01
   7.486  0.9678E+00  0.8157E+01
   7.496  0.9661E+00  0.8167E+01
   7.506  0.9642E+00  0.8177E+01
   7.516  0.9622E+00  0.8186E+01
   7.526  0.9601E+00  0.8196E+01
   7.536  0.9578E+00  0.8205E+01
   7.546  0.9554E+00  0.8215E+01
   7.556  0.9529E+00  0.8225E+01
   7.566  0.9503E+00  0.8234E+01
   7.576  0.9475E+00  0.8244E+01
   7.586  0.9447E+00  0.8253E+01
   7.596  0.9417E+00  0.8262E+01
   7.606  0.9387E+00  0.8272E+01
   7.616  0.9356E+00  0.8281E+01
   7.626  0.9324E+00  0.8290E+01
   7.636  0.9291E+00  0.8300E+01
   7.646  0.9257E+00  0.8309E+01
   7.656  0.9223E+00  0.8318E+01
   7.666  0.9187E+00  0.8327E+01
   7.676  0.9152E+00  0.8337E+01
   7.686  0.9116E+00  0.8346E+01
   7.696  0.9079E+00  0.8355E+01
   7.706  0.9042E+00  0.8364E+01
   7.716  0.9005E+00  0.8373E+01
   7.726  0.8967E+00  0.8382E+01
   7.736  0.8929E+00  0.8391E+01
   7.746  0.8891E+00  0.8400E+01
   7.756  0.8853E+00  0.8408E+01
   7.766  0.8814E+00  0.8417E+01
   7.776  0.8776E+00  0.8426E+01
   7.786  0.8738E+00  0.8435E+01
   7.796  0.8699E+00  0.8443E+01
   7.806  0.8661E+00  0.8452E+01
   7.816  0.8623E+00  0.8461E+01
   7.826  0.8586E+00  0.8469E+01
   7.836  0.8548E+00  0.8478E+01
   7.846  0.8511E+00  0.8486E+01
   7.856  0.8475E+00  0.8495E+01
   7.866  0.8438E+00  0.8503E+01
   7.876  0.8403E+00  0.8512E+01
   7.886  0.8367E+00  0.8520E+01
   7.896  0.8333E+00  0.8528E+01
   7.906  0.8299E+00  0.8537E+01
   7.916  0.8265E+00  0.8545E+01
   7.926  0.8232E+00  0.8553E+01
   7.936  0.8200E+00  0.8561E+01
   7.946  0.8169E+00  0.8570E+01
   7.956  0.8138E+00  0.8578E+01
   7.966  0.8109E+00  0.8586E+01
   7.976  0.8080E+00  0.8594E+01
   7.986  0.8052E+00  0.8602E+01
   7.996  0.8024E+00  0.8610E+01
   8.006  0.7998E+00  0.8618E+01
   8.016  0.7973E+00  0.8626E+01
   8.026  0.7948E+00  0.8634E+01
   8.036  0.7925E+00  0.8642E+01
   8.046  0.7902E+00  0.8650E+01
   8.056  0.7881E+00  0.8658E+01
   8.066  0.7860E+00  0.8665E+01
   8.076  0.7841E+00  0.8673E+01
   8.086  0.7822E+00  0.8681E+01
   8.096  0.7805E+00  0.8689E+01
   8.106  0.7789E+00  0.8697E+01
   8.116  0.7773E+00  0.8704E+01
   8.126  0.7759E+00  0.8712E+01
   8.136  0.7746E+00  0.8720E+01
   8.146  0.7734E+00  0.8728E+01
   8.156  0.7722E+00  0.8735E+01
   8.166  0.7712E+00  0.8743E+01
   8.176  0.7703E+00  0.8751E+01
   8.186  0.7695E+00  0.8759E+01
   8.196  0.7688E+00  0.8766E+01
   8.206  0.7682E+00  0.8774E+01
   8.216  0.7677E+00  0.8782E+01
   8.226  0.7673E+00  0.8789E+01
   8.236  0.7670E+00  0.8797E+01
   8.246  0.7667E+00  0.8805E+01
   8.256  0.7666E+00  0.8812E+01
   8.266  0.7666E+00  0.8820E+01
   8.276  0.7666E+00  0.8828E+01
   8.286  0.7668E+00  0.8835E+01
   8.296  0.7670E+00  0.8843E+01
   8.306  0.7673E+00  0.8851E+01
   8.316  0.7677E+00  0.8858E+01
   8.326  0.7682E+00  0.8866E+01
   8.336  0.7687E+00  0.8874E+01
   8.346  0.7694E+00  0.8881E+01
   8.356  0.7701E+00  0.8889E+01
   8.366  0.7708E+00  0.8897E+01
   8.376  0.7716E+00  0.8904E+01
   8.386  0.7725E+00  0.8912E+01
   8.396  0.7735E+00  0.8920E+01
   8.406  0.7745E+00  0.8928E+01
   8.416  0.7756E+00  0.8935E+01
   8.426  0.7767E+00  0.8943E+01
   8.436  0.7779E+00  0.8951E+01
   8.446  0.7791E+00  0.8959E+01
   8.456  0.7804E+00  0.8967E+01
   8.466  0.7817E+00  0.8974E+01
   8.476  0.7831E+00  0.8982E+01
   8.486  0.7845E+00  0.8990E+01
   8.496  0.7859E+00  0.8998E+01
   8.506  0.7874E+00  0.9006E+01
   8.516  0.7889E+00  0.9014E+01
   8.526  0.7904E+00  0.9022E+01
   8.536  0.7919E+00  0.9030E+01
   8.546  0.7935E+00  0.9037E+01
   8.556  0.7951E+00  0.9045E+01
   8.566  0.7967E+00  0.9053E+01
   8.576  0.7983E+00  0.9061E+01
   8.586  0.7999E+00  0.9069E+01
   8.596  0.8016E+00  0.9077E+01
   8.606  0.8032E+00  0.9085E+01
   8.616  0.8049E+00  0.9093E+01
   8.626  0.8066E+00  0.9102E+01
   8.636  0.8083E+00  0.9110E+01
   8.646  0.8099E+00  0.9118E+01
   8.656  0.8116E+00  0.9126E+01
   8.666  0.8133E+00  0.9134E+01
   8.676  0.8150E+00  0.9142E+01
   8.686  0.8166E+00  0.9150E+01
   8.696  0.8183E+00  0.9158E+01
   8.706  0.8199E+00  0.9167E+01
   8.716  0.8216E+00  0.9175E+01
   8.726  0.8232E+00  0.9183E+01
   8.736  0.8249E+00  0.9191E+01
   8.746  0.8265E+00  0.9200E+01
   8.756  0.8281E+00  0.9208E+01
   8.766  0.8297E+00  0.9216E+01
   8.776  0.8313E+00  0.9225E+01
   8.786  0.8328E+00  0.9233E+01
   8.796  0.8344E+00  0.9241E+01
   8.806  0.8359E+00  0.9250E+01
   8.816  0.8374E+00  0.9258E+01
   8.826  0.8389E+00  0.9266E+01
   8.836  0.8404E+00  0.9275E+01
   8.846  0.8419E+00  0.9283E+01
   8.856  0.8434E+00  0.9292E+01
   8.866  0.8448E+00  0.9300E+01
   8.876  0.8463E+00  0.9308E+01
   8.886  0.8477E+00  0.9317E+01
   8.896  0.8491E+00  0.9325E+01
   8.906  0.8505E+00  0.9334E+01
   8.916  0.8518E+00  0.9342E+01
   8.926  0.8532E+00  0.9351E+01
   8.936  0.8546E+00  0.9360E+01
   8.946  0.8559E+00  0.9368E+01
   8.956  0.8572E+00  0.9377E+01
   8.966  0.8585E+00  0.9385E+01
   8.976  0.8598E+00  0.9394E+01
   8.986  0.8611E+00  0.9402E+01
   8.996  0.8624E+00  0.9411E+01
   9.006  0.8637E+00  0.9420E+01
   9.016  0.8650E+00  0.9428E+01
   9.026  0.8662E+00  0.9437E+01
   9.036  0.8675E+00  0.9446E+01
   9.046  0.8687E+00  0.9454E+01
   9.056  0.8700E+00  0.9463E+01
   9.066  0.8712E+00  0.9472E+01
   9.076  0.8725E+00  0.9481E+01
   9.086  0.8737E+00  0.9489E+01
   9.096  0.8749E+00  0.9498E+01
   9.106  0.8762E+00  0.9507E+01
   9.116  0.8774E+00  0.9516E+01
   9.126  0.8786E+00  0.9524E+01
   9.136  0.8799E+00  0.9533E+01
   9.146  0.8811E+00  0.9542E+01
   9.156  0.8823E+00  0.9551E+01
   9.166  0.8836E+00  0.9560E+01
   9.176  0.8848E+00  0.9568E+01
   9.186  0.8860E+00  0.9577E+01
   9.196  0.8873E+00  0.9586E+01
   9.206  0.8885E+00  0.9595E+01
   9.216  0.8898E+00  0.9604E+01
   9.226  0.8910E+00  0.9613E+01
   9.236  0.8923E+00  0.9622E+01
   9.246  0.8936E+00  0.9631E+01
   9.256  0.8948E+00  0.9640E+01
   9.266  0.8961E+00  0.9649E+01
   9.276  0.8974E+00  0.9658E+01
   9.286  0.8986E+00  0.9667E+01
   9.296  0.8999E+00  0.9676E+01
   9.306  0.9012E+00  0.9685E+01
   9.316  0.9025E+00  0.9694E+01
   9.326  0.9037E+00  0.9703E+01
   9.336  0.9050E+00  0.9712E+01
   9.346  0.9063E+00  0.9721E+01
   9.356  0.9075E+00  0.9730E+01
   9.366  0.9088E+00  0.9739E+01
   9.376  0.9101E+00  0.9748E+01
   9.386  0.9113E+00  0.9757E+01
   9.396  0.9126E+00  0.9766E+01
   9.406  0.9138E+00  0.9775E+01
   9.416  0.9151E+00  0.9785E+01
   9.426  0.9163E+00  0.9794E+01
   9.436  0.9175E+00  0.9803E+01
   9.446  0.9187E+00  0.9812E+01
   9.456  0.9199E+00  0.9821E+01
   9.466  0.9211E+00  0.9831E+01
   9.476  0.9222E+00  0.9840E+01
   9.486  0.9234E+00  0.9849E+01
   9.496  0.9245E+00  0.9858E+01
   9.506  0.9256E+00  0.9867E+01
   9.516  0.9267E+00  0.9877E+01
   9.526  0.9278E+00  0.9886E+01
   9.536  0.9288E+00  0.9895E+01
   9.546  0.9298E+00  0.9905E+01
   9.556  0.9308E+00  0.9914E+01
   9.566  0.9318E+00  0.9923E+01
   9.576  0.9327E+00  0.9933E+01
   9.586  0.9336E+00  0.9942E+01
   9.596  0.9344E+00  0.9951E+01
   9.606  0.9353E+00  0.9961E+01
   9.616  0.9361E+00  0.9970E+01
   9.626  0.9369E+00  0.9979E+01
   9.636  0.9376E+00  0.9989E+01
   9.646  0.9383E+00  0.9998E+01
   9.656  0.9389E+00  0.1001E+02
   9.666  0.9396E+00  0.1002E+02
   9.676  0.9401E+00  0.1003E+02
   9.686  0.9407E+00  0.1004E+02
   9.696  0.9412E+00  0.1005E+02
   9.706  0.9417E+00  0.1005E+02
   9.716  0.9421E+00  0.1006E+02
   9.726  0.9425E+00  0.1007E+02
   9.736  0.9428E+00  0.1008E+02
   9.746  0.9431E+00  0.1009E+02
   9.756  0.9434E+00  0.1010E+02
   9.766  0.9436E+00  0.1011E+02
   9.776  0.9438E+00  0.1012E+02
   9.786  0.9439E+00  0.1013E+02
   9.796  0.9440E+00  0.1014E+02
   9.806  0.9441E+00  0.1015E+02
   9.816  0.9441E+00  0.1016E+02
   9.826  0.9441E+00  0.1017E+02
   9.836  0.9441E+00  0.1018E+02
   9.846  0.9440E+00  0.1019E+02
   9.856  0.9439E+00  0.1020E+02
   9.866  0.9438E+00  0.1021E+02
   9.876  0.9436E+00  0.1021E+02
   9.886  0.9434E+00  0.1022E+02
   9.896  0.9432E+00  0.1023E+02
   9.906  0.9429E+00  0.1024E+02
   9.916  0.9427E+00  0.1025E+02
   9.926  0.9424E+00  0.1026E+02
   9.936  0.9421E+00  0.1027E+02
   9.946  0.9417E+00  0.1028E+02
   9.956  0.9414E+00  0.1029E+02
   9.966  0.9410E+00  0.1030E+02
   9.976  0.9406E+00  0.1031E+02
   9.986  0.9403E+00  0.1032E+02
   9.996  0.9399E+00  0.1033E+02
  10.006  0.9395E+00  0.1034E+02
  10.016  0.9391E+00  0.1035E+02
  10.026  0.9387E+00  0.1036E+02
  10.036  0.9383E+00  0.1037E+02
  10.046  0.9379E+00  0.1037E+02
  10.056  0.9375E+00  0.1038E+02
  10.066  0.9371E+00  0.1039E+02
  10.076  0.9367E+00  0.1040E+02
  10.086  0.9364E+00  0.1041E+02
  10.096  0.9360E+00  0.1042E+02
  10.106  0.9357E+00  0.1043E+02
  10.116  0.9354E+00  0.1044E+02
  10.126  0.9351E+00  0.1045E+02
  10.136  0.9348E+00  0.1046E+02
  10.146  0.9346E+00  0.1047E+02
  10.156  0.9344E+00  0.1048E+02
  10.166  0.9342E+00  0.1049E+02
  10.176  0.9340E+00  0.1050E+02
  10.186  0.9339E+00  0.1051E+02
  10.196  0.9338E+00  0.1052E+02
  10.206  0.9337E+00  0.1052E+02
  10.216  0.9337E+00  0.1053E+02
  10.226  0.9337E+00  0.1054E+02
  10.236  0.9337E+00  0.1055E+02
  10.246  0.9338E+00  0.1056E+02
  10.256  0.9339E+00  0.1057E+02
  10.266  0.9341E+00  0.1058E+02
  10.276  0.9343E+00  0.1059E+02
  10.286  0.9345E+00  0.1060E+02
  10.296  0.9347E+00  0.1061E+02
  10.306  0.9351E+00  0.1062E+02
  10.316  0.9354E+00  0.1063E+02
  10.326  0.9358E+00  0.1064E+02
  10.336  0.9362E+00  0.1065E+02
  10.346  0.9367E+00  0.1066E+02
  10.356  0.9372E+00  0.1066E+02
  10.366  0.9377E+00  0.1067E+02
  10.376  0.9383E+00  0.1068E+02
  10.386  0.9389E+00  0.1069E+02
  10.396  0.9395E+00  0.1070E+02
  10.406  0.9402E+00  0.1071E+02
  10.416  0.9409E+00  0.1072E+02
  10.426  0.9416E+00  0.1073E+02
  10.436  0.9423E+00  0.1074E+02
  10.446  0.9431E+00  0.1075E+02
  10.456  0.9439E+00  0.1076E+02
  10.466  0.9447E+00  0.1077E+02
  10.476  0.9456E+00  0.1078E+02
  10.486  0.9465E+00  0.1079E+02
  10.496  0.9473E+00  0.1080E+02
  10.506  0.9482E+00  0.1081E+02
  10.516  0.9491E+00  0.1082E+02
  10.526  0.9500E+00  0.1083E+02
  10.536  0.9509E+00  0.1083E+02
  10.546  0.9519E+00  0.1084E+02
  10.556  0.9528E+00  0.1085E+02
  10.566  0.9537E+00  0.1086E+02
  10.576  0.9546E+00  0.1087E+02
  10.586  0.9555E+00  0.1088E+02
  10.596  0.9564E+00  0.1089E+02
  10.606  0.9573E+00  0.1090E+02
  10.616  0.9582E+00  0.1091E+02
  10.626  0.9591E+00  0.1092E+02
  10.636  0.9599E+00  0.1093E+02
  10.646  0.9607E+00  0.1094E+02
  10.656  0.9615E+00  0.1095E+02
  10.666  0.9623E+00  0.1096E+02
  10.676  0.9631E+00  0.1097E+02
  10.686  0.9638E+00  0.1098E+02
  10.696  0.9645E+00  0.1099E+02
  10.706  0.9651E+00  0.1100E+02
  10.716  0.9657E+00  0.1101E+02
  10.726  0.9663E+00  0.1102E+02
  10.736  0.9668E+00  0.1103E+02
  10.746  0.9673E+00  0.1104E+02
  10.756  0.9678E+00  0.1105E+02
  10.766  0.9682E+00  0.1106E+02
  10.776  0.9686E+00  0.1107E+02
  10.786  0.9689E+00  0.1108E+02
  10.796  0.9692E+00  0.1108E+02
  10.806  0.9694E+00  0.1109E+02
  10.816  0.9696E+00  0.1110E+02
  10.826  0.9697E+00  0.1111E+02
  10.836  0.9698E+00  0.1112E+02
  10.846  0.9698E+00  0.1113E+02
  10.856  0.9697E+00  0.1114E+02
  10.866  0.9697E+00  0.1115E+02
  10.876  0.9695E+00  0.1116E+02
  10.886  0.9693E+00  0.1117E+02
  10.896  0.9691E+00  0.1118E+02
  10.906  0.9688E+00  0.1119E+02
  10.916  0.9685E+00  0.1120E+02
  10.926  0.9681E+00  0.1121E+02
  10.936  0.9676E+00  0.1122E+02
  10.946  0.9671E+00  0.1123E+02
  10.956  0.9666E+00  0.1124E+02
  10.966  0.9660E+00  0.1125E+02
  10.976  0.9654E+00  0.1126E+02
  10.986  0.9647E+00  0.1127E+02
  10.996  0.9640E+00  0.1128E+02
  11.006  0.9632E+00  0.1129E+02
  11.016  0.9624E+00  0.1130E+02
  11.026  0.9615E+00  0.1131E+02
  11.036  0.9606E+00  0.1132E+02
  11.046  0.9597E+00  0.1133E+02
  11.056  0.9588E+00  0.1134E+02
  11.066  0.9578E+00  0.1135E+02
  11.076  0.9568E+00  0.1136E+02
  11.086  0.9557E+00  0.1136E+02
  11.096  0.9546E+00  0.1137E+02
  11.106  0.9535E+00  0.1138E+02
  11.116  0.9524E+00  0.1139E+02
  11.126  0.9513E+00  0.1140E+02
  11.136  0.9501E+00  0.1141E+02
  11.146  0.9490E+00  0.1142E+02
  11.156  0.9478E+00  0.1143E+02
  11.166  0.9466E+00  0.1144E+02
  11.176  0.9454E+00  0.1145E+02
  11.186  0.9442E+00  0.1146E+02
  11.196  0.9430E+00  0.1147E+02
  11.206  0.9418E+00  0.1148E+02
  11.216  0.9406E+00  0.1149E+02
  11.226  0.9394E+00  0.1150E+02
  11.236  0.9382E+00  0.1151E+02
  11.246  0.9370E+00  0.1152E+02
  11.256  0.9358E+00  0.1153E+02
  11.266  0.9347E+00  0.1153E+02
  11.276  0.9335E+00  0.1154E+02
  11.286  0.9324E+00  0.1155E+02
  11.296  0.9313E+00  0.1156E+02
  11.306  0.9302E+00  0.1157E+02
  11.316  0.9292E+00  0.1158E+02
  11.326  0.9281E+00  0.1159E+02
  11.336  0.9271E+00  0.1160E+02
  11.346  0.9262E+00  0.1161E+02
  11.356  0.9252E+00  0.1162E+02
  11.366  0.9243E+00  0.1163E+02
  11.376  0.9235E+00  0.1164E+02
  11.386  0.9227E+00  0.1165E+02
  11.396  0.9219E+00  0.1166E+02
  11.406  0.9211E+00  0.1166E+02
  11.416  0.9204E+00  0.1167E+02
  11.426  0.9198E+00  0.1168E+02
  11.436  0.9192E+00  0.1169E+02
  11.446  0.9186E+00  0.1170E+02
  11.456  0.9181E+00  0.1171E+02
  11.466  0.9177E+00  0.1172E+02
  11.476  0.9173E+00  0.1173E+02
  11.486  0.9170E+00  0.1174E+02
  11.496  0.9167E+00  0.1175E+02
  11.506  0.9164E+00  0.1176E+02
  11.516  0.9163E+00  0.1177E+02
  11.526  0.9161E+00  0.1177E+02
  11.536  0.9161E+00  0.1178E+02
  11.546  0.9161E+00  0.1179E+02
  11.556  0.9161E+00  0.1180E+02
  11.566  0.9163E+00  0.1181E+02
  11.576  0.9165E+00  0.1182E+02
  11.586  0.9167E+00  0.1183E+02
  11.596  0.9170E+00  0.1184E+02
  11.606  0.9174E+00  0.1185E+02
  11.616  0.9178E+00  0.1186E+02
  11.626  0.9183E+00  0.1187E+02
  11.636  0.9189E+00  0.1188E+02
  11.646  0.9195E+00  0.1188E+02
  11.656  0.9202E+00  0.1189E+02
  11.666  0.9210E+00  0.1190E+02
  11.676  0.9218E+00  0.1191E+02
  11.686  0.9227E+00  0.1192E+02
  11.696  0.9237E+00  0.1193E+02
  11.706  0.9247E+00  0.1194E+02
  11.716  0.9258E+00  0.1195E+02
  11.726  0.9270E+00  0.1196E+02
  11.736  0.9282E+00  0.1197E+02
  11.746  0.9295E+00  0.1198E+02
  11.756  0.9309E+00  0.1199E+02
  11.766  0.9323E+00  0.1200E+02
  11.776  0.9338E+00  0.1201E+02
  11.786  0.9354E+00  0.1201E+02
  11.796  0.9370E+00  0.1202E+02
  11.806  0.9387E+00  0.1203E+02
  11.816  0.9405E+00  0.1204E+02
  11.826  0.9424E+00  0.1205E+02
  11.836  0.9443E+00  0.1206E+02
  11.846  0.9462E+00  0.1207E+02
  11.856  0.9483E+00  0.1208E+02
  11.866  0.9504E+00  0.1209E+02
  11.876  0.9526E+00  0.1210E+02
  11.886  0.9548E+00  0.1211E+02
  11.896  0.9571E+00  0.1212E+02
  11.906  0.9595E+00  0.1213E+02
  11.916  0.9620E+00  0.1214E+02
  11.926  0.9645E+00  0.1215E+02
  11.936  0.9671E+00  0.1216E+02
  11.946  0.9697E+00  0.1217E+02
  11.956  0.9724E+00  0.1218E+02
  11.966  0.9752E+00  0.1219E+02
  11.976  0.9781E+00  0.1220E+02
  11.986  0.9810E+00  0.1221E+02
  11.996  0.9840E+00  0.1222E+02
  12.006  0.9870E+00  0.1223E+02
  12.016  0.9902E+00  0.1224E+02
  12.026  0.9934E+00  0.1225E+02
  12.036  0.9966E+00  0.1226E+02
  12.046  0.9999E+00  0.1227E+02
  12.056  0.1003E+01  0.1228E+02
  12.066  0.1007E+01  0.1229E+02
  12.076  0.1010E+01  0.1230E+02
  12.086  0.1014E+01  0.1231E+02
  12.096  0.1018E+01  0.1232E+02
  12.106  0.1021E+01  0.1233E+02
  12.116  0.1025E+01  0.1234E+02
  12.126  0.1029E+01  0.1235E+02
  12.136  0.1033E+01  0.1236E+02
  12.146  0.1037E+01  0.1237E+02
  12.156  0.1041E+01  0.1238E+02
  12.166  0.1045E+01  0.1239E+02
  12.176  0.1049E+01  0.1240E+02
  12.186  0.1054E+01  0.1241E+02
  12.196  0.1058E+01  0.1242E+02
  12.206  0.1062E+01  0.1243E+02
  12.216  0.1067E+01  0.1244E+02
  12.226  0.1071E+01  0.1245E+02
  12.236  0.1076E+01  0.1246E+02
  12.246  0.1080E+01  0.1247E+02
  12.256  0.1085E+01  0.1248E+02
  12.266  0.1090E+01  0.1250E+02
  12.276  0.1095E+01  0.1251E+02
  12.286  0.1099E+01  0.1252E+02
  12.296  0.1104E+01  0.1253E+02
  12.306  0.1109E+01  0.1254E+02
  12.316  0.1114E+01  0.1255E+02
  12.326  0.1119E+01  0.1256E+02
  12.336  0.1124E+01  0.1257E+02
  12.346  0.1130E+01  0.1258E+02
  12.356  0.1135E+01  0.1260E+02
  12.366  0.1140E+01  0.1261E+02
  12.376  0.1145E+01  0.1262E+02
  12.386  0.1151E+01  0.1263E+02
  12.396  0.1156E+01  0.1264E+02
  12.406  0.1161E+01  0.1265E+02
  12.416  0.1167E+01  0.1266E+02
  12.426  0.1172E+01  0.1268E+02
  12.436  0.1178E+01  0.1269E+02
  12.446  0.1183E+01  0.1270E+02
  12.456  0.1189E+01  0.1271E+02
  12.466  0.1194E+01  0.1272E+02
  12.476  0.1200E+01  0.1274E+02
  12.486  0.1205E+01  0.1275E+02
  12.496  0.1211E+01  0.1276E+02
  12.506  0.1217E+01  0.1277E+02
  12.516  0.1222E+01  0.1278E+02
  12.526  0.1228E+01  0.1280E+02
  12.536  0.1233E+01  0.1281E+02
  12.546  0.1239E+01  0.1282E+02
  12.556  0.1244E+01  0.1283E+02
  12.566  0.1250E+01  0.1285E+02
  12.576  0.1255E+01  0.1286E+02
  12.586  0.1261E+01  0.1287E+02
  12.596  0.1266E+01  0.1288E+02
  12.606  0.1272E+01  0.1290E+02
  12.616  0.1277E+01  0.1291E+02
  12.626  0.1282E+01  0.1292E+02
  12.636  0.1288E+01  0.1294E+02
  12.646  0.1293E+01  0.1295E+02
  12.656  0.1298E+01  0.1296E+02
  12.666  0.1303E+01  0.1297E+02
  12.676  0.1308E+01  0.1299E+02
  12.686  0.1313E+01  0.1300E+02
  12.696  0.1318E+01  0.1301E+02
  12.706  0.1323E+01  0.1303E+02
  12.716  0.1328E+01  0.1304E+02
  12.726  0.1333E+01  0.1305E+02
  12.736  0.1337E+01  0.1307E+02
  12.746  0.1342E+01  0.1308E+02
  12.756  0.1346E+01  0.1309E+02
  12.766  0.1350E+01  0.1311E+02
  12.776  0.1355E+01  0.1312E+02
  12.786  0.1359E+01  0.1313E+02
  12.796  0.1363E+01  0.1315E+02
  12.806  0.1367E+01  0.1316E+02
  12.816  0.1371E+01  0.1318E+02
  12.826  0.1374E+01  0.1319E+02
  12.836  0.1378E+01  0.1320E+02
  12.846  0.1381E+01  0.1322E+02
  12.856  0.1385E+01  0.1323E+02
  12.866  0.1388E+01  0.1324E+02
  12.876  0.1391E+01  0.1326E+02
  12.886  0.1394E+01  0.1327E+02
  12.896  0.1397E+01  0.1329E+02
  12.906  0.1399E+01  0.1330E+02
  12.916  0.1402E+01  0.1331E+02
  12.926  0.1404E+01  0.1333E+02
  12.936  0.1407E+01  0.1334E+02
  12.946  0.1409E+01  0.1336E+02
  12.956  0.1411E+01  0.1337E+02
  12.966  0.1413E+01  0.1338E+02
  12.976  0.1414E+01  0.1340E+02
  12.986  0.1416E+01  0.1341E+02
  12.996  0.1417E+01  0.1343E+02
  13.006  0.1419E+01  0.1344E+02
  13.016  0.1420E+01  0.1346E+02
  13.026  0.1421E+01  0.1347E+02
  13.036  0.1422E+01  0.1348E+02
  13.046  0.1423E+01  0.1350E+02
  13.056  0.1424E+01  0.1351E+02
  13.066  0.1424E+01  0.1353E+02
  13.076  0.1425E+01  0.1354E+02
  13.086  0.1425E+01  0.1356E+02
  13.096  0.1425E+01  0.1357E+02
  13.106  0.1425E+01  0.1358E+02
  13.116  0.1425E+01  0.1360E+02
  13.126  0.1425E+01  0.1361E+02
  13.136  0.1425E+01  0.1363E+02
  13.146  0.1425E+01  0.1364E+02
  13.156  0.1424E+01  0.1365E+02
  13.166  0.1424E+01  0.1367E+02
  13.176  0.1423E+01  0.1368E+02
  13.186  0.1422E+01  0.1370E+02
  13.196  0.1422E+01  0.1371E+02
  13.206  0.1421E+01  0.1373E+02
  13.216  0.1420E+01  0.1374E+02
  13.226  0.1419E+01  0.1375E+02
  13.236  0.1418E+01  0.1377E+02
  13.246  0.1417E+01  0.1378E+02
  13.256  0.1416E+01  0.1380E+02
  13.266  0.1414E+01  0.1381E+02
  13.276  0.1413E+01  0.1383E+02
  13.286  0.1412E+01  0.1384E+02
  13.296  0.1410E+01  0.1385E+02
  13.306  0.1409E+01  0.1387E+02
  13.316  0.1408E+01  0.1388E+02
  13.326  0.1406E+01  0.1390E+02
  13.336  0.1405E+01  0.1391E+02
  13.346  0.1403E+01  0.1392E+02
  13.356  0.1402E+01  0.1394E+02
  13.366  0.1400E+01  0.1395E+02
  13.376  0.1399E+01  0.1397E+02
  13.386  0.1397E+01  0.1398E+02
  13.396  0.1396E+01  0.1399E+02
  13.406  0.1394E+01  0.1401E+02
  13.416  0.1393E+01  0.1402E+02
  13.426  0.1391E+01  0.1404E+02
  13.436  0.1390E+01  0.1405E+02
  13.446  0.1388E+01  0.1406E+02
  13.456  0.1387E+01  0.1408E+02
  13.466  0.1385E+01  0.1409E+02
  13.476  0.1384E+01  0.1410E+02
  13.486  0.1383E+01  0.1412E+02
  13.496  0.1381E+01  0.1413E+02
  13.506  0.1380E+01  0.1415E+02
  13.516  0.1379E+01  0.1416E+02
  13.526  0.1378E+01  0.1417E+02
  13.536  0.1377E+01  0.1419E+02
  13.546  0.1375E+01  0.1420E+02
  13.556  0.1374E+01  0.1422E+02
  13.566  0.1373E+01  0.1423E+02
  13.576  0.1372E+01  0.1424E+02
  13.586  0.1371E+01  0.1426E+02
  13.596  0.1370E+01  0.1427E+02
  13.606  0.1370E+01  0.1428E+02
  13.616  0.1369E+01  0.1430E+02
  13.626  0.1368E+01  0.1431E+02
  13.636  0.1367E+01  0.1432E+02
  13.646  0.1366E+01  0.1434E+02
  13.656  0.1366E+01  0.1435E+02
  13.666  0.1365E+01  0.1437E+02
  13.676  0.1364E+01  0.1438E+02
  13.686  0.1364E+01  0.1439E+02
  13.696  0.1363E+01  0.1441E+02
  13.706  0.1363E+01  0.1442E+02
  13.716  0.1362E+01  0.1443E+02
  13.726  0.1362E+01  0.1445E+02
  13.736  0.1361E+01  0.1446E+02
  13.746  0.1361E+01  0.1447E+02
  13.756  0.1360E+01  0.1449E+02
  13.766  0.1360E+01  0.1450E+02
  13.776  0.1360E+01  0.1452E+02
  13.786  0.1359E+01  0.1453E+02
  13.796  0.1359E+01  0.1454E+02
  13.806  0.1358E+01  0.1456E+02
  13.816  0.1358E+01  0.1457E+02
  13.826  0.1358E+01  0.1458E+02
  13.836  0.1357E+01  0.1460E+02
  13.846  0.1357E+01  0.1461E+02
  13.856  0.1356E+01  0.1462E+02
  13.866  0.1356E+01  0.1464E+02
  13.876  0.1355E+01  0.1465E+02
  13.886  0.1355E+01  0.1466E+02
  13.896  0.1354E+01  0.1468E+02
  13.906  0.1354E+01  0.1469E+02
  13.916  0.1353E+01  0.1471E+02
  13.926  0.1352E+01  0.1472E+02
  13.936  0.1352E+01  0.1473E+02
  13.946  0.1351E+01  0.1475E+02
  13.956  0.1350E+01  0.1476E+02
  13.966  0.1349E+01  0.1477E+02
  13.976  0.1348E+01  0.1479E+02
  13.986  0.1347E+01  0.1480E+02
  13.996  0.1346E+01  0.1481E+02
  14.006  0.1345E+01  0.1483E+02
  14.016  0.1344E+01  0.1484E+02
  14.026  0.1343E+01  0.1485E+02
  14.036  0.1342E+01  0.1487E+02
  14.046  0.1340E+01  0.1488E+02
  14.056  0.1339E+01  0.1489E+02
  14.066  0.1337E+01  0.1491E+02
  14.076  0.1335E+01  0.1492E+02
  14.086  0.1334E+01  0.1493E+02
  14.096  0.1332E+01  0.1495E+02
  14.106  0.1330E+01  0.1496E+02
  14.116  0.1328E+01  0.1497E+02
  14.126  0.1326E+01  0.1499E+02
  14.136  0.1324E+01  0.1500E+02
  14.146  0.1322E+01  0.1501E+02
  14.156  0.1319E+01  0.1503E+02
  14.166  0.1317E+01  0.1504E+02
  14.176  0.1314E+01  0.1505E+02
  14.186  0.1312E+01  0.1507E+02
  14.196  0.1309E+01  0.1508E+02
  14.206  0.1306E+01  0.1509E+02
  14.216  0.1303E+01  0.1511E+02
  14.226  0.1300E+01  0.1512E+02
  14.236  0.1297E+01  0.1513E+02
  14.246  0.1294E+01  0.1514E+02
  14.256  0.1290E+01  0.1516E+02
  14.266  0.1287E+01  0.1517E+02
  14.276  0.1283E+01  0.1518E+02
  14.286  0.1280E+01  0.1520E+02
  14.296  0.1276E+01  0.1521E+02
  14.306  0.1272E+01  0.1522E+02
  14.316  0.1268E+01  0.1523E+02
  14.326  0.1265E+01  0.1525E+02
  14.336  0.1260E+01  0.1526E+02
  14.346  0.1256E+01  0.1527E+02
  14.356  0.1252E+01  0.1528E+02
  14.366  0.1248E+01  0.1530E+02
  14.376  0.1243E+01  0.1531E+02
  14.386  0.1239E+01  0.1532E+02
  14.396  0.1234E+01  0.1533E+02
  14.406  0.1230E+01  0.1535E+02
  14.416  0.1225E+01  0.1536E+02
  14.426  0.1220E+01  0.1537E+02
  14.436  0.1215E+01  0.1538E+02
  14.446  0.1210E+01  0.1539E+02
  14.456  0.1205E+01  0.1541E+02
  14.466  0.1200E+01  0.1542E+02
  14.476  0.1195E+01  0.1543E+02
  14.486  0.1190E+01  0.1544E+02
  14.496  0.1185E+01  0.1545E+02
  14.506  0.1179E+01  0.1547E+02
  14.516  0.1174E+01  0.1548E+02
  14.526  0.1168E+01  0.1549E+02
  14.536  0.1163E+01  0.1550E+02
  14.546  0.1157E+01  0.1551E+02
  14.556  0.1152E+01  0.1552E+02
  14.566  0.1146E+01  0.1554E+02
  14.576  0.1140E+01  0.1555E+02
  14.586  0.1134E+01  0.1556E+02
  14.596  0.1128E+01  0.1557E+02
  14.606  0.1122E+01  0.1558E+02
  14.616  0.1117E+01  0.1559E+02
  14.626  0.1111E+01  0.1560E+02
  14.636  0.1104E+01  0.1561E+02
  14.646  0.1098E+01  0.1563E+02
  14.656  0.1092E+01  0.1564E+02
  14.666  0.1086E+01  0.1565E+02
  14.676  0.1080E+01  0.1566E+02
  14.686  0.1074E+01  0.1567E+02
  14.696  0.1067E+01  0.1568E+02
  14.706  0.1061E+01  0.1569E+02
  14.716  0.1055E+01  0.1570E+02
  14.726  0.1048E+01  0.1571E+02
  14.736  0.1042E+01  0.1572E+02
  14.746  0.1035E+01  0.1573E+02
  14.756  0.1029E+01  0.1574E+02
  14.766  0.1022E+01  0.1575E+02
  14.776  0.1016E+01  0.1576E+02
  14.786  0.1009E+01  0.1577E+02
  14.796  0.1003E+01  0.1578E+02
  14.806  0.9959E+00  0.1579E+02
  14.816  0.9892E+00  0.1580E+02
  14.826  0.9825E+00  0.1581E+02
  14.836  0.9758E+00  0.1582E+02
  14.846  0.9691E+00  0.1583E+02
  14.856  0.9624E+00  0.1584E+02
  14.866  0.9556E+00  0.1585E+02
  14.876  0.9489E+00  0.1586E+02
  14.886  0.9421E+00  0.1587E+02
  14.896  0.9353E+00  0.1588E+02
  14.906  0.9285E+00  0.1589E+02
  14.916  0.9216E+00  0.1590E+02
  14.926  0.9148E+00  0.1591E+02
  14.936  0.9080E+00  0.1592E+02
  14.946  0.9011E+00  0.1593E+02
  14.956  0.8943E+00  0.1593E+02
  14.966  0.8874E+00  0.1594E+02
  14.976  0.8805E+00  0.1595E+02
  14.986  0.8737E+00  0.1596E+02
  14.996  0.8668E+00  0.1597E+02
  15.006  0.8600E+00  0.1598E+02
  15.016  0.8532E+00  0.1599E+02
  15.026  0.8463E+00  0.1599E+02
  15.036  0.8395E+00  0.1600E+02
  15.046  0.8327E+00  0.1601E+02
  15.056  0.8259E+00  0.1602E+02
  15.066  0.8191E+00  0.1603E+02
  15.076  0.8124E+00  0.1604E+02
  15.086  0.8056E+00  0.1604E+02
  15.096  0.7989E+00  0.1605E+02
  15.106  0.7922E+00  0.1606E+02
  15.116  0.7856E+00  0.1607E+02
  15.126  0.7790E+00  0.1608E+02
  15.136  0.7724E+00  0.1608E+02
  15.146  0.7659E+00  0.1609E+02
  15.156  0.7594E+00  0.1610E+02
  15.166  0.7529E+00  0.1611E+02
  15.176  0.7465E+00  0.1611E+02
  15.186  0.7401E+00  0.1612E+02
  15.196  0.7338E+00  0.1613E+02
  15.206  0.7276E+00  0.1614E+02
  15.216  0.7214E+00  0.1614E+02
  15.226  0.7153E+00  0.1615E+02
  15.236  0.7092E+00  0.1616E+02
  15.246  0.7032E+00  0.1616E+02
  15.256  0.6973E+00  0.1617E+02
  15.266  0.6915E+00  0.1618E+02
  15.276  0.6857E+00  0.1618E+02
  15.286  0.6800E+00  0.1619E+02
  15.296  0.6745E+00  0.1620E+02
  15.306  0.6690E+00  0.1620E+02
  15.316  0.6635E+00  0.1621E+02
  15.326  0.6582E+00  0.1622E+02
  15.336  0.6530E+00  0.1622E+02
  15.346  0.6479E+00  0.1623E+02
  15.356  0.6429E+00  0.1624E+02
  15.366  0.6380E+00  0.1624E+02
  15.376  0.6332E+00  0.1625E+02
  15.386  0.6285E+00  0.1626E+02
  15.396  0.6240E+00  0.1626E+02
  15.406  0.6196E+00  0.1627E+02
  15.416  0.6153E+00  0.1628E+02
  15.426  0.6111E+00  0.1628E+02
  15.436  0.6070E+00  0.1629E+02
  15.446  0.6031E+00  0.1629E+02
  15.456  0.5993E+00  0.1630E+02
  15.466  0.5957E+00  0.1631E+02
  15.476  0.5921E+00  0.1631E+02
  15.486  0.5888E+00  0.1632E+02
  15.496  0.5855E+00  0.1632E+02
  15.506  0.5825E+00  0.1633E+02
  15.516  0.5795E+00  0.1633E+02
  15.526  0.5767E+00  0.1634E+02
  15.536  0.5741E+00  0.1635E+02
  15.546  0.5716E+00  0.1635E+02
  15.556  0.5693E+00  0.1636E+02
  15.566  0.5671E+00  0.1636E+02
  15.576  0.5651E+00  0.1637E+02
  15.586  0.5633E+00  0.1637E+02
  15.596  0.5616E+00  0.1638E+02
  15.606  0.5600E+00  0.1639E+02
  15.616  0.5587E+00  0.1639E+02
  15.626  0.5574E+00  0.1640E+02
  15.636  0.5564E+00  0.1640E+02
  15.646  0.5555E+00  0.1641E+02
  15.656  0.5547E+00  0.1641E+02
  15.666  0.5542E+00  0.1642E+02
  15.676  0.5537E+00  0.1642E+02
  15.686  0.5535E+00  0.1643E+02
  15.696  0.5534E+00  0.1644E+02
  15.706  0.5535E+00  0.1644E+02
  15.716  0.5537E+00  0.1645E+02
  15.726  0.5540E+00  0.1645E+02
  15.736  0.5546E+00  0.1646E+02
  15.746  0.5553E+00  0.1646E+02
  15.756  0.5561E+00  0.1647E+02
  15.766  0.5571E+00  0.1647E+02
  15.776  0.5582E+00  0.1648E+02
  15.786  0.5595E+00  0.1649E+02
  15.796  0.5609E+00  0.1649E+02
  15.806  0.5625E+00  0.1650E+02
  15.816  0.5642E+00  0.1650E+02
  15.826  0.5660E+00  0.1651E+02
  15.836  0.5680E+00  0.1651E+02
  15.846  0.5701E+00  0.1652E+02
  15.856  0.5723E+00  0.1653E+02
  15.866  0.5747E+00  0.1653E+02
  15.876  0.5772E+00  0.1654E+02
  15.886  0.5798E+00  0.1654E+02
  15.896  0.5825E+00  0.1655E+02
  15.906  0.5853E+00  0.1655E+02
  15.916  0.5882E+00  0.1656E+02
  15.926  0.5913E+00  0.1657E+02
  15.936  0.5944E+00  0.1657E+02
  15.946  0.5977E+00  0.1658E+02
  15.956  0.6010E+00  0.1658E+02
  15.966  0.6044E+00  0.1659E+02
  15.976  0.6079E+00  0.1660E+02
  15.986  0.6115E+00  0.1660E+02
  15.996  0.6152E+00  0.1661E+02
  16.006  0.6189E+00  0.1661E+02
  16.016  0.6227E+00  0.1662E+02
  16.026  0.6266E+00  0.1663E+02
  16.036  0.6305E+00  0.1663E+02
  16.046  0.6345E+00  0.1664E+02
  16.056  0.6385E+00  0.1665E+02
  16.066  0.6426E+00  0.1665E+02
  16.076  0.6467E+00  0.1666E+02
  16.086  0.6509E+00  0.1667E+02
  16.096  0.6551E+00  0.1667E+02
  16.106  0.6593E+00  0.1668E+02
  16.116  0.6636E+00  0.1669E+02
  16.126  0.6678E+00  0.1669E+02
  16.136  0.6721E+00  0.1670E+02
  16.146  0.6764E+00  0.1671E+02
  16.156  0.6808E+00  0.1671E+02
  16.166  0.6851E+00  0.1672E+02
  16.176  0.6894E+00  0.1673E+02
  16.186  0.6937E+00  0.1673E+02
  16.196  0.6981E+00  0.1674E+02
  16.206  0.7024E+00  0.1675E+02
  16.216  0.7067E+00  0.1675E+02
  16.226  0.7110E+00  0.1676E+02
  16.236  0.7152E+00  0.1677E+02
  16.246  0.7195E+00  0.1678E+02
  16.256  0.7237E+00  0.1678E+02
  16.266  0.7279E+00  0.1679E+02
  16.276  0.7321E+00  0.1680E+02
  16.286  0.7362E+00  0.1680E+02
  16.296  0.7403E+00  0.1681E+02
  16.306  0.7443E+00  0.1682E+02
  16.316  0.7483E+00  0.1683E+02
  16.326  0.7523E+00  0.1683E+02
  16.336  0.7562E+00  0.1684E+02
  16.346  0.7601E+00  0.1685E+02
  16.356  0.7639E+00  0.1686E+02
  16.366  0.7677E+00  0.1687E+02
  16.376  0.7714E+00  0.1687E+02
  16.386  0.7750E+00  0.1688E+02
  16.396  0.7786E+00  0.1689E+02
  16.406  0.7822E+00  0.1690E+02
  16.416  0.7856E+00  0.1690E+02
  16.426  0.7891E+00  0.1691E+02
  16.436  0.7924E+00  0.1692E+02
  16.446  0.7957E+00  0.1693E+02
  16.456  0.7989E+00  0.1694E+02
  16.466  0.8021E+00  0.1694E+02
  16.476  0.8052E+00  0.1695E+02
  16.486  0.8082E+00  0.1696E+02
  16.496  0.8111E+00  0.1697E+02
  16.506  0.8140E+00  0.1698E+02
  16.516  0.8169E+00  0.1698E+02
  16.526  0.8196E+00  0.1699E+02
  16.536  0.8223E+00  0.1700E+02
  16.546  0.8249E+00  0.1701E+02
  16.556  0.8275E+00  0.1702E+02
  16.566  0.8299E+00  0.1703E+02
  16.576  0.8323E+00  0.1703E+02
  16.586  0.8347E+00  0.1704E+02
  16.596  0.8370E+00  0.1705E+02
  16.606  0.8392E+00  0.1706E+02
  16.616  0.8413E+00  0.1707E+02
  16.626  0.8434E+00  0.1708E+02
  16.636  0.8454E+00  0.1708E+02
  16.646  0.8474E+00  0.1709E+02
  16.656  0.8492E+00  0.1710E+02
  16.666  0.8511E+00  0.1711E+02
  16.676  0.8528E+00  0.1712E+02
  16.686  0.8545E+00  0.1713E+02
  16.696  0.8562E+00  0.1714E+02
  16.706  0.8577E+00  0.1714E+02
  16.716  0.8593E+00  0.1715E+02
  16.726  0.8607E+00  0.1716E+02
  16.736  0.8621E+00  0.1717E+02
  16.746  0.8635E+00  0.1718E+02
  16.756  0.8648E+00  0.1719E+02
  16.766  0.8660E+00  0.1720E+02
  16.776  0.8672E+00  0.1720E+02
  16.786  0.8683E+00  0.1721E+02
  16.796  0.8694E+00  0.1722E+02
  16.806  0.8705E+00  0.1723E+02
  16.816  0.8715E+00  0.1724E+02
  16.826  0.8724E+00  0.1725E+02
  16.836  0.8733E+00  0.1726E+02
  16.846  0.8742E+00  0.1727E+02
  16.856  0.8750E+00  0.1727E+02
  16.866  0.8757E+00  0.1728E+02
  16.876  0.8764E+00  0.1729E+02
  16.886  0.8771E+00  0.1730E+02
  16.896  0.8778E+00  0.1731E+02
  16.906  0.8784E+00  0.1732E+02
  16.916  0.8789E+00  0.1733E+02
  16.926  0.8795E+00  0.1734E+02
  16.936  0.8799E+00  0.1734E+02
  16.946  0.8804E+00  0.1735E+02
  16.956  0.8808E+00  0.1736E+02
  16.966  0.8812E+00  0.1737E+02
  16.976  0.8815E+00  0.1738E+02
  16.986  0.8819E+00  0.1739E+02
  16.996  0.8822E+00  0.1740E+02
  17.006  0.8824E+00  0.1741E+02
  17.016  0.8826E+00  0.1741E+02
  17.026  0.8828E+00  0.1742E+02
  17.036  0.8830E+00  0.1743E+02
  17.046  0.8831E+00  0.1744E+02
  17.056  0.8833E+00  0.1745E+02
  17.066  0.8834E+00  0.1746E+02
  17.076  0.8834E+00  0.1747E+02
  17.086  0.8835E+00  0.1748E+02
  17.096  0.8835E+00  0.1749E+02
  17.106  0.8835E+00  0.1749E+02
  17.116  0.8834E+00  0.1750E+02
  17.126  0.8834E+00  0.1751E+02
  17.136  0.8833E+00  0.1752E+02
  17.146  0.8832E+00  0.1753E+02
  17.156  0.8831E+00  0.1754E+02
  17.166  0.8830E+00  0.1755E+02
  17.176  0.8828E+00  0.1756E+02
  17.186  0.8827E+00  0.1757E+02
  17.196  0.8825E+00  0.1757E+02
  17.206  0.8823E+00  0.1758E+02
  17.216  0.8821E+00  0.1759E+02
  17.226  0.8819E+00  0.1760E+02
  17.236  0.8816E+00  0.1761E+02
  17.246  0.8814E+00  0.1762E+02
  17.256  0.8811E+00  0.1763E+02
  17.266  0.8808E+00  0.1764E+02
  17.276  0.8805E+00  0.1764E+02
  17.286  0.8802E+00  0.1765E+02
  17.296  0.8799E+00  0.1766E+02
  17.306  0.8796E+00  0.1767E+02
  17.316  0.8792E+00  0.1768E+02
  17.326  0.8789E+00  0.1769E+02
  17.336  0.8786E+00  0.1770E+02
  17.346  0.8782E+00  0.1771E+02
  17.356  0.8778E+00  0.1771E+02
  17.366  0.8775E+00  0.1772E+02
  17.376  0.8771E+00  0.1773E+02
  17.386  0.8767E+00  0.1774E+02
  17.396  0.8764E+00  0.1775E+02
  17.406  0.8760E+00  0.1776E+02
  17.416  0.8756E+00  0.1777E+02
  17.426  0.8752E+00  0.1778E+02
  17.436  0.8748E+00  0.1778E+02
  17.446  0.8744E+00  0.1779E+02
  17.456  0.8740E+00  0.1780E+02
  17.466  0.8736E+00  0.1781E+02
  17.476  0.8732E+00  0.1782E+02
  17.486  0.8728E+00  0.1783E+02
  17.496  0.8724E+00  0.1784E+02
  17.506  0.8721E+00  0.1785E+02
  17.516  0.8717E+00  0.1785E+02
  17.526  0.8713E+00  0.1786E+02
  17.536  0.8709E+00  0.1787E+02
  17.546  0.8705E+00  0.1788E+02
  17.556  0.8701E+00  0.1789E+02
  17.566  0.8697E+00  0.1790E+02
  17.576  0.8694E+00  0.1791E+02
  17.586  0.8690E+00  0.1792E+02
  17.596  0.8686E+00  0.1792E+02
  17.606  0.8682E+00  0.1793E+02
  17.616  0.8679E+00  0.1794E+02
  17.626  0.8675E+00  0.1795E+02
  17.636  0.8671E+00  0.1796E+02
  17.646  0.8668E+00  0.1797E+02
  17.656  0.8664E+00  0.1798E+02
  17.666  0.8660E+00  0.1799E+02
  17.676  0.8657E+00  0.1799E+02
  17.686  0.8653E+00  0.1800E+02
  17.696  0.8649E+00  0.1801E+02
  17.706  0.8646E+00  0.1802E+02
  17.716  0.8642E+00  0.1803E+02
  17.726  0.8638E+00  0.1804E+02
  17.736  0.8634E+00  0.1805E+02
  17.746  0.8631E+00  0.1805E+02
  17.756  0.8627E+00  0.1806E+02
  17.766  0.8623E+00  0.1807E+02
  17.776  0.8619E+00  0.1808E+02
  17.786  0.8615E+00  0.1809E+02
  17.796  0.8611E+00  0.1810E+02
  17.806  0.8606E+00  0.1811E+02
  17.816  0.8602E+00  0.1811E+02
  17.826  0.8598E+00  0.1812E+02
  17.836  0.8593E+00  0.1813E+02
  17.846  0.8588E+00  0.1814E+02
  17.856  0.8583E+00  0.1815E+02
  17.866  0.8578E+00  0.1816E+02
  17.876  0.8573E+00  0.1817E+02
  17.886  0.8568E+00  0.1817E+02
  17.896  0.8562E+00  0.1818E+02
  17.906  0.8556E+00  0.1819E+02
  17.916  0.8550E+00  0.1820E+02
  17.926  0.8544E+00  0.1821E+02
  17.936  0.8537E+00  0.1822E+02
  17.946  0.8530E+00  0.1823E+02
  17.956  0.8523E+00  0.1823E+02
  17.966  0.8516E+00  0.1824E+02
  17.976  0.8508E+00  0.1825E+02
  17.986  0.8500E+00  0.1826E+02
  17.996  0.8492E+00  0.1827E+02
  18.006  0.8483E+00  0.1828E+02
  18.016  0.8474E+00  0.1829E+02
  18.026  0.8464E+00  0.1829E+02
  18.036  0.8454E+00  0.1830E+02
  18.046  0.8444E+00  0.1831E+02
  18.056  0.8434E+00  0.1832E+02
  18.066  0.8423E+00  0.1833E+02
  18.076  0.8411E+00  0.1834E+02
  18.086  0.8399E+00  0.1834E+02
  18.096  0.8387E+00  0.1835E+02
  18.106  0.8374E+00  0.1836E+02
  18.116  0.8361E+00  0.1837E+02
  18.126  0.8347E+00  0.1838E+02
  18.136  0.8333E+00  0.1839E+02
  18.146  0.8319E+00  0.1839E+02
  18.156  0.8304E+00  0.1840E+02
  18.166  0.8288E+00  0.1841E+02
  18.176  0.8272E+00  0.1842E+02
  18.186  0.8255E+00  0.1843E+02
  18.196  0.8238E+00  0.1844E+02
  18.206  0.8221E+00  0.1844E+02
  18.216  0.8203E+00  0.1845E+02
  18.226  0.8184E+00  0.1846E+02
  18.236  0.8165E+00  0.1847E+02
  18.246  0.8146E+00  0.1848E+02
  18.256  0.8126E+00  0.1848E+02
  18.266  0.8105E+00  0.1849E+02
  18.276  0.8084E+00  0.1850E+02
  18.286  0.8063E+00  0.1851E+02
  18.296  0.8041E+00  0.1852E+02
  18.306  0.8019E+00  0.1853E+02
  18.316  0.7996E+00  0.1853E+02
  18.326  0.7972E+00  0.1854E+02
  18.336  0.7949E+00  0.1855E+02
  18.346  0.7924E+00  0.1856E+02
  18.356  0.7900E+00  0.1856E+02
  18.366  0.7874E+00  0.1857E+02
  18.376  0.7849E+00  0.1858E+02
  18.386  0.7823E+00  0.1859E+02
  18.396  0.7797E+00  0.1860E+02
  18.406  0.7770E+00  0.1860E+02
  18.416  0.7743E+00  0.1861E+02
  18.426  0.7715E+00  0.1862E+02
  18.436  0.7687E+00  0.1863E+02
  18.446  0.7659E+00  0.1863E+02
  18.456  0.7631E+00  0.1864E+02
  18.466  0.7602E+00  0.1865E+02
  18.476  0.7573E+00  0.1866E+02
  18.486  0.7543E+00  0.1867E+02
  18.496  0.7514E+00  0.1867E+02
  18.506  0.7484E+00  0.1868E+02
  18.516  0.7454E+00  0.1869E+02
  18.526  0.7423E+00  0.1870E+02
  18.536  0.7393E+00  0.1870E+02
  18.546  0.7362E+00  0.1871E+02
  18.556  0.7331E+00  0.1872E+02
  18.566  0.7300E+00  0.1872E+02
  18.576  0.7268E+00  0.1873E+02
  18.586  0.7237E+00  0.1874E+02
  18.596  0.7205E+00  0.1875E+02
  18.606  0.7173E+00  0.1875E+02
  18.616  0.7142E+00  0.1876E+02
  18.626  0.7110E+00  0.1877E+02
  18.636  0.7078E+00  0.1877E+02
  18.646  0.7046E+00  0.1878E+02
  18.656  0.7013E+00  0.1879E+02
  18.666  0.6981E+00  0.1880E+02
  18.676  0.6949E+00  0.1880E+02
  18.686  0.6917E+00  0.1881E+02
  18.696  0.6885E+00  0.1882E+02
  18.706  0.6853E+00  0.1882E+02
  18.716  0.6820E+00  0.1883E+02
  18.726  0.6788E+00  0.1884E+02
  18.736  0.6756E+00  0.1884E+02
  18.746  0.6724E+00  0.1885E+02
  18.756  0.6692E+00  0.1886E+02
  18.766  0.6660E+00  0.1886E+02
  18.776  0.6628E+00  0.1887E+02
  18.786  0.6597E+00  0.1888E+02
  18.796  0.6565E+00  0.1888E+02
  18.806  0.6533E+00  0.1889E+02
  18.816  0.6502E+00  0.1890E+02
  18.826  0.6471E+00  0.1890E+02
  18.836  0.6439E+00  0.1891E+02
  18.846  0.6408E+00  0.1892E+02
  18.856  0.6377E+00  0.1892E+02
  18.866  0.6346E+00  0.1893E+02
  18.876  0.6315E+00  0.1893E+02
  18.886  0.6285E+00  0.1894E+02
  18.896  0.6254E+00  0.1895E+02
  18.906  0.6223E+00  0.1895E+02
  18.916  0.6193E+00  0.1896E+02
  18.926  0.6163E+00  0.1897E+02
  18.936  0.6133E+00  0.1897E+02
  18.946  0.6103E+00  0.1898E+02
  18.956  0.6073E+00  0.1898E+02
  18.966  0.6043E+00  0.1899E+02
  18.976  0.6014E+00  0.1900E+02
  18.986  0.5984E+00  0.1900E+02
  18.996  0.5955E+00  0.1901E+02
  19.006  0.5926E+00  0.1901E+02
  19.016  0.5897E+00  0.1902E+02
  19.026  0.5868E+00  0.1903E+02
  19.036  0.5839E+00  0.1903E+02
  19.046  0.5810E+00  0.1904E+02
  19.056  0.5782E+00  0.1904E+02
  19.066  0.5753E+00  0.1905E+02
  19.076  0.5725E+00  0.1905E+02
  19.086  0.5697E+00  0.1906E+02
  19.096  0.5668E+00  0.1907E+02
  19.106  0.5640E+00  0.1907E+02
  19.116  0.5612E+00  0.1908E+02
  19.126  0.5585E+00  0.1908E+02
  19.136  0.5557E+00  0.1909E+02
  19.146  0.5529E+00  0.1909E+02
  19.156  0.5502E+00  0.1910E+02
  19.166  0.5474E+00  0.1911E+02
  19.176  0.5447E+00  0.1911E+02
  19.186  0.5420E+00  0.1912E+02
  19.196  0.5393E+00  0.1912E+02
  19.206  0.5366E+00  0.1913E+02
  19.216  0.5339E+00  0.1913E+02
  19.226  0.5312E+00  0.1914E+02
  19.236  0.5285E+00  0.1914E+02
  19.246  0.5259E+00  0.1915E+02
  19.256  0.5233E+00  0.1915E+02
  19.266  0.5206E+00  0.1916E+02
  19.276  0.5180E+00  0.1916E+02
  19.286  0.5154E+00  0.1917E+02
  19.296  0.5128E+00  0.1917E+02
  19.306  0.5103E+00  0.1918E+02
  19.316  0.5077E+00  0.1918E+02
  19.326  0.5052E+00  0.1919E+02
  19.336  0.5026E+00  0.1919E+02
  19.346  0.5001E+00  0.1920E+02
  19.356  0.4977E+00  0.1920E+02
  19.366  0.4952E+00  0.1921E+02
  19.376  0.4927E+00  0.1921E+02
  19.386  0.4903E+00  0.1922E+02
  19.396  0.4879E+00  0.1922E+02
  19.406  0.4855E+00  0.1923E+02
  19.416  0.4832E+00  0.1923E+02
  19.426  0.4809E+00  0.1924E+02
  19.436  0.4786E+00  0.1924E+02
  19.446  0.4763E+00  0.1925E+02
  19.456  0.4740E+00  0.1925E+02
  19.466  0.4718E+00  0.1926E+02
  19.476  0.4696E+00  0.1926E+02
  19.486  0.4675E+00  0.1927E+02
  19.496  0.4654E+00  0.1927E+02
  19.506  0.4633E+00  0.1928E+02
  19.516  0.4612E+00  0.1928E+02
  19.526  0.4592E+00  0.1929E+02
  19.536  0.4572E+00  0.1929E+02
  19.546  0.4553E+00  0.1929E+02
  19.556  0.4534E+00  0.1930E+02
  19.566  0.4516E+00  0.1930E+02
  19.576  0.4497E+00  0.1931E+02
  19.586  0.4480E+00  0.1931E+02
  19.596  0.4463E+00  0.1932E+02
  19.606  0.4446E+00  0.1932E+02
  19.616  0.4430E+00  0.1933E+02
  19.626  0.4414E+00  0.1933E+02
  19.636  0.4399E+00  0.1933E+02
  19.646  0.4385E+00  0.1934E+02
  19.656  0.4370E+00  0.1934E+02
  19.666  0.4357E+00  0.1935E+02
  19.676  0.4344E+00  0.1935E+02
  19.686  0.4332E+00  0.1936E+02
  19.696  0.4320E+00  0.1936E+02
  19.706  0.4309E+00  0.1936E+02
  19.716  0.4298E+00  0.1937E+02
  19.726  0.4289E+00  0.1937E+02
  19.736  0.4279E+00  0.1938E+02
  19.746  0.4271E+00  0.1938E+02
  19.756  0.4263E+00  0.1939E+02
  19.766  0.4256E+00  0.1939E+02
  19.776  0.4249E+00  0.1939E+02
  19.786  0.4243E+00  0.1940E+02
  19.796  0.4238E+00  0.1940E+02
  19.806  0.4234E+00  0.1941E+02
  19.816  0.4230E+00  0.1941E+02
  19.826  0.4227E+00  0.1942E+02
  19.836  0.4225E+00  0.1942E+02
  19.846  0.4223E+00  0.1942E+02
  19.856  0.4223E+00  0.1943E+02
  19.866  0.4223E+00  0.1943E+02
  19.876  0.4224E+00  0.1944E+02
  19.886  0.4225E+00  0.1944E+02
  19.896  0.4228E+00  0.1945E+02
  19.906  0.4231E+00  0.1945E+02
  19.916  0.4235E+00  0.1945E+02
  19.926  0.4240E+00  0.1946E+02
  19.936  0.4246E+00  0.1946E+02
  19.946  0.4252E+00  0.1947E+02
  19.956  0.4260E+00  0.1947E+02
  19.966  0.4268E+00  0.1948E+02
  19.976  0.4277E+00  0.1948E+02
  19.986  0.4287E+00  0.1948E+02
  19.996  0.4298E+00  0.1949E+02
  20.006  0.4310E+00  0.1949E+02
  20.016  0.4322E+00  0.1950E+02
  20.026  0.4335E+00  0.1950E+02
  20.036  0.4350E+00  0.1951E+02
  20.046  0.4365E+00  0.1951E+02
  20.056  0.4381E+00  0.1951E+02
  20.066  0.4398E+00  0.1952E+02
  20.076  0.4416E+00  0.1952E+02
  20.086  0.4434E+00  0.1953E+02
  20.096  0.4454E+00  0.1953E+02
  20.106  0.4475E+00  0.1954E+02
  20.116  0.4496E+00  0.1954E+02
  20.126  0.4519E+00  0.1955E+02
  20.136  0.4542E+00  0.1955E+02
  20.146  0.4566E+00  0.1955E+02
  20.156  0.4591E+00  0.1956E+02
  20.166  0.4617E+00  0.1956E+02
  20.176  0.4644E+00  0.1957E+02
  20.186  0.4672E+00  0.1957E+02
  20.196  0.4701E+00  0.1958E+02
  20.206  0.4731E+00  0.1958E+02
  20.216  0.4762E+00  0.1959E+02
  20.226  0.4794E+00  0.1959E+02
  20.236  0.4827E+00  0.1960E+02
  20.246  0.4860E+00  0.1960E+02
  20.256  0.4895E+00  0.1961E+02
  20.266  0.4931E+00  0.1961E+02
  20.276  0.4967E+00  0.1962E+02
  20.286  0.5005E+00  0.1962E+02
  20.296  0.5044E+00  0.1963E+02
  20.306  0.5083E+00  0.1963E+02
  20.316  0.5124E+00  0.1964E+02
  20.326  0.5165E+00  0.1964E+02
  20.336  0.5208E+00  0.1965E+02
  20.346  0.5251E+00  0.1965E+02
  20.356  0.5295E+00  0.1966E+02
  20.366  0.5341E+00  0.1966E+02
  20.376  0.5387E+00  0.1967E+02
  20.386  0.5435E+00  0.1967E+02
  20.396  0.5483E+00  0.1968E+02
  20.406  0.5532E+00  0.1968E+02
  20.416  0.5582E+00  0.1969E+02
  20.426  0.5634E+00  0.1970E+02
  20.436  0.5686E+00  0.1970E+02
  20.446  0.5739E+00  0.1971E+02
  20.456  0.5793E+00  0.1971E+02
  20.466  0.5848E+00  0.1972E+02
  20.476  0.5904E+00  0.1973E+02
  20.486  0.5961E+00  0.1973E+02
  20.496  0.6018E+00  0.1974E+02
  20.506  0.6077E+00  0.1974E+02
  20.516  0.6136E+00  0.1975E+02
  20.526  0.6197E+00  0.1976E+02
  20.536  0.6258E+00  0.1976E+02
  20.546  0.6320E+00  0.1977E+02
  20.556  0.6383E+00  0.1977E+02
  20.566  0.6447E+00  0.1978E+02
  20.576  0.6512E+00  0.1979E+02
  20.586  0.6577E+00  0.1979E+02
  20.596  0.6643E+00  0.1980E+02
  20.606  0.6710E+00  0.1981E+02
  20.616  0.6778E+00  0.1981E+02
  20.626  0.6846E+00  0.1982E+02
  20.636  0.6915E+00  0.1983E+02
  20.646  0.6985E+00  0.1983E+02
  20.656  0.7055E+00  0.1984E+02
  20.666  0.7126E+00  0.1985E+02
  20.676  0.7197E+00  0.1986E+02
  20.686  0.7269E+00  0.1986E+02
  20.696  0.7342E+00  0.1987E+02
  20.706  0.7415E+00  0.1988E+02
  20.716  0.7488E+00  0.1989E+02
  20.726  0.7562E+00  0.1989E+02
  20.736  0.7637E+00  0.1990E+02
  20.746  0.7711E+00  0.1991E+02
  20.756  0.7786E+00  0.1992E+02
  20.766  0.7862E+00  0.1992E+02
  20.776  0.7937E+00  0.1993E+02
  20.786  0.8013E+00  0.1994E+02
  20.796  0.8089E+00  0.1995E+02
  20.806  0.8165E+00  0.1996E+02
  20.816  0.8241E+00  0.1996E+02
  20.826  0.8317E+00  0.1997E+02
  20.836  0.8393E+00  0.1998E+02
  20.846  0.8469E+00  0.1999E+02
  20.856  0.8545E+00  0.2000E+02
  20.866  0.8621E+00  0.2001E+02
  20.876  0.8697E+00  0.2002E+02
  20.886  0.8773E+00  0.2002E+02
  20.896  0.8848E+00  0.2003E+02
  20.906  0.8923E+00  0.2004E+02
  20.916  0.8998E+00  0.2005E+02
  20.926  0.9072E+00  0.2006E+02
  20.936  0.9146E+00  0.2007E+02
  20.946  0.9219E+00  0.2008E+02
  20.956  0.9292E+00  0.2009E+02
  20.966  0.9364E+00  0.2010E+02
  20.976  0.9436E+00  0.2011E+02
  20.986  0.9507E+00  0.2012E+02
  20.996  0.9578E+00  0.2013E+02
  21.006  0.9647E+00  0.2014E+02
  21.016  0.9716E+00  0.2015E+02
  21.026  0.9784E+00  0.2016E+02
  21.036  0.9852E+00  0.2016E+02
  21.046  0.9918E+00  0.2017E+02
  21.056  0.9984E+00  0.2018E+02
  21.066  0.1005E+01  0.2019E+02
  21.076  0.1011E+01  0.2020E+02
  21.086  0.1017E+01  0.2022E+02
  21.096  0.1024E+01  0.2023E+02
  21.106  0.1030E+01  0.2024E+02
  21.116  0.1036E+01  0.2025E+02
  21.126  0.1041E+01  0.2026E+02
  21.136  0.1047E+01  0.2027E+02
  21.146  0.1053E+01  0.2028E+02
  21.156  0.1058E+01  0.2029E+02
  21.166  0.1064E+01  0.2030E+02
  21.176  0.1069E+01  0.2031E+02
  21.186  0.1074E+01  0.2032E+02
  21.196  0.1079E+01  0.2033E+02
  21.206  0.1084E+01  0.2034E+02
  21.216  0.1089E+01  0.2035E+02
  21.226  0.1093E+01  0.2036E+02
  21.236  0.1098E+01  0.2037E+02
  21.246  0.1102E+01  0.2039E+02
  21.256  0.1107E+01  0.2040E+02
  21.266  0.1111E+01  0.2041E+02
  21.276  0.1115E+01  0.2042E+02
  21.286  0.1119E+01  0.2043E+02
  21.296  0.1122E+01  0.2044E+02
  21.306  0.1126E+01  0.2045E+02
  21.316  0.1130E+01  0.2046E+02
  21.326  0.1133E+01  0.2048E+02
  21.336  0.1136E+01  0.2049E+02
  21.346  0.1139E+01  0.2050E+02
  21.356  0.1143E+01  0.2051E+02
  21.366  0.1145E+01  0.2052E+02
  21.376  0.1148E+01  0.2053E+02
  21.386  0.1151E+01  0.2054E+02
  21.396  0.1154E+01  0.2056E+02
  21.406  0.1156E+01  0.2057E+02
  21.416  0.1159E+01  0.2058E+02
  21.426  0.1161E+01  0.2059E+02
  21.436  0.1163E+01  0.2060E+02
  21.446  0.1166E+01  0.2061E+02
  21.456  0.1168E+01  0.2063E+02
  21.466  0.1170E+01  0.2064E+02
  21.476  0.1172E+01  0.2065E+02
  21.486  0.1174E+01  0.2066E+02
  21.496  0.1176E+01  0.2067E+02
  21.506  0.1177E+01  0.2068E+02
  21.516  0.1179E+01  0.2070E+02
  21.526  0.1181E+01  0.2071E+02
  21.536  0.1182E+01  0.2072E+02
  21.546  0.1184E+01  0.2073E+02
  21.556  0.1186E+01  0.2074E+02
  21.566  0.1187E+01  0.2075E+02
  21.576  0.1189E+01  0.2077E+02
  21.586  0.1190E+01  0.2078E+02
  21.596  0.1192E+01  0.2079E+02
  21.606  0.1193E+01  0.2080E+02
  21.616  0.1194E+01  0.2081E+02
  21.626  0.1196E+01  0.2083E+02
  21.636  0.1197E+01  0.2084E+02
  21.646  0.1199E+01  0.2085E+02
  21.656  0.1200E+01  0.2086E+02
  21.666  0.1202E+01  0.2087E+02
  21.676  0.1203E+01  0.2089E+02
  21.686  0.1205E+01  0.2090E+02
  21.696  0.1206E+01  0.2091E+02
  21.706  0.1208E+01  0.2092E+02
  21.716  0.1209E+01  0.2093E+02
  21.726  0.1211E+01  0.2095E+02
  21.736  0.1212E+01  0.2096E+02
  21.746  0.1214E+01  0.2097E+02
  21.756  0.1216E+01  0.2098E+02
  21.766  0.1217E+01  0.2100E+02
  21.776  0.1219E+01  0.2101E+02
  21.786  0.1221E+01  0.2102E+02
  21.796  0.1223E+01  0.2103E+02
  21.806  0.1225E+01  0.2104E+02
  21.816  0.1227E+01  0.2106E+02
  21.826  0.1229E+01  0.2107E+02
  21.836  0.1231E+01  0.2108E+02
  21.846  0.1233E+01  0.2109E+02
  21.856  0.1235E+01  0.2111E+02
  21.866  0.1237E+01  0.2112E+02
  21.876  0.1239E+01  0.2113E+02
  21.886  0.1242E+01  0.2114E+02
  21.896  0.1244E+01  0.2116E+02
  21.906  0.1247E+01  0.2117E+02
  21.916  0.1249E+01  0.2118E+02
  21.926  0.1251E+01  0.2119E+02
  21.936  0.1254E+01  0.2121E+02
  21.946  0.1257E+01  0.2122E+02
  21.956  0.1259E+01  0.2123E+02
  21.966  0.1262E+01  0.2124E+02
  21.976  0.1265E+01  0.2126E+02
  21.986  0.1267E+01  0.2127E+02
  21.996  0.1270E+01  0.2128E+02
  22.006  0.1273E+01  0.2129E+02
  22.016  0.1276E+01  0.2131E+02
  22.026  0.1279E+01  0.2132E+02
  22.036  0.1281E+01  0.2133E+02
  22.046  0.1284E+01  0.2135E+02
  22.056  0.1287E+01  0.2136E+02
  22.066  0.1290E+01  0.2137E+02
  22.076  0.1293E+01  0.2138E+02
  22.086  0.1296E+01  0.2140E+02
  22.096  0.1299E+01  0.2141E+02
  22.106  0.1302E+01  0.2142E+02
  22.116  0.1305E+01  0.2144E+02
  22.126  0.1307E+01  0.2145E+02
  22.136  0.1310E+01  0.2146E+02
  22.146  0.1313E+01  0.2148E+02
  22.156  0.1316E+01  0.2149E+02
  22.166  0.1319E+01  0.2150E+02
  22.176  0.1321E+01  0.2151E+02
  22.186  0.1324E+01  0.2153E+02
  22.196  0.1326E+01  0.2154E+02
  22.206  0.1329E+01  0.2155E+02
  22.216  0.1331E+01  0.2157E+02
  22.226  0.1334E+01  0.2158E+02
  22.236  0.1336E+01  0.2159E+02
  22.246  0.1338E+01  0.2161E+02
  22.256  0.1340E+01  0.2162E+02
  22.266  0.1342E+01  0.2163E+02
  22.276  0.1344E+01  0.2165E+02
  22.286  0.1346E+01  0.2166E+02
  22.296  0.1348E+01  0.2168E+02
  22.306  0.1350E+01  0.2169E+02
  22.316  0.1351E+01  0.2170E+02
  22.326  0.1353E+01  0.2172E+02
  22.336  0.1354E+01  0.2173E+02
  22.346  0.1355E+01  0.2174E+02
  22.356  0.1356E+01  0.2176E+02
  22.366  0.1357E+01  0.2177E+02
  22.376  0.1358E+01  0.2178E+02
  22.386  0.1358E+01  0.2180E+02
  22.396  0.1359E+01  0.2181E+02
  22.406  0.1359E+01  0.2182E+02
  22.416  0.1359E+01  0.2184E+02
  22.426  0.1359E+01  0.2185E+02
  22.436  0.1359E+01  0.2186E+02
  22.446  0.1359E+01  0.2188E+02
  22.456  0.1359E+01  0.2189E+02
  22.466  0.1358E+01  0.2191E+02
  22.476  0.1357E+01  0.2192E+02
  22.486  0.1357E+01  0.2193E+02
  22.496  0.1356E+01  0.2195E+02
  22.506  0.1354E+01  0.2196E+02
  22.516  0.1353E+01  0.2197E+02
  22.526  0.1351E+01  0.2199E+02
  22.536  0.1350E+01  0.2200E+02
  22.546  0.1348E+01  0.2201E+02
  22.556  0.1346E+01  0.2203E+02
  22.566  0.1344E+01  0.2204E+02
  22.576  0.1341E+01  0.2205E+02
  22.586  0.1339E+01  0.2207E+02
  22.596  0.1336E+01  0.2208E+02
  22.606  0.1334E+01  0.2209E+02
  22.616  0.1331E+01  0.2211E+02
  22.626  0.1327E+01  0.2212E+02
  22.636  0.1324E+01  0.2213E+02
  22.646  0.1321E+01  0.2215E+02
  22.656  0.1317E+01  0.2216E+02
  22.666  0.1314E+01  0.2217E+02
  22.676  0.1310E+01  0.2219E+02
  22.686  0.1306E+01  0.2220E+02
  22.696  0.1302E+01  0.2221E+02
  22.706  0.1298E+01  0.2223E+02
  22.716  0.1294E+01  0.2224E+02
  22.726  0.1289E+01  0.2225E+02
  22.736  0.1285E+01  0.2226E+02
  22.746  0.1280E+01  0.2228E+02
  22.756  0.1275E+01  0.2229E+02
  22.766  0.1271E+01  0.2230E+02
  22.776  0.1266E+01  0.2232E+02
  22.786  0.1261E+01  0.2233E+02
  22.796  0.1256E+01  0.2234E+02
  22.806  0.1251E+01  0.2235E+02
  22.816  0.1245E+01  0.2237E+02
  22.826  0.1240E+01  0.2238E+02
  22.836  0.1235E+01  0.2239E+02
  22.846  0.1229E+01  0.2240E+02
  22.856  0.1224E+01  0.2241E+02
  22.866  0.1219E+01  0.2243E+02
  22.876  0.1213E+01  0.2244E+02
  22.886  0.1208E+01  0.2245E+02
  22.896  0.1202E+01  0.2246E+02
  22.906  0.1196E+01  0.2248E+02
  22.916  0.1191E+01  0.2249E+02
  22.926  0.1185E+01  0.2250E+02
  22.936  0.1180E+01  0.2251E+02
  22.946  0.1174E+01  0.2252E+02
  22.956  0.1169E+01  0.2253E+02
  22.966  0.1163E+01  0.2255E+02
  22.976  0.1158E+01  0.2256E+02
  22.986  0.1152E+01  0.2257E+02
  22.996  0.1147E+01  0.2258E+02
  23.006  0.1141E+01  0.2259E+02
  23.016  0.1136E+01  0.2260E+02
  23.026  0.1130E+01  0.2261E+02
  23.036  0.1125E+01  0.2263E+02
  23.046  0.1120E+01  0.2264E+02
  23.056  0.1115E+01  0.2265E+02
  23.066  0.1109E+01  0.2266E+02
  23.076  0.1104E+01  0.2267E+02
  23.086  0.1099E+01  0.2268E+02
  23.096  0.1094E+01  0.2269E+02
  23.106  0.1090E+01  0.2270E+02
  23.116  0.1085E+01  0.2271E+02
  23.126  0.1080E+01  0.2272E+02
  23.136  0.1075E+01  0.2274E+02
  23.146  0.1071E+01  0.2275E+02
  23.156  0.1066E+01  0.2276E+02
  23.166  0.1062E+01  0.2277E+02
  23.176  0.1058E+01  0.2278E+02
  23.186  0.1054E+01  0.2279E+02
  23.196  0.1050E+01  0.2280E+02
  23.206  0.1046E+01  0.2281E+02
  23.216  0.1042E+01  0.2282E+02
  23.226  0.1038E+01  0.2283E+02
  23.236  0.1034E+01  0.2284E+02
  23.246  0.1031E+01  0.2285E+02
  23.256  0.1027E+01  0.2286E+02
  23.266  0.1024E+01  0.2287E+02
  23.276  0.1020E+01  0.2288E+02
  23.286  0.1017E+01  0.2289E+02
  23.296  0.1014E+01  0.2290E+02
  23.306  0.1011E+01  0.2291E+02
  23.316  0.1008E+01  0.2292E+02
  23.326  0.1006E+01  0.2293E+02
  23.336  0.1003E+01  0.2294E+02
  23.346  0.1000E+01  0.2295E+02
  23.356  0.9979E+00  0.2296E+02
  23.366  0.9955E+00  0.2297E+02
  23.376  0.9932E+00  0.2298E+02
  23.386  0.9910E+00  0.2299E+02
  23.396  0.9889E+00  0.2300E+02
  23.406  0.9869E+00  0.2301E+02
  23.416  0.9849E+00  0.2302E+02
  23.426  0.9831E+00  0.2303E+02
  23.436  0.9813E+00  0.2304E+02
  23.446  0.9796E+00  0.2305E+02
  23.456  0.9780E+00  0.2306E+02
  23.466  0.9764E+00  0.2307E+02
  23.476  0.9750E+00  0.2308E+02
  23.486  0.9736E+00  0.2309E+02
  23.496  0.9722E+00  0.2310E+02
  23.506  0.9710E+00  0.2311E+02
  23.516  0.9698E+00  0.2312E+02
  23.526  0.9686E+00  0.2313E+02
  23.536  0.9675E+00  0.2314E+02
  23.546  0.9665E+00  0.2315E+02
  23.556  0.9655E+00  0.2316E+02
  23.566  0.9646E+00  0.2317E+02
  23.576  0.9637E+00  0.2318E+02
  23.586  0.9629E+00  0.2319E+02
  23.596  0.9621E+00  0.2320E+02
  23.606  0.9613E+00  0.2321E+02
  23.616  0.9606E+00  0.2322E+02
  23.626  0.9599E+00  0.2323E+02
  23.636  0.9592E+00  0.2323E+02
  23.646  0.9586E+00  0.2324E+02
  23.656  0.9580E+00  0.2325E+02
  23.666  0.9574E+00  0.2326E+02
  23.676  0.9568E+00  0.2327E+02
  23.686  0.9563E+00  0.2328E+02
  23.696  0.9558E+00  0.2329E+02
  23.706  0.9553E+00  0.2330E+02
  23.716  0.9548E+00  0.2331E+02
  23.726  0.9543E+00  0.2332E+02
  23.736  0.9538E+00  0.2333E+02
  23.746  0.9533E+00  0.2334E+02
  23.756  0.9529E+00  0.2335E+02
  23.766  0.9524E+00  0.2336E+02
  23.776  0.9519E+00  0.2337E+02
  23.786  0.9515E+00  0.2338E+02
  23.796  0.9510E+00  0.2339E+02
  23.806  0.9505E+00  0.2340E+02
  23.816  0.9501E+00  0.2341E+02
  23.826  0.9496E+00  0.2342E+02
  23.836  0.9491E+00  0.2343E+02
  23.846  0.9487E+00  0.2344E+02
  23.856  0.9482E+00  0.2344E+02
  23.866  0.9477E+00  0.2345E+02
  23.876  0.9472E+00  0.2346E+02
  23.886  0.9466E+00  0.2347E+02
  23.896  0.9461E+00  0.2348E+02
  23.906  0.9456E+00  0.2349E+02
  23.916  0.9450E+00  0.2350E+02
  23.926  0.9445E+00  0.2351E+02
  23.936  0.9439E+00  0.2352E+02
  23.946  0.9433E+00  0.2353E+02
  23.956  0.9427E+00  0.2354E+02
  23.966  0.9421E+00  0.2355E+02
  23.976  0.9415E+00  0.2356E+02
  23.986  0.9409E+00  0.2357E+02
  23.996  0.9402E+00  0.2358E+02
  24.006  0.9396E+00  0.2359E+02
  24.016  0.9389E+00  0.2360E+02
  24.026  0.9382E+00  0.2360E+02
  24.036  0.9376E+00  0.2361E+02
  24.046  0.9369E+00  0.2362E+02
  24.056  0.9362E+00  0.2363E+02
  24.066  0.9355E+00  0.2364E+02
  24.076  0.9348E+00  0.2365E+02
  24.086  0.9340E+00  0.2366E+02
  24.096  0.9333E+00  0.2367E+02
  24.106  0.9326E+00  0.2368E+02
  24.116  0.9318E+00  0.2369E+02
  24.126  0.9311E+00  0.2370E+02
  24.136  0.9303E+00  0.2371E+02
  24.146  0.9296E+00  0.2372E+02
  24.156  0.9288E+00  0.2373E+02
  24.166  0.9281E+00  0.2374E+02
  24.176  0.9273E+00  0.2374E+02
  24.186  0.9266E+00  0.2375E+02
  24.196  0.9258E+00  0.2376E+02
  24.206  0.9251E+00  0.2377E+02
  24.216  0.9243E+00  0.2378E+02
  24.226  0.9236E+00  0.2379E+02
  24.236  0.9228E+00  0.2380E+02
  24.246  0.9221E+00  0.2381E+02
  24.256  0.9214E+00  0.2382E+02
  24.266  0.9206E+00  0.2383E+02
  24.276  0.9199E+00  0.2384E+02
  24.286  0.9192E+00  0.2385E+02
  24.296  0.9185E+00  0.2386E+02
  24.306  0.9178E+00  0.2386E+02
  24.316  0.9171E+00  0.2387E+02
  24.326  0.9165E+00  0.2388E+02
  24.336  0.9158E+00  0.2389E+02
  24.346  0.9151E+00  0.2390E+02
  24.356  0.9145E+00  0.2391E+02
  24.366  0.9138E+00  0.2392E+02
  24.376  0.9132E+00  0.2393E+02
  24.386  0.9126E+00  0.2394E+02
  24.396  0.9120E+00  0.2395E+02
  24.406  0.9114E+00  0.2396E+02
  24.416  0.9108E+00  0.2397E+02
  24.426  0.9102E+00  0.2397E+02
  24.436  0.9096E+00  0.2398E+02
  24.446  0.9091E+00  0.2399E+02
  24.456  0.9085E+00  0.2400E+02
  24.466  0.9080E+00  0.2401E+02
  24.476  0.9074E+00  0.2402E+02
  24.486  0.9069E+00  0.2403E+02
  24.496  0.9064E+00  0.2404E+02
  24.506  0.9058E+00  0.2405E+02
  24.516  0.9053E+00  0.2406E+02
  24.526  0.9048E+00  0.2406E+02
  24.536  0.9043E+00  0.2407E+02
  24.546  0.9037E+00  0.2408E+02
  24.556  0.9032E+00  0.2409E+02
  24.566  0.9027E+00  0.2410E+02
  24.576  0.9021E+00  0.2411E+02
  24.586  0.9016E+00  0.2412E+02
  24.596  0.9011E+00  0.2413E+02
  24.606  0.9005E+00  0.2414E+02
  24.616  0.8999E+00  0.2415E+02
  24.626  0.8994E+00  0.2416E+02
  24.636  0.8988E+00  0.2416E+02
  24.646  0.8982E+00  0.2417E+02
  24.656  0.8975E+00  0.2418E+02
  24.666  0.8969E+00  0.2419E+02
  24.676  0.8962E+00  0.2420E+02
  24.686  0.8955E+00  0.2421E+02
  24.696  0.8948E+00  0.2422E+02
  24.706  0.8940E+00  0.2423E+02
  24.716  0.8933E+00  0.2424E+02
  24.726  0.8924E+00  0.2424E+02
  24.736  0.8916E+00  0.2425E+02
  24.746  0.8907E+00  0.2426E+02
  24.756  0.8898E+00  0.2427E+02
  24.766  0.8888E+00  0.2428E+02
  24.776  0.8878E+00  0.2429E+02
  24.786  0.8867E+00  0.2430E+02
  24.796  0.8856E+00  0.2431E+02
  24.806  0.8844E+00  0.2432E+02
  24.816  0.8831E+00  0.2432E+02
  24.826  0.8819E+00  0.2433E+02
  24.836  0.8805E+00  0.2434E+02
  24.846  0.8791E+00  0.2435E+02
  24.856  0.8776E+00  0.2436E+02
  24.866  0.8761E+00  0.2437E+02
  24.876  0.8745E+00  0.2438E+02
  24.886  0.8728E+00  0.2439E+02
  24.896  0.8711E+00  0.2439E+02
  24.906  0.8692E+00  0.2440E+02
  24.916  0.8673E+00  0.2441E+02
  24.926  0.8653E+00  0.2442E+02
  24.936  0.8633E+00  0.2443E+02
  24.946  0.8611E+00  0.2444E+02
  24.956  0.8589E+00  0.2445E+02
  24.966  0.8566E+00  0.2446E+02
  24.976  0.8542E+00  0.2446E+02
  24.986  0.8517E+00  0.2447E+02
  24.996  0.8492E+00  0.2448E+02
  25.006  0.8465E+00  0.2449E+02
  25.016  0.8438E+00  0.2450E+02
  25.026  0.8409E+00  0.2451E+02
  25.036  0.8380E+00  0.2451E+02
  25.046  0.8350E+00  0.2452E+02
  25.056  0.8319E+00  0.2453E+02
  25.066  0.8287E+00  0.2454E+02
  25.076  0.8254E+00  0.2455E+02
  25.086  0.8220E+00  0.2456E+02
  25.096  0.8185E+00  0.2456E+02
  25.106  0.8149E+00  0.2457E+02
  25.116  0.8113E+00  0.2458E+02
  25.126  0.8075E+00  0.2459E+02
  25.136  0.8037E+00  0.2460E+02
  25.146  0.7998E+00  0.2460E+02
  25.156  0.7958E+00  0.2461E+02
  25.166  0.7917E+00  0.2462E+02
  25.176  0.7875E+00  0.2463E+02
  25.186  0.7832E+00  0.2464E+02
  25.196  0.7789E+00  0.2464E+02
  25.206  0.7745E+00  0.2465E+02
  25.216  0.7700E+00  0.2466E+02
  25.226  0.7654E+00  0.2467E+02
  25.236  0.7608E+00  0.2467E+02
  25.246  0.7561E+00  0.2468E+02
  25.256  0.7513E+00  0.2469E+02
  25.266  0.7465E+00  0.2470E+02
  25.276  0.7416E+00  0.2470E+02
  25.286  0.7366E+00  0.2471E+02
  25.296  0.7316E+00  0.2472E+02
  25.306  0.7265E+00  0.2473E+02
