#  E (eV)   dos(E)     Int dos(E) EFermi =  17.361 eV
  -9.645  0.1653E-05  0.1653E-07
  -9.635  0.1805E-05  0.3458E-07
  -9.625  0.1971E-05  0.5429E-07
  -9.615  0.2151E-05  0.7580E-07
  -9.605  0.2346E-05  0.9926E-07
  -9.595  0.2558E-05  0.1248E-06
  -9.585  0.2789E-05  0.1527E-06
  -9.575  0.3038E-05  0.1831E-06
  -9.565  0.3308E-05  0.2162E-06
  -9.555  0.3601E-05  0.2522E-06
  -9.545  0.3919E-05  0.2914E-06
  -9.535  0.4262E-05  0.3340E-06
  -9.525  0.4634E-05  0.3804E-06
  -9.515  0.5035E-05  0.4307E-06
  -9.505  0.5470E-05  0.4854E-06
  -9.495  0.5939E-05  0.5448E-06
  -9.485  0.6446E-05  0.6093E-06
  -9.475  0.6993E-05  0.6792E-06
  -9.465  0.7583E-05  0.7550E-06
  -9.455  0.8220E-05  0.8372E-06
  -9.445  0.8906E-05  0.9263E-06
  -9.435  0.9646E-05  0.1023E-05
  -9.425  0.1044E-04  0.1127E-05
  -9.415  0.1130E-04  0.1240E-05
  -9.405  0.1222E-04  0.1362E-05
  -9.395  0.1322E-04  0.1495E-05
  -9.385  0.1428E-04  0.1637E-05
  -9.375  0.1543E-04  0.1792E-05
  -9.365  0.1666E-04  0.1958E-05
  -9.355  0.1799E-04  0.2138E-05
  -9.345  0.1941E-04  0.2332E-05
  -9.335  0.2093E-04  0.2542E-05
  -9.325  0.2257E-04  0.2767E-05
  -9.315  0.2432E-04  0.3010E-05
  -9.305  0.2619E-04  0.3272E-05
  -9.295  0.2820E-04  0.3554E-05
  -9.285  0.3036E-04  0.3858E-05
  -9.275  0.3266E-04  0.4185E-05
  -9.265  0.3512E-04  0.4536E-05
  -9.255  0.3775E-04  0.4913E-05
  -9.245  0.4057E-04  0.5319E-05
  -9.235  0.4357E-04  0.5755E-05
  -9.225  0.4678E-04  0.6222E-05
  -9.215  0.5020E-04  0.6724E-05
  -9.205  0.5385E-04  0.7263E-05
  -9.195  0.5775E-04  0.7840E-05
  -9.185  0.6190E-04  0.8459E-05
  -9.175  0.6632E-04  0.9123E-05
  -9.165  0.7103E-04  0.9833E-05
  -9.155  0.7604E-04  0.1059E-04
  -9.145  0.8137E-04  0.1141E-04
  -9.135  0.8704E-04  0.1228E-04
  -9.125  0.9307E-04  0.1321E-04
  -9.115  0.9947E-04  0.1420E-04
  -9.105  0.1063E-03  0.1527E-04
  -9.095  0.1135E-03  0.1640E-04
  -9.085  0.1212E-03  0.1761E-04
  -9.075  0.1293E-03  0.1890E-04
  -9.065  0.1379E-03  0.2028E-04
  -9.055  0.1470E-03  0.2175E-04
  -9.045  0.1567E-03  0.2332E-04
  -9.035  0.1670E-03  0.2499E-04
  -9.025  0.1778E-03  0.2677E-04
  -9.015  0.1893E-03  0.2866E-04
  -9.005  0.2014E-03  0.3068E-04
  -8.995  0.2143E-03  0.3282E-04
  -8.985  0.2278E-03  0.3510E-04
  -8.975  0.2421E-03  0.3752E-04
  -8.965  0.2572E-03  0.4009E-04
  -8.955  0.2732E-03  0.4282E-04
  -8.945  0.2900E-03  0.4572E-04
  -8.935  0.3078E-03  0.4880E-04
  -8.925  0.3265E-03  0.5207E-04
  -8.915  0.3462E-03  0.5553E-04
  -8.905  0.3670E-03  0.5920E-04
  -8.895  0.3888E-03  0.6309E-04
  -8.885  0.4118E-03  0.6720E-04
  -8.875  0.4360E-03  0.7156E-04
  -8.865  0.4615E-03  0.7618E-04
  -8.855  0.4882E-03  0.8106E-04
  -8.845  0.5163E-03  0.8622E-04
  -8.835  0.5458E-03  0.9168E-04
  -8.825  0.5768E-03  0.9745E-04
  -8.815  0.6093E-03  0.1035E-03
  -8.805  0.6434E-03  0.1100E-03
  -8.795  0.6791E-03  0.1168E-03
  -8.785  0.7166E-03  0.1239E-03
  -8.775  0.7558E-03  0.1315E-03
  -8.765  0.7969E-03  0.1395E-03
  -8.755  0.8400E-03  0.1479E-03
  -8.745  0.8850E-03  0.1567E-03
  -8.735  0.9321E-03  0.1660E-03
  -8.725  0.9814E-03  0.1758E-03
  -8.715  0.1033E-02  0.1862E-03
  -8.705  0.1087E-02  0.1970E-03
  -8.695  0.1143E-02  0.2085E-03
  -8.685  0.1202E-02  0.2205E-03
  -8.675  0.1263E-02  0.2331E-03
  -8.665  0.1327E-02  0.2464E-03
  -8.655  0.1393E-02  0.2603E-03
  -8.645  0.1463E-02  0.2750E-03
  -8.635  0.1535E-02  0.2903E-03
  -8.625  0.1611E-02  0.3064E-03
  -8.615  0.1689E-02  0.3233E-03
  -8.605  0.1771E-02  0.3410E-03
  -8.595  0.1856E-02  0.3596E-03
  -8.585  0.1945E-02  0.3790E-03
  -8.575  0.2037E-02  0.3994E-03
  -8.565  0.2133E-02  0.4207E-03
  -8.555  0.2233E-02  0.4431E-03
  -8.545  0.2336E-02  0.4664E-03
  -8.535  0.2444E-02  0.4909E-03
  -8.525  0.2555E-02  0.5164E-03
  -8.515  0.2671E-02  0.5431E-03
  -8.505  0.2791E-02  0.5710E-03
  -8.495  0.2916E-02  0.6002E-03
  -8.485  0.3045E-02  0.6306E-03
  -8.475  0.3179E-02  0.6624E-03
  -8.465  0.3318E-02  0.6956E-03
  -8.455  0.3461E-02  0.7302E-03
  -8.445  0.3610E-02  0.7663E-03
  -8.435  0.3765E-02  0.8040E-03
  -8.425  0.3924E-02  0.8432E-03
  -8.415  0.4089E-02  0.8841E-03
  -8.405  0.4260E-02  0.9267E-03
  -8.395  0.4437E-02  0.9711E-03
  -8.385  0.4619E-02  0.1017E-02
  -8.375  0.4808E-02  0.1065E-02
  -8.365  0.5003E-02  0.1115E-02
  -8.355  0.5204E-02  0.1167E-02
  -8.345  0.5412E-02  0.1222E-02
  -8.335  0.5627E-02  0.1278E-02
  -8.325  0.5848E-02  0.1336E-02
  -8.315  0.6077E-02  0.1397E-02
  -8.305  0.6313E-02  0.1460E-02
  -8.295  0.6556E-02  0.1526E-02
  -8.285  0.6807E-02  0.1594E-02
  -8.275  0.7065E-02  0.1664E-02
  -8.265  0.7331E-02  0.1738E-02
  -8.255  0.7606E-02  0.1814E-02
  -8.245  0.7888E-02  0.1893E-02
  -8.235  0.8179E-02  0.1975E-02
  -8.225  0.8478E-02  0.2059E-02
  -8.215  0.8787E-02  0.2147E-02
  -8.205  0.9104E-02  0.2238E-02
  -8.195  0.9430E-02  0.2332E-02
  -8.185  0.9765E-02  0.2430E-02
  -8.175  0.1011E-01  0.2531E-02
  -8.165  0.1046E-01  0.2636E-02
  -8.155  0.1083E-01  0.2744E-02
  -8.145  0.1120E-01  0.2856E-02
  -8.135  0.1159E-01  0.2972E-02
  -8.125  0.1198E-01  0.3092E-02
  -8.115  0.1239E-01  0.3216E-02
  -8.105  0.1281E-01  0.3344E-02
  -8.095  0.1323E-01  0.3476E-02
  -8.085  0.1367E-01  0.3613E-02
  -8.075  0.1412E-01  0.3754E-02
  -8.065  0.1458E-01  0.3900E-02
  -8.055  0.1506E-01  0.4050E-02
  -8.045  0.1554E-01  0.4206E-02
  -8.035  0.1604E-01  0.4366E-02
  -8.025  0.1655E-01  0.4532E-02
  -8.015  0.1707E-01  0.4702E-02
  -8.005  0.1760E-01  0.4879E-02
  -7.995  0.1815E-01  0.5060E-02
  -7.985  0.1871E-01  0.5247E-02
  -7.975  0.1929E-01  0.5440E-02
  -7.965  0.1988E-01  0.5639E-02
  -7.955  0.2048E-01  0.5844E-02
  -7.945  0.2109E-01  0.6054E-02
  -7.935  0.2172E-01  0.6272E-02
  -7.925  0.2237E-01  0.6495E-02
  -7.915  0.2302E-01  0.6726E-02
  -7.905  0.2370E-01  0.6963E-02
  -7.895  0.2439E-01  0.7206E-02
  -7.885  0.2509E-01  0.7457E-02
  -7.875  0.2581E-01  0.7715E-02
  -7.865  0.2654E-01  0.7981E-02
  -7.855  0.2729E-01  0.8254E-02
  -7.845  0.2805E-01  0.8534E-02
  -7.835  0.2883E-01  0.8823E-02
  -7.825  0.2963E-01  0.9119E-02
  -7.815  0.3044E-01  0.9423E-02
  -7.805  0.3127E-01  0.9736E-02
  -7.795  0.3212E-01  0.1006E-01
  -7.785  0.3298E-01  0.1039E-01
  -7.775  0.3386E-01  0.1073E-01
  -7.765  0.3475E-01  0.1107E-01
  -7.755  0.3567E-01  0.1143E-01
  -7.745  0.3660E-01  0.1180E-01
  -7.735  0.3754E-01  0.1217E-01
  -7.725  0.3851E-01  0.1256E-01
  -7.715  0.3949E-01  0.1295E-01
  -7.705  0.4049E-01  0.1336E-01
  -7.695  0.4151E-01  0.1377E-01
  -7.685  0.4254E-01  0.1420E-01
  -7.675  0.4359E-01  0.1463E-01
  -7.665  0.4466E-01  0.1508E-01
  -7.655  0.4575E-01  0.1554E-01
  -7.645  0.4686E-01  0.1601E-01
  -7.635  0.4798E-01  0.1648E-01
  -7.625  0.4912E-01  0.1698E-01
  -7.615  0.5028E-01  0.1748E-01
  -7.605  0.5146E-01  0.1799E-01
  -7.595  0.5265E-01  0.1852E-01
  -7.585  0.5387E-01  0.1906E-01
  -7.575  0.5510E-01  0.1961E-01
  -7.565  0.5635E-01  0.2017E-01
  -7.555  0.5761E-01  0.2075E-01
  -7.545  0.5890E-01  0.2134E-01
  -7.535  0.6020E-01  0.2194E-01
  -7.525  0.6152E-01  0.2256E-01
  -7.515  0.6285E-01  0.2318E-01
  -7.505  0.6421E-01  0.2383E-01
  -7.495  0.6558E-01  0.2448E-01
  -7.485  0.6697E-01  0.2515E-01
  -7.475  0.6837E-01  0.2584E-01
  -7.465  0.6979E-01  0.2653E-01
  -7.455  0.7123E-01  0.2725E-01
  -7.445  0.7269E-01  0.2797E-01
  -7.435  0.7416E-01  0.2871E-01
  -7.425  0.7565E-01  0.2947E-01
  -7.415  0.7715E-01  0.3024E-01
  -7.405  0.7867E-01  0.3103E-01
  -7.395  0.8020E-01  0.3183E-01
  -7.385  0.8175E-01  0.3265E-01
  -7.375  0.8332E-01  0.3348E-01
  -7.365  0.8490E-01  0.3433E-01
  -7.355  0.8649E-01  0.3520E-01
  -7.345  0.8810E-01  0.3608E-01
  -7.335  0.8972E-01  0.3697E-01
  -7.325  0.9136E-01  0.3789E-01
  -7.315  0.9301E-01  0.3882E-01
  -7.305  0.9467E-01  0.3976E-01
  -7.295  0.9635E-01  0.4073E-01
  -7.285  0.9804E-01  0.4171E-01
  -7.275  0.9974E-01  0.4271E-01
  -7.265  0.1014E+00  0.4372E-01
  -7.255  0.1032E+00  0.4475E-01
  -7.245  0.1049E+00  0.4580E-01
  -7.235  0.1066E+00  0.4687E-01
  -7.225  0.1084E+00  0.4795E-01
  -7.215  0.1102E+00  0.4905E-01
  -7.205  0.1119E+00  0.5017E-01
  -7.195  0.1137E+00  0.5131E-01
  -7.185  0.1155E+00  0.5246E-01
  -7.175  0.1173E+00  0.5364E-01
  -7.165  0.1191E+00  0.5483E-01
  -7.155  0.1209E+00  0.5604E-01
  -7.145  0.1228E+00  0.5727E-01
  -7.135  0.1246E+00  0.5851E-01
  -7.125  0.1264E+00  0.5978E-01
  -7.115  0.1283E+00  0.6106E-01
  -7.105  0.1301E+00  0.6236E-01
  -7.095  0.1320E+00  0.6368E-01
  -7.085  0.1338E+00  0.6502E-01
  -7.075  0.1357E+00  0.6637E-01
  -7.065  0.1375E+00  0.6775E-01
  -7.055  0.1394E+00  0.6914E-01
  -7.045  0.1413E+00  0.7056E-01
  -7.035  0.1431E+00  0.7199E-01
  -7.025  0.1450E+00  0.7344E-01
  -7.015  0.1469E+00  0.7491E-01
  -7.005  0.1488E+00  0.7640E-01
  -6.995  0.1506E+00  0.7790E-01
  -6.985  0.1525E+00  0.7943E-01
  -6.975  0.1544E+00  0.8097E-01
  -6.965  0.1562E+00  0.8253E-01
  -6.955  0.1581E+00  0.8411E-01
  -6.945  0.1599E+00  0.8571E-01
  -6.935  0.1618E+00  0.8733E-01
  -6.925  0.1636E+00  0.8897E-01
  -6.915  0.1655E+00  0.9062E-01
  -6.905  0.1673E+00  0.9229E-01
  -6.895  0.1692E+00  0.9399E-01
  -6.885  0.1710E+00  0.9570E-01
  -6.875  0.1728E+00  0.9742E-01
  -6.865  0.1746E+00  0.9917E-01
  -6.855  0.1764E+00  0.1009E+00
  -6.845  0.1782E+00  0.1027E+00
  -6.835  0.1800E+00  0.1045E+00
  -6.825  0.1817E+00  0.1063E+00
  -6.815  0.1835E+00  0.1082E+00
  -6.805  0.1852E+00  0.1100E+00
  -6.795  0.1870E+00  0.1119E+00
  -6.785  0.1887E+00  0.1138E+00
  -6.775  0.1904E+00  0.1157E+00
  -6.765  0.1921E+00  0.1176E+00
  -6.755  0.1937E+00  0.1195E+00
  -6.745  0.1954E+00  0.1215E+00
  -6.735  0.1970E+00  0.1235E+00
  -6.725  0.1986E+00  0.1254E+00
  -6.715  0.2002E+00  0.1274E+00
  -6.705  0.2018E+00  0.1295E+00
  -6.695  0.2033E+00  0.1315E+00
  -6.685  0.2049E+00  0.1335E+00
  -6.675  0.2064E+00  0.1356E+00
  -6.665  0.2079E+00  0.1377E+00
  -6.655  0.2093E+00  0.1398E+00
  -6.645  0.2108E+00  0.1419E+00
  -6.635  0.2122E+00  0.1440E+00
  -6.625  0.2136E+00  0.1462E+00
  -6.615  0.2150E+00  0.1483E+00
  -6.605  0.2163E+00  0.1505E+00
  -6.595  0.2176E+00  0.1526E+00
  -6.585  0.2189E+00  0.1548E+00
  -6.575  0.2202E+00  0.1570E+00
  -6.565  0.2214E+00  0.1592E+00
  -6.555  0.2226E+00  0.1615E+00
  -6.545  0.2237E+00  0.1637E+00
  -6.535  0.2249E+00  0.1660E+00
  -6.525  0.2260E+00  0.1682E+00
  -6.515  0.2271E+00  0.1705E+00
  -6.505  0.2281E+00  0.1728E+00
  -6.495  0.2291E+00  0.1751E+00
  -6.485  0.2301E+00  0.1774E+00
  -6.475  0.2310E+00  0.1797E+00
  -6.465  0.2319E+00  0.1820E+00
  -6.455  0.2328E+00  0.1843E+00
  -6.445  0.2337E+00  0.1867E+00
  -6.435  0.2345E+00  0.1890E+00
  -6.425  0.2352E+00  0.1914E+00
  -6.415  0.2360E+00  0.1937E+00
  -6.405  0.2367E+00  0.1961E+00
  -6.395  0.2373E+00  0.1985E+00
  -6.385  0.2380E+00  0.2008E+00
  -6.375  0.2386E+00  0.2032E+00
  -6.365  0.2391E+00  0.2056E+00
  -6.355  0.2396E+00  0.2080E+00
  -6.345  0.2401E+00  0.2104E+00
  -6.335  0.2406E+00  0.2128E+00
  -6.325  0.2410E+00  0.2152E+00
  -6.315  0.2414E+00  0.2176E+00
  -6.305  0.2417E+00  0.2201E+00
  -6.295  0.2420E+00  0.2225E+00
  -6.285  0.2423E+00  0.2249E+00
  -6.275  0.2425E+00  0.2273E+00
  -6.265  0.2428E+00  0.2297E+00
  -6.255  0.2429E+00  0.2322E+00
  -6.245  0.2431E+00  0.2346E+00
  -6.235  0.2432E+00  0.2370E+00
  -6.225  0.2432E+00  0.2395E+00
  -6.215  0.2433E+00  0.2419E+00
  -6.205  0.2433E+00  0.2443E+00
  -6.195  0.2433E+00  0.2468E+00
  -6.185  0.2432E+00  0.2492E+00
  -6.175  0.2431E+00  0.2516E+00
  -6.165  0.2430E+00  0.2541E+00
  -6.155  0.2428E+00  0.2565E+00
  -6.145  0.2427E+00  0.2589E+00
  -6.135  0.2425E+00  0.2613E+00
  -6.125  0.2422E+00  0.2638E+00
  -6.115  0.2420E+00  0.2662E+00
  -6.105  0.2417E+00  0.2686E+00
  -6.095  0.2414E+00  0.2710E+00
  -6.085  0.2411E+00  0.2734E+00
  -6.075  0.2407E+00  0.2758E+00
  -6.065  0.2403E+00  0.2782E+00
  -6.055  0.2399E+00  0.2806E+00
  -6.045  0.2395E+00  0.2830E+00
  -6.035  0.2391E+00  0.2854E+00
  -6.025  0.2386E+00  0.2878E+00
  -6.015  0.2381E+00  0.2902E+00
  -6.005  0.2376E+00  0.2926E+00
  -5.995  0.2371E+00  0.2949E+00
  -5.985  0.2366E+00  0.2973E+00
  -5.975  0.2361E+00  0.2997E+00
  -5.965  0.2355E+00  0.3020E+00
  -5.955  0.2349E+00  0.3044E+00
  -5.945  0.2344E+00  0.3067E+00
  -5.935  0.2338E+00  0.3091E+00
  -5.925  0.2332E+00  0.3114E+00
  -5.915  0.2326E+00  0.3137E+00
  -5.905  0.2320E+00  0.3160E+00
  -5.895  0.2314E+00  0.3183E+00
  -5.885  0.2308E+00  0.3207E+00
  -5.875  0.2302E+00  0.3230E+00
  -5.865  0.2295E+00  0.3252E+00
  -5.855  0.2289E+00  0.3275E+00
  -5.845  0.2283E+00  0.3298E+00
  -5.835  0.2277E+00  0.3321E+00
  -5.825  0.2271E+00  0.3344E+00
  -5.815  0.2265E+00  0.3366E+00
  -5.805  0.2258E+00  0.3389E+00
  -5.795  0.2253E+00  0.3411E+00
  -5.785  0.2247E+00  0.3434E+00
  -5.775  0.2241E+00  0.3456E+00
  -5.765  0.2235E+00  0.3479E+00
  -5.755  0.2230E+00  0.3501E+00
  -5.745  0.2224E+00  0.3523E+00
  -5.735  0.2219E+00  0.3545E+00
  -5.725  0.2214E+00  0.3568E+00
  -5.715  0.2209E+00  0.3590E+00
  -5.705  0.2204E+00  0.3612E+00
  -5.695  0.2199E+00  0.3634E+00
  -5.685  0.2195E+00  0.3656E+00
  -5.675  0.2190E+00  0.3677E+00
  -5.665  0.2186E+00  0.3699E+00
  -5.655  0.2183E+00  0.3721E+00
  -5.645  0.2179E+00  0.3743E+00
  -5.635  0.2176E+00  0.3765E+00
  -5.625  0.2173E+00  0.3786E+00
  -5.615  0.2170E+00  0.3808E+00
  -5.605  0.2168E+00  0.3830E+00
  -5.595  0.2166E+00  0.3851E+00
  -5.585  0.2164E+00  0.3873E+00
  -5.575  0.2163E+00  0.3895E+00
  -5.565  0.2162E+00  0.3916E+00
  -5.555  0.2161E+00  0.3938E+00
  -5.545  0.2161E+00  0.3960E+00
  -5.535  0.2161E+00  0.3981E+00
  -5.525  0.2162E+00  0.4003E+00
  -5.515  0.2163E+00  0.4024E+00
  -5.505  0.2164E+00  0.4046E+00
  -5.495  0.2166E+00  0.4068E+00
  -5.485  0.2168E+00  0.4089E+00
  -5.475  0.2171E+00  0.4111E+00
  -5.465  0.2174E+00  0.4133E+00
  -5.455  0.2178E+00  0.4155E+00
  -5.445  0.2182E+00  0.4177E+00
  -5.435  0.2187E+00  0.4198E+00
  -5.425  0.2192E+00  0.4220E+00
  -5.415  0.2198E+00  0.4242E+00
  -5.405  0.2204E+00  0.4264E+00
  -5.395  0.2211E+00  0.4286E+00
  -5.385  0.2219E+00  0.4309E+00
  -5.375  0.2227E+00  0.4331E+00
  -5.365  0.2235E+00  0.4353E+00
  -5.355  0.2245E+00  0.4376E+00
  -5.345  0.2254E+00  0.4398E+00
  -5.335  0.2265E+00  0.4421E+00
  -5.325  0.2276E+00  0.4444E+00
  -5.315  0.2287E+00  0.4467E+00
  -5.305  0.2300E+00  0.4490E+00
  -5.295  0.2312E+00  0.4513E+00
  -5.285  0.2326E+00  0.4536E+00
  -5.275  0.2340E+00  0.4559E+00
  -5.265  0.2355E+00  0.4583E+00
  -5.255  0.2370E+00  0.4607E+00
  -5.245  0.2386E+00  0.4630E+00
  -5.235  0.2403E+00  0.4654E+00
  -5.225  0.2420E+00  0.4679E+00
  -5.215  0.2438E+00  0.4703E+00
  -5.205  0.2457E+00  0.4728E+00
  -5.195  0.2477E+00  0.4752E+00
  -5.185  0.2497E+00  0.4777E+00
  -5.175  0.2517E+00  0.4803E+00
  -5.165  0.2539E+00  0.4828E+00
  -5.155  0.2561E+00  0.4854E+00
  -5.145  0.2583E+00  0.4879E+00
  -5.135  0.2607E+00  0.4905E+00
  -5.125  0.2631E+00  0.4932E+00
  -5.115  0.2655E+00  0.4958E+00
  -5.105  0.2681E+00  0.4985E+00
  -5.095  0.2707E+00  0.5012E+00
  -5.085  0.2733E+00  0.5039E+00
  -5.075  0.2760E+00  0.5067E+00
  -5.065  0.2788E+00  0.5095E+00
  -5.055  0.2816E+00  0.5123E+00
  -5.045  0.2845E+00  0.5152E+00
  -5.035  0.2875E+00  0.5180E+00
  -5.025  0.2905E+00  0.5209E+00
  -5.015  0.2935E+00  0.5239E+00
  -5.005  0.2966E+00  0.5268E+00
  -4.995  0.2998E+00  0.5298E+00
  -4.985  0.3030E+00  0.5329E+00
  -4.975  0.3063E+00  0.5359E+00
  -4.965  0.3096E+00  0.5390E+00
  -4.955  0.3130E+00  0.5422E+00
  -4.945  0.3164E+00  0.5453E+00
  -4.935  0.3198E+00  0.5485E+00
  -4.925  0.3233E+00  0.5518E+00
  -4.915  0.3268E+00  0.5550E+00
  -4.905  0.3304E+00  0.5583E+00
  -4.895  0.3340E+00  0.5617E+00
  -4.885  0.3376E+00  0.5650E+00
  -4.875  0.3413E+00  0.5685E+00
  -4.865  0.3450E+00  0.5719E+00
  -4.855  0.3487E+00  0.5754E+00
  -4.845  0.3525E+00  0.5789E+00
  -4.835  0.3562E+00  0.5825E+00
  -4.825  0.3600E+00  0.5861E+00
  -4.815  0.3638E+00  0.5897E+00
  -4.805  0.3676E+00  0.5934E+00
  -4.795  0.3714E+00  0.5971E+00
  -4.785  0.3753E+00  0.6009E+00
  -4.775  0.3791E+00  0.6046E+00
  -4.765  0.3829E+00  0.6085E+00
  -4.755  0.3868E+00  0.6123E+00
  -4.745  0.3906E+00  0.6163E+00
  -4.735  0.3945E+00  0.6202E+00
  -4.725  0.3983E+00  0.6242E+00
  -4.715  0.4021E+00  0.6282E+00
  -4.705  0.4059E+00  0.6323E+00
  -4.695  0.4097E+00  0.6364E+00
  -4.685  0.4135E+00  0.6405E+00
  -4.675  0.4173E+00  0.6447E+00
  -4.665  0.4210E+00  0.6489E+00
  -4.655  0.4247E+00  0.6531E+00
  -4.645  0.4284E+00  0.6574E+00
  -4.635  0.4320E+00  0.6617E+00
  -4.625  0.4357E+00  0.6661E+00
  -4.615  0.4392E+00  0.6705E+00
  -4.605  0.4428E+00  0.6749E+00
  -4.595  0.4463E+00  0.6794E+00
  -4.585  0.4497E+00  0.6839E+00
  -4.575  0.4532E+00  0.6884E+00
  -4.565  0.4565E+00  0.6930E+00
  -4.555  0.4598E+00  0.6976E+00
  -4.545  0.4631E+00  0.7022E+00
  -4.535  0.4663E+00  0.7069E+00
  -4.525  0.4695E+00  0.7115E+00
  -4.515  0.4725E+00  0.7163E+00
  -4.505  0.4756E+00  0.7210E+00
  -4.495  0.4785E+00  0.7258E+00
  -4.485  0.4814E+00  0.7306E+00
  -4.475  0.4843E+00  0.7355E+00
  -4.465  0.4870E+00  0.7403E+00
  -4.455  0.4897E+00  0.7452E+00
  -4.445  0.4923E+00  0.7502E+00
  -4.435  0.4948E+00  0.7551E+00
  -4.425  0.4973E+00  0.7601E+00
  -4.415  0.4997E+00  0.7651E+00
  -4.405  0.5020E+00  0.7701E+00
  -4.395  0.5042E+00  0.7751E+00
  -4.385  0.5063E+00  0.7802E+00
  -4.375  0.5083E+00  0.7853E+00
  -4.365  0.5103E+00  0.7904E+00
  -4.355  0.5121E+00  0.7955E+00
  -4.345  0.5139E+00  0.8006E+00
  -4.335  0.5156E+00  0.8058E+00
  -4.325  0.5172E+00  0.8110E+00
  -4.315  0.5186E+00  0.8162E+00
  -4.305  0.5200E+00  0.8214E+00
  -4.295  0.5213E+00  0.8266E+00
  -4.285  0.5225E+00  0.8318E+00
  -4.275  0.5236E+00  0.8370E+00
  -4.265  0.5246E+00  0.8423E+00
  -4.255  0.5255E+00  0.8475E+00
  -4.245  0.5263E+00  0.8528E+00
  -4.235  0.5270E+00  0.8581E+00
  -4.225  0.5276E+00  0.8633E+00
  -4.215  0.5280E+00  0.8686E+00
  -4.205  0.5284E+00  0.8739E+00
  -4.195  0.5287E+00  0.8792E+00
  -4.185  0.5289E+00  0.8845E+00
  -4.175  0.5289E+00  0.8898E+00
  -4.165  0.5289E+00  0.8951E+00
  -4.155  0.5287E+00  0.9004E+00
  -4.145  0.5285E+00  0.9056E+00
  -4.135  0.5281E+00  0.9109E+00
  -4.125  0.5276E+00  0.9162E+00
  -4.115  0.5270E+00  0.9215E+00
  -4.105  0.5263E+00  0.9267E+00
  -4.095  0.5255E+00  0.9320E+00
  -4.085  0.5246E+00  0.9372E+00
  -4.075  0.5236E+00  0.9425E+00
  -4.065  0.5225E+00  0.9477E+00
  -4.055  0.5212E+00  0.9529E+00
  -4.045  0.5199E+00  0.9581E+00
  -4.035  0.5185E+00  0.9633E+00
  -4.025  0.5169E+00  0.9685E+00
  -4.015  0.5153E+00  0.9736E+00
  -4.005  0.5135E+00  0.9787E+00
  -3.995  0.5116E+00  0.9839E+00
  -3.985  0.5097E+00  0.9890E+00
  -3.975  0.5076E+00  0.9940E+00
  -3.965  0.5054E+00  0.9991E+00
  -3.955  0.5032E+00  0.1004E+01
  -3.945  0.5008E+00  0.1009E+01
  -3.935  0.4983E+00  0.1014E+01
  -3.925  0.4958E+00  0.1019E+01
  -3.915  0.4931E+00  0.1024E+01
  -3.905  0.4904E+00  0.1029E+01
  -3.895  0.4876E+00  0.1034E+01
  -3.885  0.4846E+00  0.1039E+01
  -3.875  0.4816E+00  0.1043E+01
  -3.865  0.4785E+00  0.1048E+01
  -3.855  0.4753E+00  0.1053E+01
  -3.845  0.4721E+00  0.1058E+01
  -3.835  0.4687E+00  0.1062E+01
  -3.825  0.4653E+00  0.1067E+01
  -3.815  0.4618E+00  0.1072E+01
  -3.805  0.4582E+00  0.1076E+01
  -3.795  0.4546E+00  0.1081E+01
  -3.785  0.4508E+00  0.1085E+01
  -3.775  0.4471E+00  0.1090E+01
  -3.765  0.4432E+00  0.1094E+01
  -3.755  0.4393E+00  0.1099E+01
  -3.745  0.4353E+00  0.1103E+01
  -3.735  0.4313E+00  0.1107E+01
  -3.725  0.4273E+00  0.1112E+01
  -3.715  0.4232E+00  0.1116E+01
  -3.705  0.4190E+00  0.1120E+01
  -3.695  0.4148E+00  0.1124E+01
  -3.685  0.4106E+00  0.1128E+01
  -3.675  0.4063E+00  0.1132E+01
  -3.665  0.4020E+00  0.1136E+01
  -3.655  0.3976E+00  0.1140E+01
  -3.645  0.3933E+00  0.1144E+01
  -3.635  0.3889E+00  0.1148E+01
  -3.625  0.3845E+00  0.1152E+01
  -3.615  0.3801E+00  0.1156E+01
  -3.605  0.3757E+00  0.1159E+01
  -3.595  0.3713E+00  0.1163E+01
  -3.585  0.3668E+00  0.1167E+01
  -3.575  0.3624E+00  0.1170E+01
  -3.565  0.3580E+00  0.1174E+01
  -3.555  0.3536E+00  0.1178E+01
  -3.545  0.3492E+00  0.1181E+01
  -3.535  0.3448E+00  0.1185E+01
  -3.525  0.3404E+00  0.1188E+01
  -3.515  0.3361E+00  0.1191E+01
  -3.505  0.3318E+00  0.1195E+01
  -3.495  0.3275E+00  0.1198E+01
  -3.485  0.3233E+00  0.1201E+01
  -3.475  0.3191E+00  0.1204E+01
  -3.465  0.3150E+00  0.1207E+01
  -3.455  0.3109E+00  0.1211E+01
  -3.445  0.3068E+00  0.1214E+01
  -3.435  0.3029E+00  0.1217E+01
  -3.425  0.2989E+00  0.1220E+01
  -3.415  0.2951E+00  0.1223E+01
  -3.405  0.2913E+00  0.1226E+01
  -3.395  0.2876E+00  0.1228E+01
  -3.385  0.2839E+00  0.1231E+01
  -3.375  0.2803E+00  0.1234E+01
  -3.365  0.2768E+00  0.1237E+01
  -3.355  0.2734E+00  0.1240E+01
  -3.345  0.2701E+00  0.1242E+01
  -3.335  0.2669E+00  0.1245E+01
  -3.325  0.2637E+00  0.1248E+01
  -3.315  0.2607E+00  0.1250E+01
  -3.305  0.2578E+00  0.1253E+01
  -3.295  0.2549E+00  0.1255E+01
  -3.285  0.2522E+00  0.1258E+01
  -3.275  0.2495E+00  0.1260E+01
  -3.265  0.2470E+00  0.1263E+01
  -3.255  0.2446E+00  0.1265E+01
  -3.245  0.2423E+00  0.1268E+01
  -3.235  0.2401E+00  0.1270E+01
  -3.225  0.2381E+00  0.1272E+01
  -3.215  0.2361E+00  0.1275E+01
  -3.205  0.2343E+00  0.1277E+01
  -3.195  0.2326E+00  0.1279E+01
  -3.185  0.2310E+00  0.1282E+01
  -3.175  0.2296E+00  0.1284E+01
  -3.165  0.2282E+00  0.1286E+01
  -3.155  0.2270E+00  0.1289E+01
  -3.145  0.2260E+00  0.1291E+01
  -3.135  0.2250E+00  0.1293E+01
  -3.125  0.2242E+00  0.1295E+01
  -3.115  0.2235E+00  0.1298E+01
  -3.105  0.2230E+00  0.1300E+01
  -3.095  0.2225E+00  0.1302E+01
  -3.085  0.2222E+00  0.1304E+01
  -3.075  0.2221E+00  0.1307E+01
  -3.065  0.2221E+00  0.1309E+01
  -3.055  0.2222E+00  0.1311E+01
  -3.045  0.2224E+00  0.1313E+01
  -3.035  0.2228E+00  0.1315E+01
  -3.025  0.2232E+00  0.1318E+01
  -3.015  0.2239E+00  0.1320E+01
  -3.005  0.2246E+00  0.1322E+01
  -2.995  0.2255E+00  0.1324E+01
  -2.985  0.2265E+00  0.1327E+01
  -2.975  0.2276E+00  0.1329E+01
  -2.965  0.2289E+00  0.1331E+01
  -2.955  0.2303E+00  0.1334E+01
  -2.945  0.2318E+00  0.1336E+01
  -2.935  0.2334E+00  0.1338E+01
  -2.925  0.2351E+00  0.1341E+01
  -2.915  0.2370E+00  0.1343E+01
  -2.905  0.2390E+00  0.1345E+01
  -2.895  0.2411E+00  0.1348E+01
  -2.885  0.2433E+00  0.1350E+01
  -2.875  0.2456E+00  0.1353E+01
  -2.865  0.2480E+00  0.1355E+01
  -2.855  0.2506E+00  0.1358E+01
  -2.845  0.2532E+00  0.1360E+01
  -2.835  0.2560E+00  0.1363E+01
  -2.825  0.2588E+00  0.1365E+01
  -2.815  0.2618E+00  0.1368E+01
  -2.805  0.2649E+00  0.1371E+01
  -2.795  0.2680E+00  0.1373E+01
  -2.785  0.2712E+00  0.1376E+01
  -2.775  0.2746E+00  0.1379E+01
  -2.765  0.2780E+00  0.1381E+01
  -2.755  0.2815E+00  0.1384E+01
  -2.745  0.2851E+00  0.1387E+01
  -2.735  0.2888E+00  0.1390E+01
  -2.725  0.2926E+00  0.1393E+01
  -2.715  0.2964E+00  0.1396E+01
  -2.705  0.3003E+00  0.1399E+01
  -2.695  0.3043E+00  0.1402E+01
  -2.685  0.3084E+00  0.1405E+01
  -2.675  0.3125E+00  0.1408E+01
  -2.665  0.3167E+00  0.1411E+01
  -2.655  0.3210E+00  0.1415E+01
  -2.645  0.3253E+00  0.1418E+01
  -2.635  0.3297E+00  0.1421E+01
  -2.625  0.3341E+00  0.1424E+01
  -2.615  0.3386E+00  0.1428E+01
  -2.605  0.3431E+00  0.1431E+01
  -2.595  0.3477E+00  0.1435E+01
  -2.585  0.3523E+00  0.1438E+01
  -2.575  0.3570E+00  0.1442E+01
  -2.565  0.3617E+00  0.1445E+01
  -2.555  0.3665E+00  0.1449E+01
  -2.545  0.3712E+00  0.1453E+01
  -2.535  0.3761E+00  0.1457E+01
  -2.525  0.3809E+00  0.1460E+01
  -2.515  0.3858E+00  0.1464E+01
  -2.505  0.3907E+00  0.1468E+01
  -2.495  0.3956E+00  0.1472E+01
  -2.485  0.4005E+00  0.1476E+01
  -2.475  0.4055E+00  0.1480E+01
  -2.465  0.4104E+00  0.1484E+01
  -2.455  0.4154E+00  0.1488E+01
  -2.445  0.4204E+00  0.1493E+01
  -2.435  0.4254E+00  0.1497E+01
  -2.425  0.4303E+00  0.1501E+01
  -2.415  0.4353E+00  0.1505E+01
  -2.405  0.4403E+00  0.1510E+01
  -2.395  0.4453E+00  0.1514E+01
  -2.385  0.4503E+00  0.1519E+01
  -2.375  0.4552E+00  0.1523E+01
  -2.365  0.4602E+00  0.1528E+01
  -2.355  0.4651E+00  0.1533E+01
  -2.345  0.4700E+00  0.1537E+01
  -2.335  0.4749E+00  0.1542E+01
  -2.325  0.4798E+00  0.1547E+01
  -2.315  0.4846E+00  0.1552E+01
  -2.305  0.4894E+00  0.1557E+01
  -2.295  0.4942E+00  0.1562E+01
  -2.285  0.4990E+00  0.1567E+01
  -2.275  0.5037E+00  0.1572E+01
  -2.265  0.5084E+00  0.1577E+01
  -2.255  0.5130E+00  0.1582E+01
  -2.245  0.5176E+00  0.1587E+01
  -2.235  0.5222E+00  0.1592E+01
  -2.225  0.5267E+00  0.1597E+01
  -2.215  0.5311E+00  0.1603E+01
  -2.205  0.5355E+00  0.1608E+01
  -2.195  0.5399E+00  0.1614E+01
  -2.185  0.5442E+00  0.1619E+01
  -2.175  0.5484E+00  0.1624E+01
  -2.165  0.5526E+00  0.1630E+01
  -2.155  0.5567E+00  0.1636E+01
  -2.145  0.5607E+00  0.1641E+01
  -2.135  0.5647E+00  0.1647E+01
  -2.125  0.5687E+00  0.1653E+01
  -2.115  0.5725E+00  0.1658E+01
  -2.105  0.5763E+00  0.1664E+01
  -2.095  0.5800E+00  0.1670E+01
  -2.085  0.5837E+00  0.1676E+01
  -2.075  0.5872E+00  0.1682E+01
  -2.065  0.5907E+00  0.1687E+01
  -2.055  0.5941E+00  0.1693E+01
  -2.045  0.5975E+00  0.1699E+01
  -2.035  0.6007E+00  0.1705E+01
  -2.025  0.6039E+00  0.1711E+01
  -2.015  0.6070E+00  0.1717E+01
  -2.005  0.6100E+00  0.1724E+01
  -1.995  0.6130E+00  0.1730E+01
  -1.985  0.6159E+00  0.1736E+01
  -1.975  0.6186E+00  0.1742E+01
  -1.965  0.6213E+00  0.1748E+01
  -1.955  0.6239E+00  0.1754E+01
  -1.945  0.6265E+00  0.1761E+01
  -1.935  0.6289E+00  0.1767E+01
  -1.925  0.6313E+00  0.1773E+01
  -1.915  0.6335E+00  0.1780E+01
  -1.905  0.6357E+00  0.1786E+01
  -1.895  0.6378E+00  0.1792E+01
  -1.885  0.6399E+00  0.1799E+01
  -1.875  0.6418E+00  0.1805E+01
  -1.865  0.6437E+00  0.1812E+01
  -1.855  0.6455E+00  0.1818E+01
  -1.845  0.6471E+00  0.1825E+01
  -1.835  0.6488E+00  0.1831E+01
  -1.825  0.6503E+00  0.1838E+01
  -1.815  0.6517E+00  0.1844E+01
  -1.805  0.6531E+00  0.1851E+01
  -1.795  0.6544E+00  0.1857E+01
  -1.785  0.6556E+00  0.1864E+01
  -1.775  0.6568E+00  0.1870E+01
  -1.765  0.6578E+00  0.1877E+01
  -1.755  0.6588E+00  0.1883E+01
  -1.745  0.6597E+00  0.1890E+01
  -1.735  0.6606E+00  0.1897E+01
  -1.725  0.6613E+00  0.1903E+01
  -1.715  0.6620E+00  0.1910E+01
  -1.705  0.6627E+00  0.1917E+01
  -1.695  0.6632E+00  0.1923E+01
  -1.685  0.6637E+00  0.1930E+01
  -1.675  0.6642E+00  0.1936E+01
  -1.665  0.6645E+00  0.1943E+01
  -1.655  0.6649E+00  0.1950E+01
  -1.645  0.6651E+00  0.1956E+01
  -1.635  0.6653E+00  0.1963E+01
  -1.625  0.6654E+00  0.1970E+01
  -1.615  0.6655E+00  0.1976E+01
  -1.605  0.6655E+00  0.1983E+01
  -1.595  0.6655E+00  0.1990E+01
  -1.585  0.6654E+00  0.1996E+01
  -1.575  0.6652E+00  0.2003E+01
  -1.565  0.6650E+00  0.2010E+01
  -1.555  0.6648E+00  0.2016E+01
  -1.545  0.6645E+00  0.2023E+01
  -1.535  0.6642E+00  0.2030E+01
  -1.525  0.6638E+00  0.2036E+01
  -1.515  0.6634E+00  0.2043E+01
  -1.505  0.6630E+00  0.2049E+01
  -1.495  0.6625E+00  0.2056E+01
  -1.485  0.6619E+00  0.2063E+01
  -1.475  0.6614E+00  0.2069E+01
  -1.465  0.6608E+00  0.2076E+01
  -1.455  0.6601E+00  0.2083E+01
  -1.445  0.6594E+00  0.2089E+01
  -1.435  0.6587E+00  0.2096E+01
  -1.425  0.6580E+00  0.2102E+01
  -1.415  0.6572E+00  0.2109E+01
  -1.405  0.6564E+00  0.2115E+01
  -1.395  0.6556E+00  0.2122E+01
  -1.385  0.6548E+00  0.2129E+01
  -1.375  0.6539E+00  0.2135E+01
  -1.365  0.6530E+00  0.2142E+01
  -1.355  0.6520E+00  0.2148E+01
  -1.345  0.6511E+00  0.2155E+01
  -1.335  0.6501E+00  0.2161E+01
  -1.325  0.6491E+00  0.2168E+01
  -1.315  0.6481E+00  0.2174E+01
  -1.305  0.6471E+00  0.2181E+01
  -1.295  0.6460E+00  0.2187E+01
  -1.285  0.6449E+00  0.2193E+01
  -1.275  0.6439E+00  0.2200E+01
  -1.265  0.6427E+00  0.2206E+01
  -1.255  0.6416E+00  0.2213E+01
  -1.245  0.6405E+00  0.2219E+01
  -1.235  0.6393E+00  0.2226E+01
  -1.225  0.6381E+00  0.2232E+01
  -1.215  0.6369E+00  0.2238E+01
  -1.205  0.6357E+00  0.2245E+01
  -1.195  0.6345E+00  0.2251E+01
  -1.185  0.6332E+00  0.2257E+01
  -1.175  0.6320E+00  0.2264E+01
  -1.165  0.6307E+00  0.2270E+01
  -1.155  0.6294E+00  0.2276E+01
  -1.145  0.6281E+00  0.2283E+01
  -1.135  0.6268E+00  0.2289E+01
  -1.125  0.6254E+00  0.2295E+01
  -1.115  0.6241E+00  0.2301E+01
  -1.105  0.6227E+00  0.2308E+01
  -1.095  0.6213E+00  0.2314E+01
  -1.085  0.6199E+00  0.2320E+01
  -1.075  0.6185E+00  0.2326E+01
  -1.065  0.6171E+00  0.2332E+01
  -1.055  0.6157E+00  0.2338E+01
  -1.045  0.6142E+00  0.2345E+01
  -1.035  0.6128E+00  0.2351E+01
  -1.025  0.6113E+00  0.2357E+01
  -1.015  0.6098E+00  0.2363E+01
  -1.005  0.6083E+00  0.2369E+01
  -0.995  0.6068E+00  0.2375E+01
  -0.985  0.6052E+00  0.2381E+01
  -0.975  0.6037E+00  0.2387E+01
  -0.965  0.6021E+00  0.2393E+01
  -0.955  0.6005E+00  0.2399E+01
  -0.945  0.5989E+00  0.2405E+01
  -0.935  0.5973E+00  0.2411E+01
  -0.925  0.5957E+00  0.2417E+01
  -0.915  0.5941E+00  0.2423E+01
  -0.905  0.5924E+00  0.2429E+01
  -0.895  0.5908E+00  0.2435E+01
  -0.885  0.5891E+00  0.2441E+01
  -0.875  0.5874E+00  0.2447E+01
  -0.865  0.5857E+00  0.2453E+01
  -0.855  0.5840E+00  0.2458E+01
  -0.845  0.5823E+00  0.2464E+01
  -0.835  0.5806E+00  0.2470E+01
  -0.825  0.5788E+00  0.2476E+01
  -0.815  0.5771E+00  0.2482E+01
  -0.805  0.5753E+00  0.2487E+01
  -0.795  0.5736E+00  0.2493E+01
  -0.785  0.5718E+00  0.2499E+01
  -0.775  0.5700E+00  0.2504E+01
  -0.765  0.5683E+00  0.2510E+01
  -0.755  0.5665E+00  0.2516E+01
  -0.745  0.5647E+00  0.2521E+01
  -0.735  0.5629E+00  0.2527E+01
  -0.725  0.5611E+00  0.2533E+01
  -0.715  0.5593E+00  0.2538E+01
  -0.705  0.5575E+00  0.2544E+01
  -0.695  0.5557E+00  0.2549E+01
  -0.685  0.5539E+00  0.2555E+01
  -0.675  0.5521E+00  0.2560E+01
  -0.665  0.5503E+00  0.2566E+01
  -0.655  0.5485E+00  0.2571E+01
  -0.645  0.5467E+00  0.2577E+01
  -0.635  0.5449E+00  0.2582E+01
  -0.625  0.5431E+00  0.2588E+01
  -0.615  0.5413E+00  0.2593E+01
  -0.605  0.5396E+00  0.2599E+01
  -0.595  0.5378E+00  0.2604E+01
  -0.585  0.5361E+00  0.2609E+01
  -0.575  0.5344E+00  0.2615E+01
  -0.565  0.5327E+00  0.2620E+01
  -0.555  0.5310E+00  0.2625E+01
  -0.545  0.5293E+00  0.2631E+01
  -0.535  0.5277E+00  0.2636E+01
  -0.525  0.5260E+00  0.2641E+01
  -0.515  0.5244E+00  0.2646E+01
  -0.505  0.5228E+00  0.2652E+01
  -0.495  0.5212E+00  0.2657E+01
  -0.485  0.5197E+00  0.2662E+01
  -0.475  0.5182E+00  0.2667E+01
  -0.465  0.5167E+00  0.2672E+01
  -0.455  0.5152E+00  0.2678E+01
  -0.445  0.5138E+00  0.2683E+01
  -0.435  0.5124E+00  0.2688E+01
  -0.425  0.5110E+00  0.2693E+01
  -0.415  0.5097E+00  0.2698E+01
  -0.405  0.5084E+00  0.2703E+01
  -0.395  0.5071E+00  0.2708E+01
  -0.385  0.5059E+00  0.2713E+01
  -0.375  0.5047E+00  0.2718E+01
  -0.365  0.5036E+00  0.2723E+01
  -0.355  0.5025E+00  0.2728E+01
  -0.345  0.5014E+00  0.2733E+01
  -0.335  0.5004E+00  0.2738E+01
  -0.325  0.4994E+00  0.2743E+01
  -0.315  0.4985E+00  0.2748E+01
  -0.305  0.4976E+00  0.2753E+01
  -0.295  0.4968E+00  0.2758E+01
  -0.285  0.4960E+00  0.2763E+01
  -0.275  0.4952E+00  0.2768E+01
  -0.265  0.4945E+00  0.2773E+01
  -0.255  0.4939E+00  0.2778E+01
  -0.245  0.4933E+00  0.2783E+01
  -0.235  0.4928E+00  0.2788E+01
  -0.225  0.4923E+00  0.2793E+01
  -0.215  0.4918E+00  0.2798E+01
  -0.205  0.4914E+00  0.2803E+01
  -0.195  0.4911E+00  0.2808E+01
  -0.185  0.4908E+00  0.2813E+01
  -0.175  0.4906E+00  0.2817E+01
  -0.165  0.4904E+00  0.2822E+01
  -0.155  0.4903E+00  0.2827E+01
  -0.145  0.4902E+00  0.2832E+01
  -0.135  0.4902E+00  0.2837E+01
  -0.125  0.4902E+00  0.2842E+01
  -0.115  0.4903E+00  0.2847E+01
  -0.105  0.4905E+00  0.2852E+01
  -0.095  0.4907E+00  0.2857E+01
  -0.085  0.4909E+00  0.2862E+01
  -0.075  0.4912E+00  0.2866E+01
  -0.065  0.4916E+00  0.2871E+01
  -0.055  0.4920E+00  0.2876E+01
  -0.045  0.4924E+00  0.2881E+01
  -0.035  0.4930E+00  0.2886E+01
  -0.025  0.4935E+00  0.2891E+01
  -0.015  0.4942E+00  0.2896E+01
  -0.005  0.4948E+00  0.2901E+01
   0.005  0.4955E+00  0.2906E+01
   0.015  0.4963E+00  0.2911E+01
   0.025  0.4971E+00  0.2916E+01
   0.035  0.4980E+00  0.2921E+01
   0.045  0.4989E+00  0.2926E+01
   0.055  0.4999E+00  0.2931E+01
   0.065  0.5009E+00  0.2936E+01
   0.075  0.5019E+00  0.2941E+01
   0.085  0.5030E+00  0.2946E+01
   0.095  0.5042E+00  0.2951E+01
   0.105  0.5053E+00  0.2956E+01
   0.115  0.5066E+00  0.2961E+01
   0.125  0.5078E+00  0.2966E+01
   0.135  0.5091E+00  0.2971E+01
   0.145  0.5104E+00  0.2976E+01
   0.155  0.5118E+00  0.2981E+01
   0.165  0.5132E+00  0.2987E+01
   0.175  0.5146E+00  0.2992E+01
   0.185  0.5161E+00  0.2997E+01
   0.195  0.5176E+00  0.3002E+01
   0.205  0.5191E+00  0.3007E+01
   0.215  0.5207E+00  0.3012E+01
   0.225  0.5222E+00  0.3018E+01
   0.235  0.5238E+00  0.3023E+01
   0.245  0.5254E+00  0.3028E+01
   0.255  0.5271E+00  0.3033E+01
   0.265  0.5287E+00  0.3039E+01
   0.275  0.5304E+00  0.3044E+01
   0.285  0.5321E+00  0.3049E+01
   0.295  0.5338E+00  0.3055E+01
   0.305  0.5355E+00  0.3060E+01
   0.315  0.5372E+00  0.3065E+01
   0.325  0.5389E+00  0.3071E+01
   0.335  0.5406E+00  0.3076E+01
   0.345  0.5424E+00  0.3082E+01
   0.355  0.5441E+00  0.3087E+01
   0.365  0.5458E+00  0.3093E+01
   0.375  0.5475E+00  0.3098E+01
   0.385  0.5493E+00  0.3104E+01
   0.395  0.5510E+00  0.3109E+01
   0.405  0.5527E+00  0.3115E+01
   0.415  0.5544E+00  0.3120E+01
   0.425  0.5561E+00  0.3126E+01
   0.435  0.5577E+00  0.3131E+01
   0.445  0.5594E+00  0.3137E+01
   0.455  0.5610E+00  0.3142E+01
   0.465  0.5626E+00  0.3148E+01
   0.475  0.5642E+00  0.3154E+01
   0.485  0.5658E+00  0.3159E+01
   0.495  0.5674E+00  0.3165E+01
   0.505  0.5689E+00  0.3171E+01
   0.515  0.5704E+00  0.3176E+01
   0.525  0.5718E+00  0.3182E+01
   0.535  0.5732E+00  0.3188E+01
   0.545  0.5746E+00  0.3194E+01
   0.555  0.5760E+00  0.3199E+01
   0.565  0.5773E+00  0.3205E+01
   0.575  0.5786E+00  0.3211E+01
   0.585  0.5798E+00  0.3217E+01
   0.595  0.5811E+00  0.3223E+01
   0.605  0.5822E+00  0.3228E+01
   0.615  0.5833E+00  0.3234E+01
   0.625  0.5844E+00  0.3240E+01
   0.635  0.5855E+00  0.3246E+01
   0.645  0.5865E+00  0.3252E+01
   0.655  0.5874E+00  0.3258E+01
   0.665  0.5883E+00  0.3264E+01
   0.675  0.5892E+00  0.3269E+01
   0.685  0.5900E+00  0.3275E+01
   0.695  0.5907E+00  0.3281E+01
   0.705  0.5915E+00  0.3287E+01
   0.715  0.5921E+00  0.3293E+01
   0.725  0.5928E+00  0.3299E+01
   0.735  0.5933E+00  0.3305E+01
   0.745  0.5939E+00  0.3311E+01
   0.755  0.5943E+00  0.3317E+01
   0.765  0.5948E+00  0.3323E+01
   0.775  0.5952E+00  0.3329E+01
   0.785  0.5955E+00  0.3335E+01
   0.795  0.5958E+00  0.3341E+01
   0.805  0.5961E+00  0.3347E+01
   0.815  0.5963E+00  0.3353E+01
   0.825  0.5965E+00  0.3359E+01
   0.835  0.5966E+00  0.3364E+01
   0.845  0.5967E+00  0.3370E+01
   0.855  0.5968E+00  0.3376E+01
   0.865  0.5968E+00  0.3382E+01
   0.875  0.5968E+00  0.3388E+01
   0.885  0.5967E+00  0.3394E+01
   0.895  0.5966E+00  0.3400E+01
   0.905  0.5965E+00  0.3406E+01
   0.915  0.5964E+00  0.3412E+01
   0.925  0.5962E+00  0.3418E+01
   0.935  0.5960E+00  0.3424E+01
   0.945  0.5958E+00  0.3430E+01
   0.955  0.5955E+00  0.3436E+01
   0.965  0.5953E+00  0.3442E+01
   0.975  0.5950E+00  0.3448E+01
   0.985  0.5947E+00  0.3454E+01
   0.995  0.5944E+00  0.3460E+01
   1.005  0.5941E+00  0.3466E+01
   1.015  0.5937E+00  0.3472E+01
   1.025  0.5934E+00  0.3478E+01
   1.035  0.5930E+00  0.3484E+01
   1.045  0.5927E+00  0.3490E+01
   1.055  0.5923E+00  0.3495E+01
   1.065  0.5920E+00  0.3501E+01
   1.075  0.5916E+00  0.3507E+01
   1.085  0.5913E+00  0.3513E+01
   1.095  0.5909E+00  0.3519E+01
   1.105  0.5906E+00  0.3525E+01
   1.115  0.5903E+00  0.3531E+01
   1.125  0.5899E+00  0.3537E+01
   1.135  0.5896E+00  0.3543E+01
   1.145  0.5894E+00  0.3549E+01
   1.155  0.5891E+00  0.3554E+01
   1.165  0.5888E+00  0.3560E+01
   1.175  0.5886E+00  0.3566E+01
   1.185  0.5884E+00  0.3572E+01
   1.195  0.5882E+00  0.3578E+01
   1.205  0.5881E+00  0.3584E+01
   1.215  0.5879E+00  0.3590E+01
   1.225  0.5878E+00  0.3596E+01
   1.235  0.5877E+00  0.3602E+01
   1.245  0.5877E+00  0.3607E+01
   1.255  0.5877E+00  0.3613E+01
   1.265  0.5877E+00  0.3619E+01
   1.275  0.5877E+00  0.3625E+01
   1.285  0.5878E+00  0.3631E+01
   1.295  0.5879E+00  0.3637E+01
   1.305  0.5880E+00  0.3643E+01
   1.315  0.5882E+00  0.3649E+01
   1.325  0.5884E+00  0.3654E+01
   1.335  0.5887E+00  0.3660E+01
   1.345  0.5890E+00  0.3666E+01
   1.355  0.5893E+00  0.3672E+01
   1.365  0.5896E+00  0.3678E+01
   1.375  0.5900E+00  0.3684E+01
   1.385  0.5905E+00  0.3690E+01
   1.395  0.5909E+00  0.3696E+01
   1.405  0.5914E+00  0.3702E+01
   1.415  0.5919E+00  0.3708E+01
   1.425  0.5925E+00  0.3713E+01
   1.435  0.5931E+00  0.3719E+01
   1.445  0.5937E+00  0.3725E+01
   1.455  0.5944E+00  0.3731E+01
   1.465  0.5950E+00  0.3737E+01
   1.475  0.5957E+00  0.3743E+01
   1.485  0.5965E+00  0.3749E+01
   1.495  0.5972E+00  0.3755E+01
   1.505  0.5980E+00  0.3761E+01
   1.515  0.5988E+00  0.3767E+01
   1.525  0.5997E+00  0.3773E+01
   1.535  0.6005E+00  0.3779E+01
   1.545  0.6014E+00  0.3785E+01
   1.555  0.6023E+00  0.3791E+01
   1.565  0.6032E+00  0.3797E+01
   1.575  0.6041E+00  0.3803E+01
   1.585  0.6051E+00  0.3809E+01
   1.595  0.6060E+00  0.3815E+01
   1.605  0.6070E+00  0.3821E+01
   1.615  0.6079E+00  0.3827E+01
   1.625  0.6089E+00  0.3834E+01
   1.635  0.6099E+00  0.3840E+01
   1.645  0.6108E+00  0.3846E+01
   1.655  0.6118E+00  0.3852E+01
   1.665  0.6128E+00  0.3858E+01
   1.675  0.6137E+00  0.3864E+01
   1.685  0.6147E+00  0.3870E+01
   1.695  0.6156E+00  0.3876E+01
   1.705  0.6166E+00  0.3883E+01
   1.715  0.6175E+00  0.3889E+01
   1.725  0.6184E+00  0.3895E+01
   1.735  0.6193E+00  0.3901E+01
   1.745  0.6201E+00  0.3907E+01
   1.755  0.6210E+00  0.3914E+01
   1.765  0.6218E+00  0.3920E+01
   1.775  0.6226E+00  0.3926E+01
   1.785  0.6233E+00  0.3932E+01
   1.795  0.6241E+00  0.3939E+01
   1.805  0.6248E+00  0.3945E+01
   1.815  0.6254E+00  0.3951E+01
   1.825  0.6261E+00  0.3957E+01
   1.835  0.6267E+00  0.3964E+01
   1.845  0.6272E+00  0.3970E+01
   1.855  0.6277E+00  0.3976E+01
   1.865  0.6282E+00  0.3982E+01
   1.875  0.6286E+00  0.3989E+01
   1.885  0.6289E+00  0.3995E+01
   1.895  0.6292E+00  0.4001E+01
   1.905  0.6295E+00  0.4008E+01
   1.915  0.6297E+00  0.4014E+01
   1.925  0.6298E+00  0.4020E+01
   1.935  0.6299E+00  0.4026E+01
   1.945  0.6299E+00  0.4033E+01
   1.955  0.6299E+00  0.4039E+01
   1.965  0.6298E+00  0.4045E+01
   1.975  0.6296E+00  0.4052E+01
   1.985  0.6294E+00  0.4058E+01
   1.995  0.6291E+00  0.4064E+01
   2.005  0.6287E+00  0.4070E+01
   2.015  0.6282E+00  0.4077E+01
   2.025  0.6277E+00  0.4083E+01
   2.035  0.6271E+00  0.4089E+01
   2.045  0.6265E+00  0.4096E+01
   2.055  0.6257E+00  0.4102E+01
   2.065  0.6249E+00  0.4108E+01
   2.075  0.6240E+00  0.4114E+01
   2.085  0.6231E+00  0.4121E+01
   2.095  0.6220E+00  0.4127E+01
   2.105  0.6209E+00  0.4133E+01
   2.115  0.6197E+00  0.4139E+01
   2.125  0.6185E+00  0.4145E+01
   2.135  0.6171E+00  0.4152E+01
   2.145  0.6157E+00  0.4158E+01
   2.155  0.6142E+00  0.4164E+01
   2.165  0.6126E+00  0.4170E+01
   2.175  0.6110E+00  0.4176E+01
   2.185  0.6092E+00  0.4182E+01
   2.195  0.6074E+00  0.4188E+01
   2.205  0.6055E+00  0.4194E+01
   2.215  0.6036E+00  0.4200E+01
   2.225  0.6016E+00  0.4206E+01
   2.235  0.5995E+00  0.4212E+01
   2.245  0.5973E+00  0.4218E+01
   2.255  0.5951E+00  0.4224E+01
   2.265  0.5928E+00  0.4230E+01
   2.275  0.5904E+00  0.4236E+01
   2.285  0.5880E+00  0.4242E+01
   2.295  0.5855E+00  0.4248E+01
   2.305  0.5830E+00  0.4254E+01
   2.315  0.5804E+00  0.4259E+01
   2.325  0.5777E+00  0.4265E+01
   2.335  0.5750E+00  0.4271E+01
   2.345  0.5723E+00  0.4277E+01
   2.355  0.5695E+00  0.4282E+01
   2.365  0.5667E+00  0.4288E+01
   2.375  0.5638E+00  0.4294E+01
   2.385  0.5609E+00  0.4299E+01
   2.395  0.5580E+00  0.4305E+01
   2.405  0.5550E+00  0.4310E+01
   2.415  0.5520E+00  0.4316E+01
   2.425  0.5490E+00  0.4321E+01
   2.435  0.5460E+00  0.4327E+01
   2.445  0.5430E+00  0.4332E+01
   2.455  0.5399E+00  0.4338E+01
   2.465  0.5369E+00  0.4343E+01
   2.475  0.5338E+00  0.4348E+01
   2.485  0.5308E+00  0.4354E+01
   2.495  0.5278E+00  0.4359E+01
   2.505  0.5248E+00  0.4364E+01
   2.515  0.5218E+00  0.4370E+01
   2.525  0.5188E+00  0.4375E+01
   2.535  0.5159E+00  0.4380E+01
   2.545  0.5130E+00  0.4385E+01
   2.555  0.5101E+00  0.4390E+01
   2.565  0.5073E+00  0.4395E+01
   2.575  0.5045E+00  0.4400E+01
   2.585  0.5018E+00  0.4405E+01
   2.595  0.4991E+00  0.4410E+01
   2.605  0.4965E+00  0.4415E+01
   2.615  0.4939E+00  0.4420E+01
   2.625  0.4915E+00  0.4425E+01
   2.635  0.4891E+00  0.4430E+01
   2.645  0.4868E+00  0.4435E+01
   2.655  0.4845E+00  0.4440E+01
   2.665  0.4824E+00  0.4444E+01
   2.675  0.4804E+00  0.4449E+01
   2.685  0.4784E+00  0.4454E+01
   2.695  0.4766E+00  0.4459E+01
   2.705  0.4749E+00  0.4464E+01
   2.715  0.4733E+00  0.4468E+01
   2.725  0.4718E+00  0.4473E+01
   2.735  0.4704E+00  0.4478E+01
   2.745  0.4691E+00  0.4482E+01
   2.755  0.4680E+00  0.4487E+01
   2.765  0.4670E+00  0.4492E+01
   2.775  0.4661E+00  0.4496E+01
   2.785  0.4654E+00  0.4501E+01
   2.795  0.4648E+00  0.4506E+01
   2.805  0.4644E+00  0.4510E+01
   2.815  0.4641E+00  0.4515E+01
   2.825  0.4640E+00  0.4520E+01
   2.835  0.4640E+00  0.4524E+01
   2.845  0.4641E+00  0.4529E+01
   2.855  0.4644E+00  0.4534E+01
   2.865  0.4649E+00  0.4538E+01
   2.875  0.4655E+00  0.4543E+01
   2.885  0.4663E+00  0.4548E+01
   2.895  0.4673E+00  0.4552E+01
   2.905  0.4684E+00  0.4557E+01
   2.915  0.4696E+00  0.4562E+01
   2.925  0.4711E+00  0.4566E+01
   2.935  0.4727E+00  0.4571E+01
   2.945  0.4744E+00  0.4576E+01
   2.955  0.4763E+00  0.4581E+01
   2.965  0.4784E+00  0.4585E+01
   2.975  0.4807E+00  0.4590E+01
   2.985  0.4831E+00  0.4595E+01
   2.995  0.4856E+00  0.4600E+01
   3.005  0.4883E+00  0.4605E+01
   3.015  0.4912E+00  0.4610E+01
   3.025  0.4942E+00  0.4615E+01
   3.035  0.4974E+00  0.4620E+01
   3.045  0.5007E+00  0.4625E+01
   3.055  0.5042E+00  0.4630E+01
   3.065  0.5078E+00  0.4635E+01
   3.075  0.5115E+00  0.4640E+01
   3.085  0.5154E+00  0.4645E+01
   3.095  0.5195E+00  0.4650E+01
   3.105  0.5236E+00  0.4655E+01
   3.115  0.5279E+00  0.4661E+01
   3.125  0.5323E+00  0.4666E+01
   3.135  0.5368E+00  0.4671E+01
   3.145  0.5415E+00  0.4677E+01
   3.155  0.5462E+00  0.4682E+01
   3.165  0.5511E+00  0.4688E+01
   3.175  0.5560E+00  0.4693E+01
   3.185  0.5611E+00  0.4699E+01
   3.195  0.5663E+00  0.4705E+01
   3.205  0.5715E+00  0.4710E+01
   3.215  0.5768E+00  0.4716E+01
   3.225  0.5823E+00  0.4722E+01
   3.235  0.5877E+00  0.4728E+01
   3.245  0.5933E+00  0.4734E+01
   3.255  0.5989E+00  0.4740E+01
   3.265  0.6046E+00  0.4746E+01
   3.275  0.6103E+00  0.4752E+01
   3.285  0.6161E+00  0.4758E+01
   3.295  0.6220E+00  0.4764E+01
   3.305  0.6278E+00  0.4770E+01
   3.315  0.6337E+00  0.4777E+01
   3.325  0.6397E+00  0.4783E+01
   3.335  0.6456E+00  0.4790E+01
   3.345  0.6516E+00  0.4796E+01
   3.355  0.6576E+00  0.4803E+01
   3.365  0.6636E+00  0.4809E+01
   3.375  0.6696E+00  0.4816E+01
   3.385  0.6757E+00  0.4823E+01
   3.395  0.6817E+00  0.4830E+01
   3.405  0.6877E+00  0.4837E+01
   3.415  0.6937E+00  0.4843E+01
   3.425  0.6997E+00  0.4850E+01
   3.435  0.7056E+00  0.4858E+01
   3.445  0.7116E+00  0.4865E+01
   3.455  0.7175E+00  0.4872E+01
   3.465  0.7234E+00  0.4879E+01
   3.475  0.7292E+00  0.4886E+01
   3.485  0.7350E+00  0.4894E+01
   3.495  0.7408E+00  0.4901E+01
   3.505  0.7465E+00  0.4909E+01
   3.515  0.7522E+00  0.4916E+01
   3.525  0.7578E+00  0.4924E+01
   3.535  0.7633E+00  0.4931E+01
   3.545  0.7688E+00  0.4939E+01
   3.555  0.7743E+00  0.4947E+01
   3.565  0.7797E+00  0.4955E+01
   3.575  0.7850E+00  0.4962E+01
   3.585  0.7902E+00  0.4970E+01
   3.595  0.7954E+00  0.4978E+01
   3.605  0.8006E+00  0.4986E+01
   3.615  0.8056E+00  0.4994E+01
   3.625  0.8106E+00  0.5002E+01
   3.635  0.8155E+00  0.5011E+01
   3.645  0.8203E+00  0.5019E+01
   3.655  0.8250E+00  0.5027E+01
   3.665  0.8297E+00  0.5035E+01
   3.675  0.8343E+00  0.5044E+01
   3.685  0.8388E+00  0.5052E+01
   3.695  0.8433E+00  0.5060E+01
   3.705  0.8476E+00  0.5069E+01
   3.715  0.8519E+00  0.5077E+01
   3.725  0.8561E+00  0.5086E+01
   3.735  0.8602E+00  0.5095E+01
   3.745  0.8642E+00  0.5103E+01
   3.755  0.8682E+00  0.5112E+01
   3.765  0.8721E+00  0.5121E+01
   3.775  0.8759E+00  0.5129E+01
   3.785  0.8796E+00  0.5138E+01
   3.795  0.8832E+00  0.5147E+01
   3.805  0.8868E+00  0.5156E+01
   3.815  0.8902E+00  0.5165E+01
   3.825  0.8936E+00  0.5174E+01
   3.835  0.8970E+00  0.5183E+01
   3.845  0.9002E+00  0.5192E+01
   3.855  0.9034E+00  0.5201E+01
   3.865  0.9065E+00  0.5210E+01
   3.875  0.9095E+00  0.5219E+01
   3.885  0.9125E+00  0.5228E+01
   3.895  0.9154E+00  0.5237E+01
   3.905  0.9182E+00  0.5246E+01
   3.915  0.9210E+00  0.5256E+01
   3.925  0.9237E+00  0.5265E+01
   3.935  0.9263E+00  0.5274E+01
   3.945  0.9288E+00  0.5283E+01
   3.955  0.9313E+00  0.5293E+01
   3.965  0.9338E+00  0.5302E+01
   3.975  0.9361E+00  0.5311E+01
   3.985  0.9384E+00  0.5321E+01
   3.995  0.9407E+00  0.5330E+01
   4.005  0.9429E+00  0.5340E+01
   4.015  0.9450E+00  0.5349E+01
   4.025  0.9471E+00  0.5359E+01
   4.035  0.9491E+00  0.5368E+01
   4.045  0.9511E+00  0.5378E+01
   4.055  0.9530E+00  0.5387E+01
   4.065  0.9549E+00  0.5397E+01
   4.075  0.9567E+00  0.5406E+01
   4.085  0.9585E+00  0.5416E+01
   4.095  0.9602E+00  0.5425E+01
   4.105  0.9619E+00  0.5435E+01
   4.115  0.9635E+00  0.5445E+01
   4.125  0.9651E+00  0.5454E+01
   4.135  0.9666E+00  0.5464E+01
   4.145  0.9681E+00  0.5474E+01
   4.155  0.9696E+00  0.5483E+01
   4.165  0.9710E+00  0.5493E+01
   4.175  0.9723E+00  0.5503E+01
   4.185  0.9736E+00  0.5512E+01
   4.195  0.9749E+00  0.5522E+01
   4.205  0.9761E+00  0.5532E+01
   4.215  0.9773E+00  0.5542E+01
   4.225  0.9785E+00  0.5552E+01
   4.235  0.9796E+00  0.5561E+01
   4.245  0.9806E+00  0.5571E+01
   4.255  0.9817E+00  0.5581E+01
   4.265  0.9827E+00  0.5591E+01
   4.275  0.9836E+00  0.5601E+01
   4.285  0.9845E+00  0.5610E+01
   4.295  0.9854E+00  0.5620E+01
   4.305  0.9862E+00  0.5630E+01
   4.315  0.9869E+00  0.5640E+01
   4.325  0.9877E+00  0.5650E+01
   4.335  0.9884E+00  0.5660E+01
   4.345  0.9890E+00  0.5670E+01
   4.355  0.9896E+00  0.5680E+01
   4.365  0.9902E+00  0.5690E+01
   4.375  0.9907E+00  0.5699E+01
   4.385  0.9911E+00  0.5709E+01
   4.395  0.9915E+00  0.5719E+01
   4.405  0.9919E+00  0.5729E+01
   4.415  0.9922E+00  0.5739E+01
   4.425  0.9925E+00  0.5749E+01
   4.435  0.9927E+00  0.5759E+01
   4.445  0.9928E+00  0.5769E+01
   4.455  0.9930E+00  0.5779E+01
   4.465  0.9930E+00  0.5789E+01
   4.475  0.9930E+00  0.5799E+01
   4.485  0.9929E+00  0.5809E+01
   4.495  0.9928E+00  0.5819E+01
   4.505  0.9926E+00  0.5828E+01
   4.515  0.9924E+00  0.5838E+01
   4.525  0.9921E+00  0.5848E+01
   4.535  0.9917E+00  0.5858E+01
   4.545  0.9913E+00  0.5868E+01
   4.555  0.9907E+00  0.5878E+01
   4.565  0.9902E+00  0.5888E+01
   4.575  0.9895E+00  0.5898E+01
   4.585  0.9888E+00  0.5908E+01
   4.595  0.9880E+00  0.5918E+01
   4.605  0.9871E+00  0.5927E+01
   4.615  0.9862E+00  0.5937E+01
   4.625  0.9852E+00  0.5947E+01
   4.635  0.9841E+00  0.5957E+01
   4.645  0.9829E+00  0.5967E+01
   4.655  0.9816E+00  0.5977E+01
   4.665  0.9803E+00  0.5986E+01
   4.675  0.9789E+00  0.5996E+01
   4.685  0.9774E+00  0.6006E+01
   4.695  0.9758E+00  0.6016E+01
   4.705  0.9741E+00  0.6026E+01
   4.715  0.9723E+00  0.6035E+01
   4.725  0.9705E+00  0.6045E+01
   4.735  0.9685E+00  0.6055E+01
   4.745  0.9665E+00  0.6064E+01
   4.755  0.9643E+00  0.6074E+01
   4.765  0.9621E+00  0.6084E+01
   4.775  0.9598E+00  0.6093E+01
   4.785  0.9574E+00  0.6103E+01
   4.795  0.9549E+00  0.6112E+01
   4.805  0.9523E+00  0.6122E+01
   4.815  0.9497E+00  0.6131E+01
   4.825  0.9469E+00  0.6141E+01
   4.835  0.9440E+00  0.6150E+01
   4.845  0.9411E+00  0.6160E+01
   4.855  0.9381E+00  0.6169E+01
   4.865  0.9350E+00  0.6178E+01
   4.875  0.9317E+00  0.6188E+01
   4.885  0.9285E+00  0.6197E+01
   4.895  0.9251E+00  0.6206E+01
   4.905  0.9216E+00  0.6215E+01
   4.915  0.9181E+00  0.6225E+01
   4.925  0.9145E+00  0.6234E+01
   4.935  0.9108E+00  0.6243E+01
   4.945  0.9070E+00  0.6252E+01
   4.955  0.9031E+00  0.6261E+01
   4.965  0.8992E+00  0.6270E+01
   4.975  0.8952E+00  0.6279E+01
   4.985  0.8912E+00  0.6288E+01
   4.995  0.8870E+00  0.6297E+01
   5.005  0.8828E+00  0.6306E+01
   5.015  0.8786E+00  0.6314E+01
   5.025  0.8743E+00  0.6323E+01
   5.035  0.8700E+00  0.6332E+01
   5.045  0.8656E+00  0.6340E+01
   5.055  0.8611E+00  0.6349E+01
   5.065  0.8566E+00  0.6358E+01
   5.075  0.8521E+00  0.6366E+01
   5.085  0.8475E+00  0.6375E+01
   5.095  0.8429E+00  0.6383E+01
   5.105  0.8383E+00  0.6391E+01
   5.115  0.8337E+00  0.6400E+01
   5.125  0.8290E+00  0.6408E+01
   5.135  0.8243E+00  0.6416E+01
   5.145  0.8196E+00  0.6424E+01
   5.155  0.8150E+00  0.6433E+01
   5.165  0.8103E+00  0.6441E+01
   5.175  0.8056E+00  0.6449E+01
   5.185  0.8009E+00  0.6457E+01
   5.195  0.7962E+00  0.6465E+01
   5.205  0.7915E+00  0.6473E+01
   5.215  0.7869E+00  0.6481E+01
   5.225  0.7822E+00  0.6488E+01
   5.235  0.7776E+00  0.6496E+01
   5.245  0.7730E+00  0.6504E+01
   5.255  0.7685E+00  0.6512E+01
   5.265  0.7640E+00  0.6519E+01
   5.275  0.7595E+00  0.6527E+01
   5.285  0.7551E+00  0.6534E+01
   5.295  0.7507E+00  0.6542E+01
   5.305  0.7464E+00  0.6549E+01
   5.315  0.7422E+00  0.6557E+01
   5.325  0.7380E+00  0.6564E+01
   5.335  0.7338E+00  0.6571E+01
   5.345  0.7298E+00  0.6579E+01
   5.355  0.7258E+00  0.6586E+01
   5.365  0.7218E+00  0.6593E+01
   5.375  0.7180E+00  0.6600E+01
   5.385  0.7142E+00  0.6608E+01
   5.395  0.7105E+00  0.6615E+01
   5.405  0.7069E+00  0.6622E+01
   5.415  0.7033E+00  0.6629E+01
   5.425  0.6999E+00  0.6636E+01
   5.435  0.6965E+00  0.6643E+01
   5.445  0.6933E+00  0.6650E+01
   5.455  0.6901E+00  0.6657E+01
   5.465  0.6870E+00  0.6663E+01
   5.475  0.6840E+00  0.6670E+01
   5.485  0.6811E+00  0.6677E+01
   5.495  0.6783E+00  0.6684E+01
   5.505  0.6756E+00  0.6691E+01
   5.515  0.6730E+00  0.6697E+01
   5.525  0.6705E+00  0.6704E+01
   5.535  0.6681E+00  0.6711E+01
   5.545  0.6657E+00  0.6717E+01
   5.555  0.6635E+00  0.6724E+01
   5.565  0.6614E+00  0.6731E+01
   5.575  0.6593E+00  0.6737E+01
   5.585  0.6574E+00  0.6744E+01
   5.595  0.6555E+00  0.6750E+01
   5.605  0.6538E+00  0.6757E+01
   5.615  0.6521E+00  0.6763E+01
   5.625  0.6505E+00  0.6770E+01
   5.635  0.6490E+00  0.6776E+01
   5.645  0.6476E+00  0.6783E+01
   5.655  0.6462E+00  0.6789E+01
   5.665  0.6450E+00  0.6796E+01
   5.675  0.6438E+00  0.6802E+01
   5.685  0.6427E+00  0.6809E+01
   5.695  0.6417E+00  0.6815E+01
   5.705  0.6407E+00  0.6821E+01
   5.715  0.6398E+00  0.6828E+01
   5.725  0.6390E+00  0.6834E+01
   5.735  0.6382E+00  0.6841E+01
   5.745  0.6375E+00  0.6847E+01
   5.755  0.6369E+00  0.6853E+01
   5.765  0.6363E+00  0.6860E+01
   5.775  0.6357E+00  0.6866E+01
   5.785  0.6352E+00  0.6872E+01
   5.795  0.6347E+00  0.6879E+01
   5.805  0.6343E+00  0.6885E+01
   5.815  0.6339E+00  0.6891E+01
   5.825  0.6335E+00  0.6898E+01
   5.835  0.6332E+00  0.6904E+01
   5.845  0.6329E+00  0.6910E+01
   5.855  0.6326E+00  0.6917E+01
   5.865  0.6323E+00  0.6923E+01
   5.875  0.6321E+00  0.6929E+01
   5.885  0.6318E+00  0.6936E+01
   5.895  0.6316E+00  0.6942E+01
   5.905  0.6313E+00  0.6948E+01
   5.915  0.6311E+00  0.6955E+01
   5.925  0.6308E+00  0.6961E+01
   5.935  0.6306E+00  0.6967E+01
   5.945  0.6303E+00  0.6974E+01
   5.955  0.6301E+00  0.6980E+01
   5.965  0.6298E+00  0.6986E+01
   5.975  0.6295E+00  0.6993E+01
   5.985  0.6292E+00  0.6999E+01
   5.995  0.6288E+00  0.7005E+01
   6.005  0.6284E+00  0.7011E+01
   6.015  0.6281E+00  0.7018E+01
   6.025  0.6276E+00  0.7024E+01
   6.035  0.6272E+00  0.7030E+01
   6.045  0.6267E+00  0.7036E+01
   6.055  0.6261E+00  0.7043E+01
   6.065  0.6256E+00  0.7049E+01
   6.075  0.6250E+00  0.7055E+01
   6.085  0.6243E+00  0.7061E+01
   6.095  0.6236E+00  0.7068E+01
   6.105  0.6229E+00  0.7074E+01
   6.115  0.6221E+00  0.7080E+01
   6.125  0.6213E+00  0.7086E+01
   6.135  0.6204E+00  0.7093E+01
   6.145  0.6195E+00  0.7099E+01
   6.155  0.6186E+00  0.7105E+01
   6.165  0.6176E+00  0.7111E+01
   6.175  0.6165E+00  0.7117E+01
   6.185  0.6154E+00  0.7123E+01
   6.195  0.6143E+00  0.7130E+01
   6.205  0.6131E+00  0.7136E+01
   6.215  0.6118E+00  0.7142E+01
   6.225  0.6106E+00  0.7148E+01
   6.235  0.6092E+00  0.7154E+01
   6.245  0.6079E+00  0.7160E+01
   6.255  0.6065E+00  0.7166E+01
   6.265  0.6050E+00  0.7172E+01
   6.275  0.6035E+00  0.7178E+01
   6.285  0.6020E+00  0.7184E+01
   6.295  0.6005E+00  0.7190E+01
   6.305  0.5989E+00  0.7196E+01
   6.315  0.5973E+00  0.7202E+01
   6.325  0.5957E+00  0.7208E+01
   6.335  0.5940E+00  0.7214E+01
   6.345  0.5923E+00  0.7220E+01
   6.355  0.5906E+00  0.7226E+01
   6.365  0.5889E+00  0.7232E+01
   6.375  0.5872E+00  0.7238E+01
   6.385  0.5855E+00  0.7244E+01
   6.395  0.5837E+00  0.7249E+01
   6.405  0.5820E+00  0.7255E+01
   6.415  0.5802E+00  0.7261E+01
   6.425  0.5785E+00  0.7267E+01
   6.435  0.5768E+00  0.7273E+01
   6.445  0.5750E+00  0.7278E+01
   6.455  0.5733E+00  0.7284E+01
   6.465  0.5717E+00  0.7290E+01
   6.475  0.5700E+00  0.7296E+01
   6.485  0.5684E+00  0.7301E+01
   6.495  0.5668E+00  0.7307E+01
   6.505  0.5652E+00  0.7313E+01
   6.515  0.5637E+00  0.7318E+01
   6.525  0.5622E+00  0.7324E+01
   6.535  0.5607E+00  0.7329E+01
   6.545  0.5594E+00  0.7335E+01
   6.555  0.5580E+00  0.7341E+01
   6.565  0.5568E+00  0.7346E+01
   6.575  0.5556E+00  0.7352E+01
   6.585  0.5544E+00  0.7357E+01
   6.595  0.5534E+00  0.7363E+01
   6.605  0.5524E+00  0.7368E+01
   6.615  0.5515E+00  0.7374E+01
   6.625  0.5507E+00  0.7379E+01
   6.635  0.5499E+00  0.7385E+01
   6.645  0.5493E+00  0.7390E+01
   6.655  0.5487E+00  0.7396E+01
   6.665  0.5483E+00  0.7401E+01
   6.675  0.5480E+00  0.7407E+01
   6.685  0.5477E+00  0.7412E+01
   6.695  0.5476E+00  0.7418E+01
   6.705  0.5476E+00  0.7423E+01
   6.715  0.5477E+00  0.7429E+01
   6.725  0.5480E+00  0.7434E+01
   6.735  0.5483E+00  0.7440E+01
   6.745  0.5488E+00  0.7445E+01
   6.755  0.5494E+00  0.7451E+01
   6.765  0.5502E+00  0.7456E+01
   6.775  0.5511E+00  0.7462E+01
   6.785  0.5521E+00  0.7467E+01
   6.795  0.5533E+00  0.7473E+01
   6.805  0.5546E+00  0.7478E+01
   6.815  0.5560E+00  0.7484E+01
   6.825  0.5576E+00  0.7489E+01
   6.835  0.5594E+00  0.7495E+01
   6.845  0.5613E+00  0.7501E+01
   6.855  0.5633E+00  0.7506E+01
   6.865  0.5656E+00  0.7512E+01
   6.875  0.5679E+00  0.7518E+01
   6.885  0.5704E+00  0.7523E+01
   6.895  0.5731E+00  0.7529E+01
   6.905  0.5759E+00  0.7535E+01
   6.915  0.5789E+00  0.7541E+01
   6.925  0.5821E+00  0.7546E+01
   6.935  0.5854E+00  0.7552E+01
   6.945  0.5888E+00  0.7558E+01
   6.955  0.5925E+00  0.7564E+01
   6.965  0.5962E+00  0.7570E+01
   6.975  0.6002E+00  0.7576E+01
   6.985  0.6043E+00  0.7582E+01
   6.995  0.6085E+00  0.7588E+01
   7.005  0.6129E+00  0.7594E+01
   7.015  0.6175E+00  0.7600E+01
   7.025  0.6222E+00  0.7607E+01
   7.035  0.6270E+00  0.7613E+01
   7.045  0.6320E+00  0.7619E+01
   7.055  0.6372E+00  0.7626E+01
   7.065  0.6424E+00  0.7632E+01
   7.075  0.6479E+00  0.7638E+01
   7.085  0.6534E+00  0.7645E+01
   7.095  0.6591E+00  0.7652E+01
   7.105  0.6650E+00  0.7658E+01
   7.115  0.6709E+00  0.7665E+01
   7.125  0.6770E+00  0.7672E+01
   7.135  0.6832E+00  0.7679E+01
   7.145  0.6896E+00  0.7685E+01
   7.155  0.6960E+00  0.7692E+01
   7.165  0.7026E+00  0.7699E+01
   7.175  0.7092E+00  0.7707E+01
   7.185  0.7160E+00  0.7714E+01
   7.195  0.7229E+00  0.7721E+01
   7.205  0.7299E+00  0.7728E+01
   7.215  0.7369E+00  0.7736E+01
   7.225  0.7440E+00  0.7743E+01
   7.235  0.7513E+00  0.7751E+01
   7.245  0.7586E+00  0.7758E+01
   7.255  0.7659E+00  0.7766E+01
   7.265  0.7734E+00  0.7774E+01
   7.275  0.7809E+00  0.7781E+01
   7.285  0.7884E+00  0.7789E+01
   7.295  0.7960E+00  0.7797E+01
   7.305  0.8036E+00  0.7805E+01
   7.315  0.8113E+00  0.7813E+01
   7.325  0.8190E+00  0.7822E+01
   7.335  0.8267E+00  0.7830E+01
   7.345  0.8345E+00  0.7838E+01
   7.355  0.8422E+00  0.7847E+01
   7.365  0.8500E+00  0.7855E+01
   7.375  0.8578E+00  0.7864E+01
   7.385  0.8655E+00  0.7872E+01
   7.395  0.8733E+00  0.7881E+01
   7.405  0.8810E+00  0.7890E+01
   7.415  0.8887E+00  0.7899E+01
   7.425  0.8964E+00  0.7908E+01
   7.435  0.9040E+00  0.7917E+01
   7.445  0.9116E+00  0.7926E+01
   7.455  0.9191E+00  0.7935E+01
   7.465  0.9266E+00  0.7944E+01
   7.475  0.9340E+00  0.7954E+01
   7.485  0.9413E+00  0.7963E+01
   7.495  0.9486E+00  0.7973E+01
   7.505  0.9557E+00  0.7982E+01
   7.515  0.9628E+00  0.7992E+01
   7.525  0.9698E+00  0.8001E+01
   7.535  0.9767E+00  0.8011E+01
   7.545  0.9834E+00  0.8021E+01
   7.555  0.9901E+00  0.8031E+01
   7.565  0.9966E+00  0.8041E+01
   7.575  0.1003E+01  0.8051E+01
   7.585  0.1009E+01  0.8061E+01
   7.595  0.1015E+01  0.8071E+01
   7.605  0.1021E+01  0.8081E+01
   7.615  0.1027E+01  0.8092E+01
   7.625  0.1033E+01  0.8102E+01
   7.635  0.1038E+01  0.8112E+01
   7.645  0.1044E+01  0.8123E+01
   7.655  0.1049E+01  0.8133E+01
   7.665  0.1054E+01  0.8144E+01
   7.675  0.1059E+01  0.8154E+01
   7.685  0.1063E+01  0.8165E+01
   7.695  0.1068E+01  0.8176E+01
   7.705  0.1072E+01  0.8186E+01
   7.715  0.1076E+01  0.8197E+01
   7.725  0.1080E+01  0.8208E+01
   7.735  0.1083E+01  0.8219E+01
   7.745  0.1087E+01  0.8230E+01
   7.755  0.1090E+01  0.8241E+01
   7.765  0.1093E+01  0.8252E+01
   7.775  0.1096E+01  0.8262E+01
   7.785  0.1098E+01  0.8273E+01
   7.795  0.1100E+01  0.8284E+01
   7.805  0.1102E+01  0.8295E+01
   7.815  0.1104E+01  0.8307E+01
   7.825  0.1106E+01  0.8318E+01
   7.835  0.1107E+01  0.8329E+01
   7.845  0.1109E+01  0.8340E+01
   7.855  0.1110E+01  0.8351E+01
   7.865  0.1110E+01  0.8362E+01
   7.875  0.1111E+01  0.8373E+01
   7.885  0.1111E+01  0.8384E+01
   7.895  0.1111E+01  0.8395E+01
   7.905  0.1111E+01  0.8406E+01
   7.915  0.1111E+01  0.8417E+01
   7.925  0.1110E+01  0.8429E+01
   7.935  0.1109E+01  0.8440E+01
   7.945  0.1108E+01  0.8451E+01
   7.955  0.1107E+01  0.8462E+01
   7.965  0.1105E+01  0.8473E+01
   7.975  0.1104E+01  0.8484E+01
   7.985  0.1102E+01  0.8495E+01
   7.995  0.1100E+01  0.8506E+01
   8.005  0.1098E+01  0.8517E+01
   8.015  0.1095E+01  0.8528E+01
   8.025  0.1093E+01  0.8539E+01
   8.035  0.1090E+01  0.8550E+01
   8.045  0.1087E+01  0.8561E+01
   8.055  0.1083E+01  0.8571E+01
   8.065  0.1080E+01  0.8582E+01
   8.075  0.1077E+01  0.8593E+01
   8.085  0.1073E+01  0.8604E+01
   8.095  0.1069E+01  0.8614E+01
   8.105  0.1065E+01  0.8625E+01
   8.115  0.1061E+01  0.8636E+01
   8.125  0.1057E+01  0.8646E+01
   8.135  0.1052E+01  0.8657E+01
   8.145  0.1048E+01  0.8667E+01
   8.155  0.1043E+01  0.8678E+01
   8.165  0.1039E+01  0.8688E+01
   8.175  0.1034E+01  0.8698E+01
   8.185  0.1029E+01  0.8709E+01
   8.195  0.1024E+01  0.8719E+01
   8.205  0.1019E+01  0.8729E+01
   8.215  0.1014E+01  0.8739E+01
   8.225  0.1008E+01  0.8749E+01
   8.235  0.1003E+01  0.8759E+01
   8.245  0.9977E+00  0.8769E+01
   8.255  0.9923E+00  0.8779E+01
   8.265  0.9868E+00  0.8789E+01
   8.275  0.9813E+00  0.8799E+01
   8.285  0.9757E+00  0.8809E+01
   8.295  0.9702E+00  0.8818E+01
   8.305  0.9646E+00  0.8828E+01
   8.315  0.9590E+00  0.8838E+01
   8.325  0.9534E+00  0.8847E+01
   8.335  0.9478E+00  0.8857E+01
   8.345  0.9422E+00  0.8866E+01
   8.355  0.9366E+00  0.8875E+01
   8.365  0.9310E+00  0.8885E+01
   8.375  0.9255E+00  0.8894E+01
   8.385  0.9199E+00  0.8903E+01
   8.395  0.9144E+00  0.8912E+01
   8.405  0.9089E+00  0.8921E+01
   8.415  0.9035E+00  0.8930E+01
   8.425  0.8981E+00  0.8939E+01
   8.435  0.8928E+00  0.8948E+01
   8.445  0.8875E+00  0.8957E+01
   8.455  0.8823E+00  0.8966E+01
   8.465  0.8771E+00  0.8975E+01
   8.475  0.8720E+00  0.8984E+01
   8.485  0.8669E+00  0.8992E+01
   8.495  0.8620E+00  0.9001E+01
   8.505  0.8571E+00  0.9009E+01
   8.515  0.8522E+00  0.9018E+01
   8.525  0.8475E+00  0.9026E+01
   8.535  0.8428E+00  0.9035E+01
   8.545  0.8383E+00  0.9043E+01
   8.555  0.8338E+00  0.9052E+01
   8.565  0.8294E+00  0.9060E+01
   8.575  0.8251E+00  0.9068E+01
   8.585  0.8209E+00  0.9076E+01
   8.595  0.8167E+00  0.9084E+01
   8.605  0.8127E+00  0.9093E+01
   8.615  0.8088E+00  0.9101E+01
   8.625  0.8050E+00  0.9109E+01
   8.635  0.8013E+00  0.9117E+01
   8.645  0.7977E+00  0.9125E+01
   8.655  0.7942E+00  0.9133E+01
   8.665  0.7908E+00  0.9141E+01
   8.675  0.7875E+00  0.9148E+01
   8.685  0.7843E+00  0.9156E+01
   8.695  0.7812E+00  0.9164E+01
   8.705  0.7783E+00  0.9172E+01
   8.715  0.7754E+00  0.9180E+01
   8.725  0.7727E+00  0.9187E+01
   8.735  0.7700E+00  0.9195E+01
   8.745  0.7675E+00  0.9203E+01
   8.755  0.7652E+00  0.9210E+01
   8.765  0.7629E+00  0.9218E+01
   8.775  0.7607E+00  0.9226E+01
   8.785  0.7587E+00  0.9233E+01
   8.795  0.7568E+00  0.9241E+01
   8.805  0.7550E+00  0.9248E+01
   8.815  0.7533E+00  0.9256E+01
   8.825  0.7517E+00  0.9263E+01
   8.835  0.7503E+00  0.9271E+01
   8.845  0.7490E+00  0.9278E+01
   8.855  0.7478E+00  0.9286E+01
   8.865  0.7468E+00  0.9293E+01
   8.875  0.7459E+00  0.9301E+01
   8.885  0.7451E+00  0.9308E+01
   8.895  0.7444E+00  0.9316E+01
   8.905  0.7439E+00  0.9323E+01
   8.915  0.7435E+00  0.9331E+01
   8.925  0.7432E+00  0.9338E+01
   8.935  0.7431E+00  0.9345E+01
   8.945  0.7431E+00  0.9353E+01
   8.955  0.7433E+00  0.9360E+01
   8.965  0.7435E+00  0.9368E+01
   8.975  0.7440E+00  0.9375E+01
   8.985  0.7446E+00  0.9383E+01
   8.995  0.7453E+00  0.9390E+01
   9.005  0.7461E+00  0.9398E+01
   9.015  0.7472E+00  0.9405E+01
   9.025  0.7483E+00  0.9412E+01
   9.035  0.7496E+00  0.9420E+01
   9.045  0.7511E+00  0.9427E+01
   9.055  0.7527E+00  0.9435E+01
   9.065  0.7545E+00  0.9443E+01
   9.075  0.7565E+00  0.9450E+01
   9.085  0.7586E+00  0.9458E+01
   9.095  0.7608E+00  0.9465E+01
   9.105  0.7633E+00  0.9473E+01
   9.115  0.7658E+00  0.9481E+01
   9.125  0.7686E+00  0.9488E+01
   9.135  0.7715E+00  0.9496E+01
   9.145  0.7746E+00  0.9504E+01
   9.155  0.7778E+00  0.9512E+01
   9.165  0.7812E+00  0.9519E+01
   9.175  0.7848E+00  0.9527E+01
   9.185  0.7886E+00  0.9535E+01
   9.195  0.7925E+00  0.9543E+01
   9.205  0.7966E+00  0.9551E+01
   9.215  0.8008E+00  0.9559E+01
   9.225  0.8052E+00  0.9567E+01
   9.235  0.8098E+00  0.9575E+01
   9.245  0.8146E+00  0.9583E+01
   9.255  0.8195E+00  0.9591E+01
   9.265  0.8246E+00  0.9600E+01
   9.275  0.8298E+00  0.9608E+01
   9.285  0.8352E+00  0.9616E+01
   9.295  0.8408E+00  0.9625E+01
   9.305  0.8465E+00  0.9633E+01
   9.315  0.8524E+00  0.9642E+01
   9.325  0.8584E+00  0.9650E+01
   9.335  0.8646E+00  0.9659E+01
   9.345  0.8709E+00  0.9668E+01
   9.355  0.8774E+00  0.9676E+01
   9.365  0.8840E+00  0.9685E+01
   9.375  0.8907E+00  0.9694E+01
   9.385  0.8976E+00  0.9703E+01
   9.395  0.9046E+00  0.9712E+01
   9.405  0.9117E+00  0.9721E+01
   9.415  0.9189E+00  0.9731E+01
   9.425  0.9262E+00  0.9740E+01
   9.435  0.9337E+00  0.9749E+01
   9.445  0.9412E+00  0.9759E+01
   9.455  0.9489E+00  0.9768E+01
   9.465  0.9566E+00  0.9778E+01
   9.475  0.9644E+00  0.9787E+01
   9.485  0.9723E+00  0.9797E+01
   9.495  0.9802E+00  0.9807E+01
   9.505  0.9882E+00  0.9817E+01
   9.515  0.9963E+00  0.9827E+01
   9.525  0.1004E+01  0.9837E+01
   9.535  0.1012E+01  0.9847E+01
   9.545  0.1021E+01  0.9857E+01
   9.555  0.1029E+01  0.9867E+01
   9.565  0.1037E+01  0.9878E+01
   9.575  0.1045E+01  0.9888E+01
   9.585  0.1053E+01  0.9899E+01
   9.595  0.1062E+01  0.9909E+01
   9.605  0.1070E+01  0.9920E+01
   9.615  0.1078E+01  0.9931E+01
   9.625  0.1086E+01  0.9942E+01
   9.635  0.1094E+01  0.9953E+01
   9.645  0.1102E+01  0.9964E+01
   9.655  0.1110E+01  0.9975E+01
   9.665  0.1117E+01  0.9986E+01
   9.675  0.1125E+01  0.9997E+01
   9.685  0.1133E+01  0.1001E+02
   9.695  0.1140E+01  0.1002E+02
   9.705  0.1147E+01  0.1003E+02
   9.715  0.1155E+01  0.1004E+02
   9.725  0.1162E+01  0.1005E+02
   9.735  0.1169E+01  0.1007E+02
   9.745  0.1176E+01  0.1008E+02
   9.755  0.1182E+01  0.1009E+02
   9.765  0.1189E+01  0.1010E+02
   9.775  0.1195E+01  0.1011E+02
   9.785  0.1201E+01  0.1013E+02
   9.795  0.1207E+01  0.1014E+02
   9.805  0.1212E+01  0.1015E+02
   9.815  0.1218E+01  0.1016E+02
   9.825  0.1223E+01  0.1017E+02
   9.835  0.1228E+01  0.1019E+02
   9.845  0.1233E+01  0.1020E+02
   9.855  0.1237E+01  0.1021E+02
   9.865  0.1241E+01  0.1022E+02
   9.875  0.1245E+01  0.1024E+02
   9.885  0.1249E+01  0.1025E+02
   9.895  0.1253E+01  0.1026E+02
   9.905  0.1256E+01  0.1027E+02
   9.915  0.1259E+01  0.1029E+02
   9.925  0.1261E+01  0.1030E+02
   9.935  0.1263E+01  0.1031E+02
   9.945  0.1265E+01  0.1032E+02
   9.955  0.1267E+01  0.1034E+02
   9.965  0.1268E+01  0.1035E+02
   9.975  0.1270E+01  0.1036E+02
   9.985  0.1270E+01  0.1037E+02
   9.995  0.1271E+01  0.1039E+02
  10.005  0.1271E+01  0.1040E+02
  10.015  0.1271E+01  0.1041E+02
  10.025  0.1270E+01  0.1043E+02
  10.035  0.1269E+01  0.1044E+02
  10.045  0.1268E+01  0.1045E+02
  10.055  0.1267E+01  0.1046E+02
  10.065  0.1265E+01  0.1048E+02
  10.075  0.1263E+01  0.1049E+02
  10.085  0.1261E+01  0.1050E+02
  10.095  0.1258E+01  0.1051E+02
  10.105  0.1255E+01  0.1053E+02
  10.115  0.1252E+01  0.1054E+02
  10.125  0.1248E+01  0.1055E+02
  10.135  0.1244E+01  0.1056E+02
  10.145  0.1240E+01  0.1058E+02
  10.155  0.1236E+01  0.1059E+02
  10.165  0.1231E+01  0.1060E+02
  10.175  0.1226E+01  0.1061E+02
  10.185  0.1221E+01  0.1063E+02
  10.195  0.1215E+01  0.1064E+02
  10.205  0.1209E+01  0.1065E+02
  10.215  0.1203E+01  0.1066E+02
  10.225  0.1197E+01  0.1067E+02
  10.235  0.1190E+01  0.1069E+02
  10.245  0.1183E+01  0.1070E+02
  10.255  0.1176E+01  0.1071E+02
  10.265  0.1169E+01  0.1072E+02
  10.275  0.1162E+01  0.1073E+02
  10.285  0.1154E+01  0.1074E+02
  10.295  0.1146E+01  0.1076E+02
  10.305  0.1138E+01  0.1077E+02
  10.315  0.1130E+01  0.1078E+02
  10.325  0.1122E+01  0.1079E+02
  10.335  0.1113E+01  0.1080E+02
  10.345  0.1104E+01  0.1081E+02
  10.355  0.1096E+01  0.1082E+02
  10.365  0.1087E+01  0.1083E+02
  10.375  0.1078E+01  0.1084E+02
  10.385  0.1069E+01  0.1086E+02
  10.395  0.1059E+01  0.1087E+02
  10.405  0.1050E+01  0.1088E+02
  10.415  0.1041E+01  0.1089E+02
  10.425  0.1031E+01  0.1090E+02
  10.435  0.1022E+01  0.1091E+02
  10.445  0.1012E+01  0.1092E+02
  10.455  0.1002E+01  0.1093E+02
  10.465  0.9927E+00  0.1094E+02
  10.475  0.9831E+00  0.1095E+02
  10.485  0.9734E+00  0.1096E+02
  10.495  0.9638E+00  0.1097E+02
  10.505  0.9541E+00  0.1098E+02
  10.515  0.9445E+00  0.1099E+02
  10.525  0.9349E+00  0.1099E+02
  10.535  0.9254E+00  0.1100E+02
  10.545  0.9159E+00  0.1101E+02
  10.555  0.9065E+00  0.1102E+02
  10.565  0.8971E+00  0.1103E+02
  10.575  0.8878E+00  0.1104E+02
  10.585  0.8786E+00  0.1105E+02
  10.595  0.8695E+00  0.1106E+02
  10.605  0.8606E+00  0.1107E+02
  10.615  0.8517E+00  0.1107E+02
  10.625  0.8429E+00  0.1108E+02
  10.635  0.8343E+00  0.1109E+02
  10.645  0.8258E+00  0.1110E+02
  10.655  0.8175E+00  0.1111E+02
  10.665  0.8093E+00  0.1112E+02
  10.675  0.8012E+00  0.1112E+02
  10.685  0.7934E+00  0.1113E+02
  10.695  0.7857E+00  0.1114E+02
  10.705  0.7781E+00  0.1115E+02
  10.715  0.7708E+00  0.1116E+02
  10.725  0.7636E+00  0.1116E+02
  10.735  0.7567E+00  0.1117E+02
  10.745  0.7499E+00  0.1118E+02
  10.755  0.7433E+00  0.1119E+02
  10.765  0.7370E+00  0.1119E+02
  10.775  0.7308E+00  0.1120E+02
  10.785  0.7249E+00  0.1121E+02
  10.795  0.7192E+00  0.1121E+02
  10.805  0.7137E+00  0.1122E+02
  10.815  0.7084E+00  0.1123E+02
  10.825  0.7034E+00  0.1124E+02
  10.835  0.6986E+00  0.1124E+02
  10.845  0.6940E+00  0.1125E+02
  10.855  0.6896E+00  0.1126E+02
  10.865  0.6855E+00  0.1126E+02
  10.875  0.6817E+00  0.1127E+02
  10.885  0.6780E+00  0.1128E+02
  10.895  0.6747E+00  0.1128E+02
  10.905  0.6715E+00  0.1129E+02
  10.915  0.6686E+00  0.1130E+02
  10.925  0.6660E+00  0.1130E+02
  10.935  0.6635E+00  0.1131E+02
  10.945  0.6614E+00  0.1132E+02
  10.955  0.6594E+00  0.1132E+02
  10.965  0.6578E+00  0.1133E+02
  10.975  0.6563E+00  0.1134E+02
  10.985  0.6551E+00  0.1134E+02
  10.995  0.6541E+00  0.1135E+02
  11.005  0.6534E+00  0.1136E+02
  11.015  0.6529E+00  0.1136E+02
  11.025  0.6527E+00  0.1137E+02
  11.035  0.6527E+00  0.1138E+02
  11.045  0.6529E+00  0.1138E+02
  11.055  0.6534E+00  0.1139E+02
  11.065  0.6541E+00  0.1140E+02
  11.075  0.6550E+00  0.1140E+02
  11.085  0.6561E+00  0.1141E+02
  11.095  0.6575E+00  0.1142E+02
  11.105  0.6591E+00  0.1142E+02
  11.115  0.6609E+00  0.1143E+02
  11.125  0.6629E+00  0.1144E+02
  11.135  0.6651E+00  0.1144E+02
  11.145  0.6676E+00  0.1145E+02
  11.155  0.6702E+00  0.1146E+02
  11.165  0.6731E+00  0.1146E+02
  11.175  0.6762E+00  0.1147E+02
  11.185  0.6794E+00  0.1148E+02
  11.195  0.6829E+00  0.1148E+02
  11.205  0.6865E+00  0.1149E+02
  11.215  0.6903E+00  0.1150E+02
  11.225  0.6944E+00  0.1150E+02
  11.235  0.6986E+00  0.1151E+02
  11.245  0.7029E+00  0.1152E+02
  11.255  0.7075E+00  0.1152E+02
  11.265  0.7122E+00  0.1153E+02
  11.275  0.7171E+00  0.1154E+02
  11.285  0.7222E+00  0.1155E+02
  11.295  0.7274E+00  0.1155E+02
  11.305  0.7328E+00  0.1156E+02
  11.315  0.7383E+00  0.1157E+02
  11.325  0.7440E+00  0.1158E+02
  11.335  0.7499E+00  0.1158E+02
  11.345  0.7558E+00  0.1159E+02
  11.355  0.7620E+00  0.1160E+02
  11.365  0.7682E+00  0.1161E+02
  11.375  0.7746E+00  0.1161E+02
  11.385  0.7811E+00  0.1162E+02
  11.395  0.7878E+00  0.1163E+02
  11.405  0.7946E+00  0.1164E+02
  11.415  0.8014E+00  0.1164E+02
  11.425  0.8084E+00  0.1165E+02
  11.435  0.8156E+00  0.1166E+02
  11.445  0.8228E+00  0.1167E+02
  11.455  0.8301E+00  0.1168E+02
  11.465  0.8375E+00  0.1169E+02
  11.475  0.8451E+00  0.1169E+02
  11.485  0.8527E+00  0.1170E+02
  11.495  0.8604E+00  0.1171E+02
  11.505  0.8682E+00  0.1172E+02
  11.515  0.8761E+00  0.1173E+02
  11.525  0.8840E+00  0.1174E+02
  11.535  0.8921E+00  0.1175E+02
  11.545  0.9002E+00  0.1176E+02
  11.555  0.9084E+00  0.1176E+02
  11.565  0.9166E+00  0.1177E+02
  11.575  0.9249E+00  0.1178E+02
  11.585  0.9333E+00  0.1179E+02
  11.595  0.9417E+00  0.1180E+02
  11.605  0.9502E+00  0.1181E+02
  11.615  0.9587E+00  0.1182E+02
  11.625  0.9672E+00  0.1183E+02
  11.635  0.9758E+00  0.1184E+02
  11.645  0.9845E+00  0.1185E+02
  11.655  0.9931E+00  0.1186E+02
  11.665  0.1002E+01  0.1187E+02
  11.675  0.1011E+01  0.1188E+02
  11.685  0.1019E+01  0.1189E+02
  11.695  0.1028E+01  0.1190E+02
  11.705  0.1037E+01  0.1191E+02
  11.715  0.1046E+01  0.1192E+02
  11.725  0.1054E+01  0.1193E+02
  11.735  0.1063E+01  0.1194E+02
  11.745  0.1072E+01  0.1195E+02
  11.755  0.1081E+01  0.1196E+02
  11.765  0.1089E+01  0.1198E+02
  11.775  0.1098E+01  0.1199E+02
  11.785  0.1107E+01  0.1200E+02
  11.795  0.1116E+01  0.1201E+02
  11.805  0.1124E+01  0.1202E+02
  11.815  0.1133E+01  0.1203E+02
  11.825  0.1141E+01  0.1204E+02
  11.835  0.1150E+01  0.1205E+02
  11.845  0.1158E+01  0.1207E+02
  11.855  0.1167E+01  0.1208E+02
  11.865  0.1175E+01  0.1209E+02
  11.875  0.1184E+01  0.1210E+02
  11.885  0.1192E+01  0.1211E+02
  11.895  0.1200E+01  0.1212E+02
  11.905  0.1208E+01  0.1214E+02
  11.915  0.1216E+01  0.1215E+02
  11.925  0.1224E+01  0.1216E+02
  11.935  0.1232E+01  0.1217E+02
  11.945  0.1240E+01  0.1219E+02
  11.955  0.1247E+01  0.1220E+02
  11.965  0.1255E+01  0.1221E+02
  11.975  0.1262E+01  0.1222E+02
  11.985  0.1270E+01  0.1224E+02
  11.995  0.1277E+01  0.1225E+02
  12.005  0.1284E+01  0.1226E+02
  12.015  0.1291E+01  0.1227E+02
  12.025  0.1297E+01  0.1229E+02
  12.035  0.1304E+01  0.1230E+02
  12.045  0.1311E+01  0.1231E+02
  12.055  0.1317E+01  0.1233E+02
  12.065  0.1323E+01  0.1234E+02
  12.075  0.1329E+01  0.1235E+02
  12.085  0.1335E+01  0.1237E+02
  12.095  0.1341E+01  0.1238E+02
  12.105  0.1346E+01  0.1239E+02
  12.115  0.1352E+01  0.1241E+02
  12.125  0.1357E+01  0.1242E+02
  12.135  0.1362E+01  0.1243E+02
  12.145  0.1367E+01  0.1245E+02
  12.155  0.1371E+01  0.1246E+02
  12.165  0.1375E+01  0.1248E+02
  12.175  0.1380E+01  0.1249E+02
  12.185  0.1384E+01  0.1250E+02
  12.195  0.1387E+01  0.1252E+02
  12.205  0.1391E+01  0.1253E+02
  12.215  0.1394E+01  0.1254E+02
  12.225  0.1397E+01  0.1256E+02
  12.235  0.1400E+01  0.1257E+02
  12.245  0.1403E+01  0.1259E+02
  12.255  0.1405E+01  0.1260E+02
  12.265  0.1407E+01  0.1262E+02
  12.275  0.1409E+01  0.1263E+02
  12.285  0.1411E+01  0.1264E+02
  12.295  0.1413E+01  0.1266E+02
  12.305  0.1414E+01  0.1267E+02
  12.315  0.1415E+01  0.1269E+02
  12.325  0.1416E+01  0.1270E+02
  12.335  0.1416E+01  0.1271E+02
  12.345  0.1416E+01  0.1273E+02
  12.355  0.1416E+01  0.1274E+02
  12.365  0.1416E+01  0.1276E+02
  12.375  0.1416E+01  0.1277E+02
  12.385  0.1415E+01  0.1278E+02
  12.395  0.1414E+01  0.1280E+02
  12.405  0.1413E+01  0.1281E+02
  12.415  0.1412E+01  0.1283E+02
  12.425  0.1410E+01  0.1284E+02
  12.435  0.1408E+01  0.1286E+02
  12.445  0.1406E+01  0.1287E+02
  12.455  0.1404E+01  0.1288E+02
  12.465  0.1401E+01  0.1290E+02
  12.475  0.1398E+01  0.1291E+02
  12.485  0.1395E+01  0.1293E+02
  12.495  0.1392E+01  0.1294E+02
  12.505  0.1389E+01  0.1295E+02
  12.515  0.1385E+01  0.1297E+02
  12.525  0.1381E+01  0.1298E+02
  12.535  0.1377E+01  0.1299E+02
  12.545  0.1373E+01  0.1301E+02
  12.555  0.1369E+01  0.1302E+02
  12.565  0.1364E+01  0.1304E+02
  12.575  0.1359E+01  0.1305E+02
  12.585  0.1354E+01  0.1306E+02
  12.595  0.1349E+01  0.1308E+02
  12.605  0.1344E+01  0.1309E+02
  12.615  0.1339E+01  0.1310E+02
  12.625  0.1333E+01  0.1312E+02
  12.635  0.1327E+01  0.1313E+02
  12.645  0.1321E+01  0.1314E+02
  12.655  0.1315E+01  0.1316E+02
  12.665  0.1309E+01  0.1317E+02
  12.675  0.1303E+01  0.1318E+02
  12.685  0.1297E+01  0.1320E+02
  12.695  0.1290E+01  0.1321E+02
  12.705  0.1284E+01  0.1322E+02
  12.715  0.1277E+01  0.1323E+02
  12.725  0.1271E+01  0.1325E+02
  12.735  0.1264E+01  0.1326E+02
  12.745  0.1257E+01  0.1327E+02
  12.755  0.1250E+01  0.1328E+02
  12.765  0.1243E+01  0.1330E+02
  12.775  0.1236E+01  0.1331E+02
  12.785  0.1229E+01  0.1332E+02
  12.795  0.1222E+01  0.1333E+02
  12.805  0.1215E+01  0.1335E+02
  12.815  0.1208E+01  0.1336E+02
  12.825  0.1201E+01  0.1337E+02
  12.835  0.1194E+01  0.1338E+02
  12.845  0.1187E+01  0.1339E+02
  12.855  0.1180E+01  0.1341E+02
  12.865  0.1173E+01  0.1342E+02
  12.875  0.1166E+01  0.1343E+02
  12.885  0.1159E+01  0.1344E+02
  12.895  0.1152E+01  0.1345E+02
  12.905  0.1145E+01  0.1346E+02
  12.915  0.1138E+01  0.1347E+02
  12.925  0.1132E+01  0.1349E+02
  12.935  0.1125E+01  0.1350E+02
  12.945  0.1118E+01  0.1351E+02
  12.955  0.1112E+01  0.1352E+02
  12.965  0.1105E+01  0.1353E+02
  12.975  0.1099E+01  0.1354E+02
  12.985  0.1093E+01  0.1355E+02
  12.995  0.1087E+01  0.1356E+02
  13.005  0.1081E+01  0.1357E+02
  13.015  0.1075E+01  0.1358E+02
  13.025  0.1069E+01  0.1360E+02
  13.035  0.1063E+01  0.1361E+02
  13.045  0.1057E+01  0.1362E+02
  13.055  0.1052E+01  0.1363E+02
  13.065  0.1046E+01  0.1364E+02
  13.075  0.1041E+01  0.1365E+02
  13.085  0.1036E+01  0.1366E+02
  13.095  0.1031E+01  0.1367E+02
  13.105  0.1026E+01  0.1368E+02
  13.115  0.1021E+01  0.1369E+02
  13.125  0.1016E+01  0.1370E+02
  13.135  0.1012E+01  0.1371E+02
  13.145  0.1007E+01  0.1372E+02
  13.155  0.1003E+01  0.1373E+02
  13.165  0.9991E+00  0.1374E+02
  13.175  0.9951E+00  0.1375E+02
  13.185  0.9913E+00  0.1376E+02
  13.195  0.9876E+00  0.1377E+02
  13.205  0.9841E+00  0.1378E+02
  13.215  0.9807E+00  0.1379E+02
  13.225  0.9774E+00  0.1380E+02
  13.235  0.9743E+00  0.1381E+02
  13.245  0.9714E+00  0.1382E+02
  13.255  0.9686E+00  0.1383E+02
  13.265  0.9659E+00  0.1384E+02
  13.275  0.9634E+00  0.1385E+02
  13.285  0.9610E+00  0.1386E+02
  13.295  0.9588E+00  0.1387E+02
  13.305  0.9567E+00  0.1388E+02
  13.315  0.9547E+00  0.1389E+02
  13.325  0.9529E+00  0.1390E+02
  13.335  0.9513E+00  0.1390E+02
  13.345  0.9498E+00  0.1391E+02
  13.355  0.9485E+00  0.1392E+02
  13.365  0.9472E+00  0.1393E+02
  13.375  0.9462E+00  0.1394E+02
  13.385  0.9453E+00  0.1395E+02
  13.395  0.9445E+00  0.1396E+02
  13.405  0.9439E+00  0.1397E+02
  13.415  0.9434E+00  0.1398E+02
  13.425  0.9431E+00  0.1399E+02
  13.435  0.9430E+00  0.1400E+02
  13.445  0.9429E+00  0.1401E+02
  13.455  0.9431E+00  0.1402E+02
  13.465  0.9433E+00  0.1403E+02
  13.475  0.9438E+00  0.1404E+02
  13.485  0.9443E+00  0.1405E+02
  13.495  0.9451E+00  0.1406E+02
  13.505  0.9459E+00  0.1407E+02
  13.515  0.9470E+00  0.1407E+02
  13.525  0.9481E+00  0.1408E+02
  13.535  0.9495E+00  0.1409E+02
  13.545  0.9509E+00  0.1410E+02
  13.555  0.9526E+00  0.1411E+02
  13.565  0.9544E+00  0.1412E+02
  13.575  0.9563E+00  0.1413E+02
  13.585  0.9584E+00  0.1414E+02
  13.595  0.9607E+00  0.1415E+02
  13.605  0.9631E+00  0.1416E+02
  13.615  0.9656E+00  0.1417E+02
  13.625  0.9684E+00  0.1418E+02
  13.635  0.9713E+00  0.1419E+02
  13.645  0.9743E+00  0.1420E+02
  13.655  0.9775E+00  0.1421E+02
  13.665  0.9809E+00  0.1422E+02
  13.675  0.9844E+00  0.1423E+02
  13.685  0.9881E+00  0.1424E+02
  13.695  0.9919E+00  0.1425E+02
  13.705  0.9959E+00  0.1426E+02
  13.715  0.1000E+01  0.1427E+02
  13.725  0.1004E+01  0.1428E+02
  13.735  0.1009E+01  0.1429E+02
  13.745  0.1013E+01  0.1430E+02
  13.755  0.1018E+01  0.1431E+02
  13.765  0.1023E+01  0.1432E+02
  13.775  0.1028E+01  0.1433E+02
  13.785  0.1034E+01  0.1434E+02
  13.795  0.1039E+01  0.1435E+02
  13.805  0.1044E+01  0.1436E+02
  13.815  0.1050E+01  0.1437E+02
  13.825  0.1056E+01  0.1438E+02
  13.835  0.1062E+01  0.1439E+02
  13.845  0.1068E+01  0.1440E+02
  13.855  0.1074E+01  0.1441E+02
  13.865  0.1081E+01  0.1442E+02
  13.875  0.1087E+01  0.1444E+02
  13.885  0.1094E+01  0.1445E+02
  13.895  0.1101E+01  0.1446E+02
  13.905  0.1107E+01  0.1447E+02
  13.915  0.1114E+01  0.1448E+02
  13.925  0.1122E+01  0.1449E+02
  13.935  0.1129E+01  0.1450E+02
  13.945  0.1136E+01  0.1451E+02
  13.955  0.1143E+01  0.1453E+02
  13.965  0.1151E+01  0.1454E+02
  13.975  0.1158E+01  0.1455E+02
  13.985  0.1166E+01  0.1456E+02
  13.995  0.1174E+01  0.1457E+02
  14.005  0.1181E+01  0.1458E+02
  14.015  0.1189E+01  0.1460E+02
  14.025  0.1197E+01  0.1461E+02
  14.035  0.1205E+01  0.1462E+02
  14.045  0.1213E+01  0.1463E+02
  14.055  0.1220E+01  0.1464E+02
  14.065  0.1228E+01  0.1466E+02
  14.075  0.1236E+01  0.1467E+02
  14.085  0.1244E+01  0.1468E+02
  14.095  0.1252E+01  0.1469E+02
  14.105  0.1260E+01  0.1471E+02
  14.115  0.1267E+01  0.1472E+02
  14.125  0.1275E+01  0.1473E+02
  14.135  0.1283E+01  0.1474E+02
  14.145  0.1290E+01  0.1476E+02
  14.155  0.1298E+01  0.1477E+02
  14.165  0.1305E+01  0.1478E+02
  14.175  0.1312E+01  0.1480E+02
  14.185  0.1319E+01  0.1481E+02
  14.195  0.1326E+01  0.1482E+02
  14.205  0.1333E+01  0.1484E+02
  14.215  0.1340E+01  0.1485E+02
  14.225  0.1346E+01  0.1486E+02
  14.235  0.1353E+01  0.1488E+02
  14.245  0.1359E+01  0.1489E+02
  14.255  0.1365E+01  0.1490E+02
  14.265  0.1371E+01  0.1492E+02
  14.275  0.1376E+01  0.1493E+02
  14.285  0.1382E+01  0.1494E+02
  14.295  0.1387E+01  0.1496E+02
  14.305  0.1391E+01  0.1497E+02
  14.315  0.1396E+01  0.1499E+02
  14.325  0.1400E+01  0.1500E+02
  14.335  0.1404E+01  0.1501E+02
  14.345  0.1408E+01  0.1503E+02
  14.355  0.1412E+01  0.1504E+02
  14.365  0.1415E+01  0.1506E+02
  14.375  0.1418E+01  0.1507E+02
  14.385  0.1420E+01  0.1509E+02
  14.395  0.1422E+01  0.1510E+02
  14.405  0.1424E+01  0.1511E+02
  14.415  0.1426E+01  0.1513E+02
  14.425  0.1427E+01  0.1514E+02
  14.435  0.1428E+01  0.1516E+02
  14.445  0.1428E+01  0.1517E+02
  14.455  0.1428E+01  0.1519E+02
  14.465  0.1428E+01  0.1520E+02
  14.475  0.1428E+01  0.1521E+02
  14.485  0.1427E+01  0.1523E+02
  14.495  0.1425E+01  0.1524E+02
  14.505  0.1423E+01  0.1526E+02
  14.515  0.1421E+01  0.1527E+02
  14.525  0.1419E+01  0.1528E+02
  14.535  0.1416E+01  0.1530E+02
  14.545  0.1412E+01  0.1531E+02
  14.555  0.1409E+01  0.1533E+02
  14.565  0.1405E+01  0.1534E+02
  14.575  0.1400E+01  0.1536E+02
  14.585  0.1395E+01  0.1537E+02
  14.595  0.1390E+01  0.1538E+02
  14.605  0.1385E+01  0.1540E+02
  14.615  0.1379E+01  0.1541E+02
  14.625  0.1372E+01  0.1542E+02
  14.635  0.1366E+01  0.1544E+02
  14.645  0.1358E+01  0.1545E+02
  14.655  0.1351E+01  0.1547E+02
  14.665  0.1343E+01  0.1548E+02
  14.675  0.1335E+01  0.1549E+02
  14.685  0.1327E+01  0.1551E+02
  14.695  0.1318E+01  0.1552E+02
  14.705  0.1309E+01  0.1553E+02
  14.715  0.1299E+01  0.1554E+02
  14.725  0.1289E+01  0.1556E+02
  14.735  0.1279E+01  0.1557E+02
  14.745  0.1269E+01  0.1558E+02
  14.755  0.1258E+01  0.1560E+02
  14.765  0.1247E+01  0.1561E+02
  14.775  0.1236E+01  0.1562E+02
  14.785  0.1225E+01  0.1563E+02
  14.795  0.1213E+01  0.1564E+02
  14.805  0.1201E+01  0.1566E+02
  14.815  0.1189E+01  0.1567E+02
  14.825  0.1177E+01  0.1568E+02
  14.835  0.1165E+01  0.1569E+02
  14.845  0.1152E+01  0.1570E+02
  14.855  0.1139E+01  0.1572E+02
  14.865  0.1126E+01  0.1573E+02
  14.875  0.1113E+01  0.1574E+02
  14.885  0.1100E+01  0.1575E+02
  14.895  0.1086E+01  0.1576E+02
  14.905  0.1073E+01  0.1577E+02
  14.915  0.1059E+01  0.1578E+02
  14.925  0.1046E+01  0.1579E+02
  14.935  0.1032E+01  0.1580E+02
  14.945  0.1018E+01  0.1581E+02
  14.955  0.1005E+01  0.1582E+02
  14.965  0.9908E+00  0.1583E+02
  14.975  0.9770E+00  0.1584E+02
  14.985  0.9633E+00  0.1585E+02
  14.995  0.9496E+00  0.1586E+02
  15.005  0.9359E+00  0.1587E+02
  15.015  0.9222E+00  0.1588E+02
  15.025  0.9087E+00  0.1589E+02
  15.035  0.8952E+00  0.1590E+02
  15.045  0.8818E+00  0.1591E+02
  15.055  0.8685E+00  0.1591E+02
  15.065  0.8553E+00  0.1592E+02
  15.075  0.8423E+00  0.1593E+02
  15.085  0.8294E+00  0.1594E+02
  15.095  0.8166E+00  0.1595E+02
  15.105  0.8040E+00  0.1596E+02
  15.115  0.7916E+00  0.1596E+02
  15.125  0.7794E+00  0.1597E+02
  15.135  0.7674E+00  0.1598E+02
  15.145  0.7556E+00  0.1599E+02
  15.155  0.7441E+00  0.1599E+02
  15.165  0.7327E+00  0.1600E+02
  15.175  0.7217E+00  0.1601E+02
  15.185  0.7108E+00  0.1602E+02
  15.195  0.7002E+00  0.1602E+02
  15.205  0.6900E+00  0.1603E+02
  15.215  0.6799E+00  0.1604E+02
  15.225  0.6702E+00  0.1604E+02
  15.235  0.6608E+00  0.1605E+02
  15.245  0.6517E+00  0.1606E+02
  15.255  0.6428E+00  0.1606E+02
  15.265  0.6343E+00  0.1607E+02
  15.275  0.6262E+00  0.1608E+02
  15.285  0.6183E+00  0.1608E+02
  15.295  0.6108E+00  0.1609E+02
  15.305  0.6037E+00  0.1609E+02
  15.315  0.5969E+00  0.1610E+02
  15.325  0.5904E+00  0.1611E+02
  15.335  0.5843E+00  0.1611E+02
  15.345  0.5786E+00  0.1612E+02
  15.355  0.5732E+00  0.1612E+02
  15.365  0.5682E+00  0.1613E+02
  15.375  0.5635E+00  0.1613E+02
  15.385  0.5593E+00  0.1614E+02
  15.395  0.5553E+00  0.1615E+02
  15.405  0.5518E+00  0.1615E+02
  15.415  0.5486E+00  0.1616E+02
  15.425  0.5459E+00  0.1616E+02
  15.435  0.5434E+00  0.1617E+02
  15.445  0.5414E+00  0.1617E+02
  15.455  0.5397E+00  0.1618E+02
  15.465  0.5384E+00  0.1618E+02
  15.475  0.5375E+00  0.1619E+02
  15.485  0.5370E+00  0.1619E+02
  15.495  0.5368E+00  0.1620E+02
  15.505  0.5369E+00  0.1621E+02
  15.515  0.5375E+00  0.1621E+02
  15.525  0.5383E+00  0.1622E+02
  15.535  0.5396E+00  0.1622E+02
  15.545  0.5412E+00  0.1623E+02
  15.555  0.5431E+00  0.1623E+02
  15.565  0.5454E+00  0.1624E+02
  15.575  0.5480E+00  0.1624E+02
  15.585  0.5509E+00  0.1625E+02
  15.595  0.5542E+00  0.1625E+02
  15.605  0.5578E+00  0.1626E+02
  15.615  0.5617E+00  0.1627E+02
  15.625  0.5659E+00  0.1627E+02
  15.635  0.5704E+00  0.1628E+02
  15.645  0.5752E+00  0.1628E+02
  15.655  0.5803E+00  0.1629E+02
  15.665  0.5856E+00  0.1629E+02
  15.675  0.5913E+00  0.1630E+02
  15.685  0.5972E+00  0.1631E+02
  15.695  0.6033E+00  0.1631E+02
  15.705  0.6097E+00  0.1632E+02
  15.715  0.6164E+00  0.1632E+02
  15.725  0.6232E+00  0.1633E+02
  15.735  0.6303E+00  0.1634E+02
  15.745  0.6376E+00  0.1634E+02
  15.755  0.6451E+00  0.1635E+02
  15.765  0.6528E+00  0.1636E+02
  15.775  0.6607E+00  0.1636E+02
  15.785  0.6688E+00  0.1637E+02
  15.795  0.6770E+00  0.1638E+02
  15.805  0.6854E+00  0.1638E+02
  15.815  0.6940E+00  0.1639E+02
  15.825  0.7027E+00  0.1640E+02
  15.835  0.7115E+00  0.1640E+02
  15.845  0.7204E+00  0.1641E+02
  15.855  0.7295E+00  0.1642E+02
  15.865  0.7386E+00  0.1643E+02
  15.875  0.7478E+00  0.1643E+02
  15.885  0.7572E+00  0.1644E+02
  15.895  0.7665E+00  0.1645E+02
  15.905  0.7760E+00  0.1646E+02
  15.915  0.7855E+00  0.1646E+02
  15.925  0.7951E+00  0.1647E+02
  15.935  0.8046E+00  0.1648E+02
  15.945  0.8142E+00  0.1649E+02
  15.955  0.8239E+00  0.1650E+02
  15.965  0.8335E+00  0.1651E+02
  15.975  0.8431E+00  0.1651E+02
  15.985  0.8527E+00  0.1652E+02
  15.995  0.8623E+00  0.1653E+02
  16.005  0.8719E+00  0.1654E+02
  16.015  0.8814E+00  0.1655E+02
  16.025  0.8909E+00  0.1656E+02
  16.035  0.9003E+00  0.1657E+02
  16.045  0.9096E+00  0.1658E+02
  16.055  0.9189E+00  0.1658E+02
  16.065  0.9281E+00  0.1659E+02
  16.075  0.9373E+00  0.1660E+02
  16.085  0.9463E+00  0.1661E+02
  16.095  0.9552E+00  0.1662E+02
  16.105  0.9640E+00  0.1663E+02
  16.115  0.9727E+00  0.1664E+02
  16.125  0.9813E+00  0.1665E+02
  16.135  0.9898E+00  0.1666E+02
  16.145  0.9981E+00  0.1667E+02
  16.155  0.1006E+01  0.1668E+02
  16.165  0.1014E+01  0.1669E+02
  16.175  0.1022E+01  0.1670E+02
  16.185  0.1030E+01  0.1671E+02
  16.195  0.1038E+01  0.1672E+02
  16.205  0.1045E+01  0.1673E+02
  16.215  0.1052E+01  0.1674E+02
  16.225  0.1059E+01  0.1675E+02
  16.235  0.1066E+01  0.1676E+02
  16.245  0.1073E+01  0.1678E+02
  16.255  0.1079E+01  0.1679E+02
  16.265  0.1086E+01  0.1680E+02
  16.275  0.1092E+01  0.1681E+02
  16.285  0.1098E+01  0.1682E+02
  16.295  0.1104E+01  0.1683E+02
  16.305  0.1109E+01  0.1684E+02
  16.315  0.1115E+01  0.1685E+02
  16.325  0.1120E+01  0.1686E+02
  16.335  0.1125E+01  0.1687E+02
  16.345  0.1129E+01  0.1689E+02
  16.355  0.1134E+01  0.1690E+02
  16.365  0.1138E+01  0.1691E+02
  16.375  0.1143E+01  0.1692E+02
  16.385  0.1147E+01  0.1693E+02
  16.395  0.1150E+01  0.1694E+02
  16.405  0.1154E+01  0.1695E+02
  16.415  0.1157E+01  0.1697E+02
  16.425  0.1160E+01  0.1698E+02
  16.435  0.1163E+01  0.1699E+02
  16.445  0.1166E+01  0.1700E+02
  16.455  0.1169E+01  0.1701E+02
  16.465  0.1171E+01  0.1702E+02
  16.475  0.1173E+01  0.1704E+02
  16.485  0.1175E+01  0.1705E+02
  16.495  0.1177E+01  0.1706E+02
  16.505  0.1179E+01  0.1707E+02
  16.515  0.1180E+01  0.1708E+02
  16.525  0.1181E+01  0.1709E+02
  16.535  0.1182E+01  0.1711E+02
  16.545  0.1183E+01  0.1712E+02
  16.555  0.1184E+01  0.1713E+02
  16.565  0.1184E+01  0.1714E+02
  16.575  0.1185E+01  0.1715E+02
  16.585  0.1185E+01  0.1717E+02
  16.595  0.1185E+01  0.1718E+02
  16.605  0.1185E+01  0.1719E+02
  16.615  0.1185E+01  0.1720E+02
  16.625  0.1184E+01  0.1721E+02
  16.635  0.1184E+01  0.1723E+02
  16.645  0.1183E+01  0.1724E+02
  16.655  0.1182E+01  0.1725E+02
  16.665  0.1181E+01  0.1726E+02
  16.675  0.1180E+01  0.1727E+02
  16.685  0.1178E+01  0.1728E+02
  16.695  0.1177E+01  0.1730E+02
  16.705  0.1175E+01  0.1731E+02
  16.715  0.1174E+01  0.1732E+02
  16.725  0.1172E+01  0.1733E+02
  16.735  0.1170E+01  0.1734E+02
  16.745  0.1168E+01  0.1735E+02
  16.755  0.1166E+01  0.1737E+02
  16.765  0.1164E+01  0.1738E+02
  16.775  0.1161E+01  0.1739E+02
  16.785  0.1159E+01  0.1740E+02
  16.795  0.1156E+01  0.1741E+02
  16.805  0.1153E+01  0.1742E+02
  16.815  0.1151E+01  0.1744E+02
  16.825  0.1148E+01  0.1745E+02
  16.835  0.1145E+01  0.1746E+02
  16.845  0.1142E+01  0.1747E+02
  16.855  0.1139E+01  0.1748E+02
  16.865  0.1136E+01  0.1749E+02
  16.875  0.1132E+01  0.1750E+02
  16.885  0.1129E+01  0.1752E+02
  16.895  0.1126E+01  0.1753E+02
  16.905  0.1122E+01  0.1754E+02
  16.915  0.1119E+01  0.1755E+02
  16.925  0.1115E+01  0.1756E+02
  16.935  0.1111E+01  0.1757E+02
  16.945  0.1108E+01  0.1758E+02
  16.955  0.1104E+01  0.1759E+02
  16.965  0.1100E+01  0.1760E+02
  16.975  0.1096E+01  0.1762E+02
  16.985  0.1092E+01  0.1763E+02
  16.995  0.1088E+01  0.1764E+02
  17.005  0.1084E+01  0.1765E+02
  17.015  0.1080E+01  0.1766E+02
  17.025  0.1076E+01  0.1767E+02
  17.035  0.1072E+01  0.1768E+02
  17.045  0.1067E+01  0.1769E+02
  17.055  0.1063E+01  0.1770E+02
  17.065  0.1059E+01  0.1771E+02
  17.075  0.1054E+01  0.1772E+02
  17.085  0.1050E+01  0.1773E+02
  17.095  0.1046E+01  0.1774E+02
  17.105  0.1041E+01  0.1775E+02
  17.115  0.1037E+01  0.1776E+02
  17.125  0.1032E+01  0.1777E+02
  17.135  0.1028E+01  0.1779E+02
  17.145  0.1023E+01  0.1780E+02
  17.155  0.1018E+01  0.1781E+02
  17.165  0.1014E+01  0.1782E+02
  17.175  0.1009E+01  0.1783E+02
  17.185  0.1005E+01  0.1784E+02
  17.195  0.9998E+00  0.1785E+02
  17.205  0.9951E+00  0.1786E+02
  17.215  0.9904E+00  0.1787E+02
  17.225  0.9857E+00  0.1788E+02
  17.235  0.9809E+00  0.1789E+02
  17.245  0.9761E+00  0.1790E+02
  17.255  0.9714E+00  0.1790E+02
  17.265  0.9666E+00  0.1791E+02
  17.275  0.9618E+00  0.1792E+02
  17.285  0.9570E+00  0.1793E+02
  17.295  0.9522E+00  0.1794E+02
  17.305  0.9473E+00  0.1795E+02
  17.315  0.9425E+00  0.1796E+02
  17.325  0.9377E+00  0.1797E+02
  17.335  0.9329E+00  0.1798E+02
  17.345  0.9281E+00  0.1799E+02
  17.355  0.9233E+00  0.1800E+02
  17.365  0.9185E+00  0.1801E+02
  17.375  0.9137E+00  0.1802E+02
  17.385  0.9089E+00  0.1803E+02
  17.395  0.9041E+00  0.1804E+02
  17.405  0.8993E+00  0.1804E+02
  17.415  0.8945E+00  0.1805E+02
  17.425  0.8898E+00  0.1806E+02
  17.435  0.8850E+00  0.1807E+02
  17.445  0.8803E+00  0.1808E+02
  17.455  0.8756E+00  0.1809E+02
  17.465  0.8709E+00  0.1810E+02
  17.475  0.8662E+00  0.1811E+02
  17.485  0.8616E+00  0.1811E+02
  17.495  0.8569E+00  0.1812E+02
  17.505  0.8523E+00  0.1813E+02
  17.515  0.8477E+00  0.1814E+02
  17.525  0.8431E+00  0.1815E+02
  17.535  0.8386E+00  0.1816E+02
  17.545  0.8340E+00  0.1817E+02
  17.555  0.8295E+00  0.1817E+02
  17.565  0.8250E+00  0.1818E+02
  17.575  0.8206E+00  0.1819E+02
  17.585  0.8161E+00  0.1820E+02
  17.595  0.8117E+00  0.1821E+02
  17.605  0.8074E+00  0.1821E+02
  17.615  0.8030E+00  0.1822E+02
  17.625  0.7987E+00  0.1823E+02
  17.635  0.7943E+00  0.1824E+02
  17.645  0.7901E+00  0.1825E+02
  17.655  0.7858E+00  0.1825E+02
  17.665  0.7816E+00  0.1826E+02
  17.675  0.7773E+00  0.1827E+02
  17.685  0.7732E+00  0.1828E+02
  17.695  0.7690E+00  0.1829E+02
  17.705  0.7648E+00  0.1829E+02
  17.715  0.7607E+00  0.1830E+02
  17.725  0.7566E+00  0.1831E+02
  17.735  0.7525E+00  0.1832E+02
  17.745  0.7484E+00  0.1832E+02
  17.755  0.7444E+00  0.1833E+02
  17.765  0.7403E+00  0.1834E+02
  17.775  0.7363E+00  0.1835E+02
  17.785  0.7323E+00  0.1835E+02
  17.795  0.7282E+00  0.1836E+02
  17.805  0.7242E+00  0.1837E+02
  17.815  0.7202E+00  0.1837E+02
  17.825  0.7163E+00  0.1838E+02
  17.835  0.7123E+00  0.1839E+02
  17.845  0.7083E+00  0.1840E+02
  17.855  0.7043E+00  0.1840E+02
  17.865  0.7003E+00  0.1841E+02
  17.875  0.6963E+00  0.1842E+02
  17.885  0.6923E+00  0.1842E+02
  17.895  0.6883E+00  0.1843E+02
  17.905  0.6843E+00  0.1844E+02
  17.915  0.6802E+00  0.1844E+02
  17.925  0.6762E+00  0.1845E+02
  17.935  0.6721E+00  0.1846E+02
  17.945  0.6681E+00  0.1846E+02
  17.955  0.6640E+00  0.1847E+02
  17.965  0.6598E+00  0.1848E+02
  17.975  0.6557E+00  0.1848E+02
  17.985  0.6515E+00  0.1849E+02
  17.995  0.6473E+00  0.1850E+02
  18.005  0.6431E+00  0.1850E+02
  18.015  0.6388E+00  0.1851E+02
  18.025  0.6345E+00  0.1852E+02
  18.035  0.6302E+00  0.1852E+02
  18.045  0.6258E+00  0.1853E+02
  18.055  0.6214E+00  0.1854E+02
  18.065  0.6170E+00  0.1854E+02
  18.075  0.6125E+00  0.1855E+02
  18.085  0.6080E+00  0.1855E+02
  18.095  0.6034E+00  0.1856E+02
  18.105  0.5988E+00  0.1857E+02
  18.115  0.5942E+00  0.1857E+02
  18.125  0.5895E+00  0.1858E+02
  18.135  0.5847E+00  0.1858E+02
  18.145  0.5799E+00  0.1859E+02
  18.155  0.5751E+00  0.1859E+02
  18.165  0.5702E+00  0.1860E+02
  18.175  0.5653E+00  0.1861E+02
  18.185  0.5603E+00  0.1861E+02
  18.195  0.5552E+00  0.1862E+02
  18.205  0.5501E+00  0.1862E+02
  18.215  0.5450E+00  0.1863E+02
  18.225  0.5398E+00  0.1863E+02
  18.235  0.5346E+00  0.1864E+02
  18.245  0.5293E+00  0.1864E+02
  18.255  0.5240E+00  0.1865E+02
  18.265  0.5186E+00  0.1865E+02
  18.275  0.5132E+00  0.1866E+02
  18.285  0.5077E+00  0.1867E+02
  18.295  0.5022E+00  0.1867E+02
  18.305  0.4966E+00  0.1868E+02
  18.315  0.4911E+00  0.1868E+02
  18.325  0.4854E+00  0.1868E+02
  18.335  0.4797E+00  0.1869E+02
  18.345  0.4740E+00  0.1869E+02
  18.355  0.4683E+00  0.1870E+02
  18.365  0.4625E+00  0.1870E+02
  18.375  0.4567E+00  0.1871E+02
  18.385  0.4509E+00  0.1871E+02
  18.395  0.4450E+00  0.1872E+02
  18.405  0.4391E+00  0.1872E+02
  18.415  0.4332E+00  0.1873E+02
  18.425  0.4273E+00  0.1873E+02
  18.435  0.4213E+00  0.1873E+02
  18.445  0.4153E+00  0.1874E+02
  18.455  0.4094E+00  0.1874E+02
  18.465  0.4034E+00  0.1875E+02
  18.475  0.3974E+00  0.1875E+02
  18.485  0.3914E+00  0.1875E+02
  18.495  0.3853E+00  0.1876E+02
  18.505  0.3793E+00  0.1876E+02
  18.515  0.3733E+00  0.1877E+02
  18.525  0.3673E+00  0.1877E+02
  18.535  0.3613E+00  0.1877E+02
  18.545  0.3553E+00  0.1878E+02
  18.555  0.3494E+00  0.1878E+02
  18.565  0.3434E+00  0.1878E+02
  18.575  0.3375E+00  0.1879E+02
  18.585  0.3316E+00  0.1879E+02
  18.595  0.3257E+00  0.1879E+02
  18.605  0.3198E+00  0.1880E+02
  18.615  0.3140E+00  0.1880E+02
  18.625  0.3082E+00  0.1880E+02
  18.635  0.3025E+00  0.1881E+02
  18.645  0.2968E+00  0.1881E+02
  18.655  0.2911E+00  0.1881E+02
  18.665  0.2855E+00  0.1881E+02
  18.675  0.2799E+00  0.1882E+02
  18.685  0.2744E+00  0.1882E+02
  18.695  0.2689E+00  0.1882E+02
  18.705  0.2635E+00  0.1883E+02
  18.715  0.2582E+00  0.1883E+02
  18.725  0.2529E+00  0.1883E+02
  18.735  0.2476E+00  0.1883E+02
  18.745  0.2425E+00  0.1884E+02
  18.755  0.2374E+00  0.1884E+02
  18.765  0.2324E+00  0.1884E+02
  18.775  0.2275E+00  0.1884E+02
  18.785  0.2226E+00  0.1884E+02
  18.795  0.2178E+00  0.1885E+02
  18.805  0.2131E+00  0.1885E+02
  18.815  0.2085E+00  0.1885E+02
  18.825  0.2040E+00  0.1885E+02
  18.835  0.1996E+00  0.1886E+02
  18.845  0.1952E+00  0.1886E+02
  18.855  0.1910E+00  0.1886E+02
  18.865  0.1868E+00  0.1886E+02
  18.875  0.1828E+00  0.1886E+02
  18.885  0.1788E+00  0.1886E+02
  18.895  0.1750E+00  0.1887E+02
  18.905  0.1712E+00  0.1887E+02
  18.915  0.1676E+00  0.1887E+02
  18.925  0.1641E+00  0.1887E+02
  18.935  0.1606E+00  0.1887E+02
  18.945  0.1573E+00  0.1887E+02
  18.955  0.1541E+00  0.1888E+02
  18.965  0.1511E+00  0.1888E+02
  18.975  0.1481E+00  0.1888E+02
  18.985  0.1452E+00  0.1888E+02
  18.995  0.1425E+00  0.1888E+02
  19.005  0.1399E+00  0.1888E+02
  19.015  0.1375E+00  0.1888E+02
  19.025  0.1351E+00  0.1889E+02
  19.035  0.1329E+00  0.1889E+02
  19.045  0.1308E+00  0.1889E+02
  19.055  0.1288E+00  0.1889E+02
  19.065  0.1270E+00  0.1889E+02
  19.075  0.1253E+00  0.1889E+02
  19.085  0.1238E+00  0.1889E+02
  19.095  0.1223E+00  0.1890E+02
  19.105  0.1211E+00  0.1890E+02
  19.115  0.1199E+00  0.1890E+02
  19.125  0.1189E+00  0.1890E+02
  19.135  0.1181E+00  0.1890E+02
  19.145  0.1174E+00  0.1890E+02
  19.155  0.1168E+00  0.1890E+02
  19.165  0.1164E+00  0.1890E+02
  19.175  0.1161E+00  0.1890E+02
  19.185  0.1160E+00  0.1891E+02
  19.195  0.1160E+00  0.1891E+02
  19.205  0.1162E+00  0.1891E+02
  19.215  0.1166E+00  0.1891E+02
  19.225  0.1171E+00  0.1891E+02
  19.235  0.1178E+00  0.1891E+02
  19.245  0.1186E+00  0.1891E+02
  19.255  0.1196E+00  0.1891E+02
  19.265  0.1207E+00  0.1892E+02
  19.275  0.1220E+00  0.1892E+02
  19.285  0.1235E+00  0.1892E+02
  19.295  0.1252E+00  0.1892E+02
  19.305  0.1270E+00  0.1892E+02
  19.315  0.1290E+00  0.1892E+02
  19.325  0.1311E+00  0.1892E+02
  19.335  0.1334E+00  0.1892E+02
  19.345  0.1359E+00  0.1893E+02
  19.355  0.1386E+00  0.1893E+02
  19.365  0.1415E+00  0.1893E+02
  19.375  0.1445E+00  0.1893E+02
  19.385  0.1477E+00  0.1893E+02
  19.395  0.1511E+00  0.1893E+02
  19.405  0.1546E+00  0.1893E+02
  19.415  0.1583E+00  0.1894E+02
  19.425  0.1622E+00  0.1894E+02
  19.435  0.1663E+00  0.1894E+02
  19.445  0.1706E+00  0.1894E+02
  19.455  0.1751E+00  0.1894E+02
  19.465  0.1797E+00  0.1894E+02
  19.475  0.1845E+00  0.1895E+02
  19.485  0.1895E+00  0.1895E+02
  19.495  0.1947E+00  0.1895E+02
  19.505  0.2000E+00  0.1895E+02
  19.515  0.2056E+00  0.1895E+02
  19.525  0.2113E+00  0.1896E+02
  19.535  0.2172E+00  0.1896E+02
  19.545  0.2233E+00  0.1896E+02
  19.555  0.2295E+00  0.1896E+02
  19.565  0.2359E+00  0.1897E+02
  19.575  0.2426E+00  0.1897E+02
  19.585  0.2493E+00  0.1897E+02
  19.595  0.2563E+00  0.1897E+02
  19.605  0.2634E+00  0.1898E+02
  19.615  0.2708E+00  0.1898E+02
  19.625  0.2782E+00  0.1898E+02
  19.635  0.2859E+00  0.1898E+02
  19.645  0.2937E+00  0.1899E+02
  19.655  0.3017E+00  0.1899E+02
  19.665  0.3098E+00  0.1899E+02
  19.675  0.3181E+00  0.1900E+02
  19.685  0.3266E+00  0.1900E+02
  19.695  0.3352E+00  0.1900E+02
  19.705  0.3440E+00  0.1901E+02
  19.715  0.3529E+00  0.1901E+02
  19.725  0.3619E+00  0.1901E+02
  19.735  0.3712E+00  0.1902E+02
  19.745  0.3805E+00  0.1902E+02
  19.755  0.3900E+00  0.1902E+02
  19.765  0.3996E+00  0.1903E+02
  19.775  0.4093E+00  0.1903E+02
  19.785  0.4192E+00  0.1904E+02
  19.795  0.4292E+00  0.1904E+02
  19.805  0.4393E+00  0.1905E+02
  19.815  0.4495E+00  0.1905E+02
  19.825  0.4598E+00  0.1905E+02
  19.835  0.4702E+00  0.1906E+02
  19.845  0.4807E+00  0.1906E+02
  19.855  0.4913E+00  0.1907E+02
  19.865  0.5020E+00  0.1907E+02
  19.875  0.5128E+00  0.1908E+02
  19.885  0.5237E+00  0.1908E+02
  19.895  0.5346E+00  0.1909E+02
  19.905  0.5456E+00  0.1910E+02
  19.915  0.5566E+00  0.1910E+02
  19.925  0.5677E+00  0.1911E+02
  19.935  0.5789E+00  0.1911E+02
  19.945  0.5901E+00  0.1912E+02
  19.955  0.6013E+00  0.1912E+02
  19.965  0.6125E+00  0.1913E+02
  19.975  0.6238E+00  0.1914E+02
  19.985  0.6351E+00  0.1914E+02
  19.995  0.6464E+00  0.1915E+02
  20.005  0.6577E+00  0.1916E+02
  20.015  0.6691E+00  0.1916E+02
  20.025  0.6804E+00  0.1917E+02
  20.035  0.6917E+00  0.1918E+02
  20.045  0.7029E+00  0.1918E+02
  20.055  0.7142E+00  0.1919E+02
  20.065  0.7254E+00  0.1920E+02
  20.075  0.7366E+00  0.1921E+02
  20.085  0.7478E+00  0.1921E+02
  20.095  0.7589E+00  0.1922E+02
  20.105  0.7699E+00  0.1923E+02
  20.115  0.7809E+00  0.1924E+02
  20.125  0.7918E+00  0.1924E+02
  20.135  0.8027E+00  0.1925E+02
  20.145  0.8134E+00  0.1926E+02
  20.155  0.8241E+00  0.1927E+02
  20.165  0.8347E+00  0.1928E+02
  20.175  0.8452E+00  0.1928E+02
  20.185  0.8556E+00  0.1929E+02
  20.195  0.8659E+00  0.1930E+02
  20.205  0.8761E+00  0.1931E+02
  20.215  0.8862E+00  0.1932E+02
  20.225  0.8962E+00  0.1933E+02
  20.235  0.9061E+00  0.1934E+02
  20.245  0.9158E+00  0.1935E+02
  20.255  0.9254E+00  0.1936E+02
  20.265  0.9349E+00  0.1937E+02
  20.275  0.9442E+00  0.1937E+02
  20.285  0.9534E+00  0.1938E+02
  20.295  0.9624E+00  0.1939E+02
  20.305  0.9714E+00  0.1940E+02
  20.315  0.9801E+00  0.1941E+02
  20.325  0.9887E+00  0.1942E+02
  20.335  0.9972E+00  0.1943E+02
  20.345  0.1005E+01  0.1944E+02
  20.355  0.1014E+01  0.1945E+02
  20.365  0.1022E+01  0.1946E+02
  20.375  0.1029E+01  0.1947E+02
  20.385  0.1037E+01  0.1948E+02
  20.395  0.1045E+01  0.1949E+02
  20.405  0.1052E+01  0.1951E+02
  20.415  0.1059E+01  0.1952E+02
  20.425  0.1066E+01  0.1953E+02
  20.435  0.1073E+01  0.1954E+02
  20.445  0.1080E+01  0.1955E+02
  20.455  0.1086E+01  0.1956E+02
  20.465  0.1093E+01  0.1957E+02
  20.475  0.1099E+01  0.1958E+02
  20.485  0.1105E+01  0.1959E+02
  20.495  0.1111E+01  0.1960E+02
  20.505  0.1117E+01  0.1961E+02
  20.515  0.1122E+01  0.1963E+02
  20.525  0.1128E+01  0.1964E+02
  20.535  0.1133E+01  0.1965E+02
  20.545  0.1138E+01  0.1966E+02
  20.555  0.1143E+01  0.1967E+02
  20.565  0.1148E+01  0.1968E+02
  20.575  0.1152E+01  0.1969E+02
  20.585  0.1157E+01  0.1971E+02
  20.595  0.1161E+01  0.1972E+02
  20.605  0.1166E+01  0.1973E+02
  20.615  0.1170E+01  0.1974E+02
  20.625  0.1174E+01  0.1975E+02
  20.635  0.1178E+01  0.1976E+02
  20.645  0.1181E+01  0.1978E+02
  20.655  0.1185E+01  0.1979E+02
  20.665  0.1188E+01  0.1980E+02
  20.675  0.1192E+01  0.1981E+02
  20.685  0.1195E+01  0.1982E+02
  20.695  0.1198E+01  0.1984E+02
  20.705  0.1201E+01  0.1985E+02
  20.715  0.1204E+01  0.1986E+02
  20.725  0.1207E+01  0.1987E+02
  20.735  0.1210E+01  0.1988E+02
  20.745  0.1213E+01  0.1990E+02
  20.755  0.1215E+01  0.1991E+02
  20.765  0.1218E+01  0.1992E+02
  20.775  0.1220E+01  0.1993E+02
  20.785  0.1223E+01  0.1994E+02
  20.795  0.1225E+01  0.1996E+02
  20.805  0.1227E+01  0.1997E+02
  20.815  0.1229E+01  0.1998E+02
  20.825  0.1231E+01  0.1999E+02
  20.835  0.1234E+01  0.2001E+02
  20.845  0.1236E+01  0.2002E+02
  20.855  0.1238E+01  0.2003E+02
  20.865  0.1239E+01  0.2004E+02
  20.875  0.1241E+01  0.2006E+02
  20.885  0.1243E+01  0.2007E+02
  20.895  0.1245E+01  0.2008E+02
  20.905  0.1247E+01  0.2009E+02
  20.915  0.1248E+01  0.2011E+02
  20.925  0.1250E+01  0.2012E+02
  20.935  0.1252E+01  0.2013E+02
  20.945  0.1254E+01  0.2014E+02
  20.955  0.1255E+01  0.2016E+02
  20.965  0.1257E+01  0.2017E+02
  20.975  0.1258E+01  0.2018E+02
  20.985  0.1260E+01  0.2019E+02
  20.995  0.1261E+01  0.2021E+02
  21.005  0.1263E+01  0.2022E+02
  21.015  0.1265E+01  0.2023E+02
  21.025  0.1266E+01  0.2024E+02
  21.035  0.1268E+01  0.2026E+02
  21.045  0.1269E+01  0.2027E+02
  21.055  0.1271E+01  0.2028E+02
  21.065  0.1272E+01  0.2029E+02
  21.075  0.1274E+01  0.2031E+02
  21.085  0.1275E+01  0.2032E+02
  21.095  0.1277E+01  0.2033E+02
  21.105  0.1278E+01  0.2035E+02
  21.115  0.1279E+01  0.2036E+02
  21.125  0.1281E+01  0.2037E+02
  21.135  0.1282E+01  0.2038E+02
  21.145  0.1284E+01  0.2040E+02
  21.155  0.1285E+01  0.2041E+02
  21.165  0.1287E+01  0.2042E+02
  21.175  0.1288E+01  0.2044E+02
  21.185  0.1290E+01  0.2045E+02
  21.195  0.1291E+01  0.2046E+02
  21.205  0.1292E+01  0.2047E+02
  21.215  0.1294E+01  0.2049E+02
  21.225  0.1295E+01  0.2050E+02
  21.235  0.1296E+01  0.2051E+02
  21.245  0.1298E+01  0.2053E+02
  21.255  0.1299E+01  0.2054E+02
  21.265  0.1301E+01  0.2055E+02
  21.275  0.1302E+01  0.2057E+02
  21.285  0.1303E+01  0.2058E+02
  21.295  0.1305E+01  0.2059E+02
  21.305  0.1306E+01  0.2060E+02
  21.315  0.1307E+01  0.2062E+02
  21.325  0.1308E+01  0.2063E+02
  21.335  0.1310E+01  0.2064E+02
  21.345  0.1311E+01  0.2066E+02
  21.355  0.1312E+01  0.2067E+02
  21.365  0.1313E+01  0.2068E+02
  21.375  0.1314E+01  0.2070E+02
  21.385  0.1315E+01  0.2071E+02
  21.395  0.1316E+01  0.2072E+02
  21.405  0.1317E+01  0.2074E+02
  21.415  0.1318E+01  0.2075E+02
  21.425  0.1319E+01  0.2076E+02
  21.435  0.1320E+01  0.2078E+02
  21.445  0.1321E+01  0.2079E+02
  21.455  0.1322E+01  0.2080E+02
  21.465  0.1323E+01  0.2081E+02
  21.475  0.1324E+01  0.2083E+02
  21.485  0.1325E+01  0.2084E+02
  21.495  0.1326E+01  0.2085E+02
  21.505  0.1326E+01  0.2087E+02
  21.515  0.1327E+01  0.2088E+02
  21.525  0.1328E+01  0.2089E+02
  21.535  0.1328E+01  0.2091E+02
  21.545  0.1329E+01  0.2092E+02
  21.555  0.1329E+01  0.2093E+02
  21.565  0.1330E+01  0.2095E+02
  21.575  0.1330E+01  0.2096E+02
  21.585  0.1331E+01  0.2097E+02
  21.595  0.1331E+01  0.2099E+02
  21.605  0.1332E+01  0.2100E+02
  21.615  0.1332E+01  0.2101E+02
  21.625  0.1332E+01  0.2103E+02
  21.635  0.1332E+01  0.2104E+02
  21.645  0.1332E+01  0.2105E+02
  21.655  0.1333E+01  0.2107E+02
  21.665  0.1333E+01  0.2108E+02
  21.675  0.1333E+01  0.2109E+02
  21.685  0.1333E+01  0.2111E+02
  21.695  0.1333E+01  0.2112E+02
  21.705  0.1332E+01  0.2113E+02
  21.715  0.1332E+01  0.2115E+02
  21.725  0.1332E+01  0.2116E+02
  21.735  0.1332E+01  0.2117E+02
  21.745  0.1332E+01  0.2119E+02
  21.755  0.1331E+01  0.2120E+02
  21.765  0.1331E+01  0.2121E+02
  21.775  0.1330E+01  0.2123E+02
  21.785  0.1330E+01  0.2124E+02
  21.795  0.1329E+01  0.2125E+02
  21.805  0.1329E+01  0.2127E+02
  21.815  0.1328E+01  0.2128E+02
  21.825  0.1327E+01  0.2129E+02
  21.835  0.1326E+01  0.2131E+02
  21.845  0.1326E+01  0.2132E+02
  21.855  0.1325E+01  0.2133E+02
  21.865  0.1324E+01  0.2135E+02
  21.875  0.1323E+01  0.2136E+02
  21.885  0.1322E+01  0.2137E+02
  21.895  0.1321E+01  0.2139E+02
  21.905  0.1320E+01  0.2140E+02
  21.915  0.1318E+01  0.2141E+02
  21.925  0.1317E+01  0.2143E+02
  21.935  0.1316E+01  0.2144E+02
  21.945  0.1314E+01  0.2145E+02
  21.955  0.1313E+01  0.2147E+02
  21.965  0.1311E+01  0.2148E+02
  21.975  0.1310E+01  0.2149E+02
  21.985  0.1308E+01  0.2150E+02
  21.995  0.1306E+01  0.2152E+02
  22.005  0.1305E+01  0.2153E+02
  22.015  0.1303E+01  0.2154E+02
  22.025  0.1301E+01  0.2156E+02
  22.035  0.1299E+01  0.2157E+02
  22.045  0.1297E+01  0.2158E+02
  22.055  0.1295E+01  0.2160E+02
  22.065  0.1293E+01  0.2161E+02
  22.075  0.1291E+01  0.2162E+02
  22.085  0.1288E+01  0.2163E+02
  22.095  0.1286E+01  0.2165E+02
  22.105  0.1284E+01  0.2166E+02
  22.115  0.1281E+01  0.2167E+02
  22.125  0.1279E+01  0.2169E+02
  22.135  0.1276E+01  0.2170E+02
  22.145  0.1273E+01  0.2171E+02
  22.155  0.1271E+01  0.2172E+02
  22.165  0.1268E+01  0.2174E+02
  22.175  0.1265E+01  0.2175E+02
  22.185  0.1262E+01  0.2176E+02
  22.195  0.1259E+01  0.2177E+02
  22.205  0.1256E+01  0.2179E+02
  22.215  0.1253E+01  0.2180E+02
  22.225  0.1250E+01  0.2181E+02
  22.235  0.1247E+01  0.2182E+02
  22.245  0.1244E+01  0.2184E+02
  22.255  0.1241E+01  0.2185E+02
  22.265  0.1237E+01  0.2186E+02
  22.275  0.1234E+01  0.2187E+02
  22.285  0.1230E+01  0.2189E+02
  22.295  0.1227E+01  0.2190E+02
  22.305  0.1224E+01  0.2191E+02
  22.315  0.1220E+01  0.2192E+02
  22.325  0.1216E+01  0.2194E+02
  22.335  0.1213E+01  0.2195E+02
  22.345  0.1209E+01  0.2196E+02
  22.355  0.1206E+01  0.2197E+02
  22.365  0.1202E+01  0.2198E+02
  22.375  0.1198E+01  0.2200E+02
  22.385  0.1194E+01  0.2201E+02
  22.395  0.1191E+01  0.2202E+02
  22.405  0.1187E+01  0.2203E+02
  22.415  0.1183E+01  0.2204E+02
  22.425  0.1179E+01  0.2205E+02
  22.435  0.1175E+01  0.2207E+02
  22.445  0.1172E+01  0.2208E+02
  22.455  0.1168E+01  0.2209E+02
  22.465  0.1164E+01  0.2210E+02
  22.475  0.1160E+01  0.2211E+02
  22.485  0.1156E+01  0.2212E+02
  22.495  0.1152E+01  0.2214E+02
  22.505  0.1149E+01  0.2215E+02
  22.515  0.1145E+01  0.2216E+02
  22.525  0.1141E+01  0.2217E+02
  22.535  0.1137E+01  0.2218E+02
  22.545  0.1133E+01  0.2219E+02
  22.555  0.1130E+01  0.2220E+02
  22.565  0.1126E+01  0.2222E+02
  22.575  0.1122E+01  0.2223E+02
  22.585  0.1119E+01  0.2224E+02
  22.595  0.1115E+01  0.2225E+02
  22.605  0.1111E+01  0.2226E+02
  22.615  0.1108E+01  0.2227E+02
  22.625  0.1104E+01  0.2228E+02
  22.635  0.1101E+01  0.2229E+02
  22.645  0.1097E+01  0.2230E+02
  22.655  0.1094E+01  0.2232E+02
  22.665  0.1090E+01  0.2233E+02
  22.675  0.1087E+01  0.2234E+02
  22.685  0.1084E+01  0.2235E+02
  22.695  0.1080E+01  0.2236E+02
  22.705  0.1077E+01  0.2237E+02
  22.715  0.1074E+01  0.2238E+02
  22.725  0.1071E+01  0.2239E+02
  22.735  0.1068E+01  0.2240E+02
  22.745  0.1065E+01  0.2241E+02
  22.755  0.1062E+01  0.2242E+02
  22.765  0.1059E+01  0.2243E+02
  22.775  0.1056E+01  0.2244E+02
  22.785  0.1053E+01  0.2245E+02
  22.795  0.1050E+01  0.2247E+02
  22.805  0.1047E+01  0.2248E+02
  22.815  0.1044E+01  0.2249E+02
  22.825  0.1042E+01  0.2250E+02
  22.835  0.1039E+01  0.2251E+02
  22.845  0.1037E+01  0.2252E+02
  22.855  0.1034E+01  0.2253E+02
  22.865  0.1031E+01  0.2254E+02
  22.875  0.1029E+01  0.2255E+02
  22.885  0.1027E+01  0.2256E+02
  22.895  0.1024E+01  0.2257E+02
  22.905  0.1022E+01  0.2258E+02
  22.915  0.1019E+01  0.2259E+02
  22.925  0.1017E+01  0.2260E+02
  22.935  0.1015E+01  0.2261E+02
  22.945  0.1013E+01  0.2262E+02
  22.955  0.1011E+01  0.2263E+02
  22.965  0.1008E+01  0.2264E+02
  22.975  0.1006E+01  0.2265E+02
  22.985  0.1004E+01  0.2266E+02
  22.995  0.1002E+01  0.2267E+02
  23.005  0.1000E+01  0.2268E+02
  23.015  0.9981E+00  0.2269E+02
  23.025  0.9962E+00  0.2270E+02
  23.035  0.9942E+00  0.2271E+02
  23.045  0.9923E+00  0.2272E+02
  23.055  0.9905E+00  0.2273E+02
  23.065  0.9886E+00  0.2274E+02
  23.075  0.9868E+00  0.2275E+02
  23.085  0.9850E+00  0.2276E+02
  23.095  0.9832E+00  0.2277E+02
  23.105  0.9815E+00  0.2278E+02
  23.115  0.9797E+00  0.2279E+02
  23.125  0.9781E+00  0.2280E+02
  23.135  0.9764E+00  0.2281E+02
  23.145  0.9748E+00  0.2282E+02
  23.155  0.9732E+00  0.2283E+02
  23.165  0.9716E+00  0.2284E+02
  23.175  0.9701E+00  0.2285E+02
  23.185  0.9686E+00  0.2286E+02
  23.195  0.9671E+00  0.2287E+02
  23.205  0.9657E+00  0.2288E+02
  23.215  0.9643E+00  0.2289E+02
  23.225  0.9630E+00  0.2290E+02
  23.235  0.9617E+00  0.2291E+02
  23.245  0.9604E+00  0.2291E+02
  23.255  0.9592E+00  0.2292E+02
  23.265  0.9581E+00  0.2293E+02
  23.275  0.9570E+00  0.2294E+02
  23.285  0.9559E+00  0.2295E+02
  23.295  0.9550E+00  0.2296E+02
  23.305  0.9541E+00  0.2297E+02
  23.315  0.9532E+00  0.2298E+02
  23.325  0.9524E+00  0.2299E+02
  23.335  0.9517E+00  0.2300E+02
  23.345  0.9511E+00  0.2301E+02
  23.355  0.9505E+00  0.2302E+02
  23.365  0.9501E+00  0.2303E+02
  23.375  0.9497E+00  0.2304E+02
  23.385  0.9494E+00  0.2305E+02
  23.395  0.9492E+00  0.2306E+02
  23.405  0.9490E+00  0.2307E+02
  23.415  0.9490E+00  0.2308E+02
  23.425  0.9491E+00  0.2309E+02
  23.435  0.9493E+00  0.2310E+02
  23.445  0.9496E+00  0.2311E+02
  23.455  0.9500E+00  0.2311E+02
  23.465  0.9505E+00  0.2312E+02
  23.475  0.9511E+00  0.2313E+02
  23.485  0.9518E+00  0.2314E+02
  23.495  0.9527E+00  0.2315E+02
  23.505  0.9537E+00  0.2316E+02
  23.515  0.9548E+00  0.2317E+02
  23.525  0.9560E+00  0.2318E+02
  23.535  0.9573E+00  0.2319E+02
  23.545  0.9588E+00  0.2320E+02
  23.555  0.9604E+00  0.2321E+02
  23.565  0.9621E+00  0.2322E+02
  23.575  0.9639E+00  0.2323E+02
  23.585  0.9659E+00  0.2324E+02
  23.595  0.9680E+00  0.2325E+02
  23.605  0.9702E+00  0.2326E+02
  23.615  0.9726E+00  0.2327E+02
  23.625  0.9750E+00  0.2328E+02
  23.635  0.9776E+00  0.2329E+02
  23.645  0.9803E+00  0.2330E+02
  23.655  0.9831E+00  0.2331E+02
  23.665  0.9861E+00  0.2332E+02
  23.675  0.9891E+00  0.2333E+02
  23.685  0.9923E+00  0.2334E+02
  23.695  0.9955E+00  0.2335E+02
  23.705  0.9989E+00  0.2336E+02
  23.715  0.1002E+01  0.2337E+02
  23.725  0.1006E+01  0.2338E+02
  23.735  0.1009E+01  0.2339E+02
  23.745  0.1013E+01  0.2340E+02
  23.755  0.1017E+01  0.2341E+02
  23.765  0.1021E+01  0.2342E+02
  23.775  0.1025E+01  0.2343E+02
  23.785  0.1029E+01  0.2344E+02
  23.795  0.1032E+01  0.2345E+02
  23.805  0.1036E+01  0.2346E+02
  23.815  0.1041E+01  0.2347E+02
  23.825  0.1045E+01  0.2348E+02
  23.835  0.1049E+01  0.2349E+02
  23.845  0.1053E+01  0.2350E+02
  23.855  0.1057E+01  0.2351E+02
  23.865  0.1061E+01  0.2352E+02
  23.875  0.1065E+01  0.2353E+02
  23.885  0.1069E+01  0.2354E+02
  23.895  0.1073E+01  0.2355E+02
  23.905  0.1077E+01  0.2356E+02
  23.915  0.1081E+01  0.2358E+02
  23.925  0.1084E+01  0.2359E+02
  23.935  0.1088E+01  0.2360E+02
  23.945  0.1092E+01  0.2361E+02
  23.955  0.1095E+01  0.2362E+02
  23.965  0.1098E+01  0.2363E+02
  23.975  0.1102E+01  0.2364E+02
  23.985  0.1105E+01  0.2365E+02
  23.995  0.1108E+01  0.2366E+02
  24.005  0.1110E+01  0.2367E+02
  24.015  0.1113E+01  0.2369E+02
  24.025  0.1116E+01  0.2370E+02
  24.035  0.1118E+01  0.2371E+02
  24.045  0.1120E+01  0.2372E+02
  24.055  0.1122E+01  0.2373E+02
  24.065  0.1123E+01  0.2374E+02
  24.075  0.1125E+01  0.2375E+02
  24.085  0.1126E+01  0.2376E+02
  24.095  0.1127E+01  0.2378E+02
  24.105  0.1128E+01  0.2379E+02
  24.115  0.1128E+01  0.2380E+02
  24.125  0.1129E+01  0.2381E+02
  24.135  0.1129E+01  0.2382E+02
  24.145  0.1128E+01  0.2383E+02
  24.155  0.1128E+01  0.2384E+02
  24.165  0.1127E+01  0.2385E+02
  24.175  0.1126E+01  0.2387E+02
  24.185  0.1125E+01  0.2388E+02
  24.195  0.1123E+01  0.2389E+02
  24.205  0.1121E+01  0.2390E+02
  24.215  0.1119E+01  0.2391E+02
  24.225  0.1116E+01  0.2392E+02
  24.235  0.1113E+01  0.2393E+02
  24.245  0.1110E+01  0.2394E+02
  24.255  0.1106E+01  0.2395E+02
  24.265  0.1102E+01  0.2397E+02
  24.275  0.1098E+01  0.2398E+02
  24.285  0.1094E+01  0.2399E+02
  24.295  0.1089E+01  0.2400E+02
  24.305  0.1084E+01  0.2401E+02
  24.315  0.1079E+01  0.2402E+02
  24.325  0.1073E+01  0.2403E+02
  24.335  0.1067E+01  0.2404E+02
  24.345  0.1061E+01  0.2405E+02
  24.355  0.1054E+01  0.2406E+02
  24.365  0.1048E+01  0.2407E+02
  24.375  0.1040E+01  0.2408E+02
  24.385  0.1033E+01  0.2409E+02
  24.395  0.1025E+01  0.2410E+02
  24.405  0.1018E+01  0.2411E+02
  24.415  0.1009E+01  0.2412E+02
  24.425  0.1001E+01  0.2413E+02
  24.435  0.9924E+00  0.2414E+02
  24.445  0.9835E+00  0.2415E+02
  24.455  0.9744E+00  0.2416E+02
  24.465  0.9651E+00  0.2417E+02
  24.475  0.9555E+00  0.2418E+02
  24.485  0.9458E+00  0.2419E+02
  24.495  0.9359E+00  0.2420E+02
  24.505  0.9258E+00  0.2421E+02
  24.515  0.9156E+00  0.2422E+02
  24.525  0.9052E+00  0.2423E+02
  24.535  0.8946E+00  0.2424E+02
  24.545  0.8840E+00  0.2425E+02
  24.555  0.8732E+00  0.2426E+02
  24.565  0.8622E+00  0.2426E+02
  24.575  0.8512E+00  0.2427E+02
  24.585  0.8401E+00  0.2428E+02
  24.595  0.8289E+00  0.2429E+02
  24.605  0.8177E+00  0.2430E+02
  24.615  0.8064E+00  0.2431E+02
  24.625  0.7951E+00  0.2431E+02
  24.635  0.7837E+00  0.2432E+02
  24.645  0.7723E+00  0.2433E+02
  24.655  0.7609E+00  0.2434E+02
  24.665  0.7495E+00  0.2434E+02
  24.675  0.7381E+00  0.2435E+02
  24.685  0.7268E+00  0.2436E+02
  24.695  0.7155E+00  0.2437E+02
  24.705  0.7043E+00  0.2437E+02
  24.715  0.6931E+00  0.2438E+02
  24.725  0.6820E+00  0.2439E+02
  24.735  0.6710E+00  0.2439E+02
  24.745  0.6600E+00  0.2440E+02
  24.755  0.6492E+00  0.2441E+02
  24.765  0.6385E+00  0.2441E+02
  24.775  0.6279E+00  0.2442E+02
  24.785  0.6175E+00  0.2443E+02
  24.795  0.6072E+00  0.2443E+02
  24.805  0.5971E+00  0.2444E+02
  24.815  0.5871E+00  0.2444E+02
  24.825  0.5773E+00  0.2445E+02
  24.835  0.5677E+00  0.2446E+02
  24.845  0.5583E+00  0.2446E+02
  24.855  0.5490E+00  0.2447E+02
  24.865  0.5400E+00  0.2447E+02
  24.875  0.5312E+00  0.2448E+02
  24.885  0.5226E+00  0.2448E+02
  24.895  0.5142E+00  0.2449E+02
  24.905  0.5061E+00  0.2449E+02
  24.915  0.4982E+00  0.2450E+02
  24.925  0.4905E+00  0.2450E+02
  24.935  0.4831E+00  0.2451E+02
  24.945  0.4760E+00  0.2451E+02
  24.955  0.4691E+00  0.2452E+02
  24.965  0.4624E+00  0.2452E+02
  24.975  0.4560E+00  0.2453E+02
  24.985  0.4499E+00  0.2453E+02
  24.995  0.4441E+00  0.2453E+02
  25.005  0.4385E+00  0.2454E+02
  25.015  0.4332E+00  0.2454E+02
  25.025  0.4281E+00  0.2455E+02
  25.035  0.4234E+00  0.2455E+02
  25.045  0.4189E+00  0.2456E+02
  25.055  0.4147E+00  0.2456E+02
  25.065  0.4108E+00  0.2456E+02
  25.075  0.4071E+00  0.2457E+02
  25.085  0.4037E+00  0.2457E+02
  25.095  0.4006E+00  0.2458E+02
  25.105  0.3978E+00  0.2458E+02
  25.115  0.3953E+00  0.2458E+02
  25.125  0.3930E+00  0.2459E+02
  25.135  0.3910E+00  0.2459E+02
  25.145  0.3892E+00  0.2460E+02
  25.155  0.3877E+00  0.2460E+02
  25.165  0.3865E+00  0.2460E+02
  25.175  0.3856E+00  0.2461E+02
  25.185  0.3848E+00  0.2461E+02
  25.195  0.3844E+00  0.2462E+02
  25.205  0.3842E+00  0.2462E+02
  25.215  0.3842E+00  0.2462E+02
  25.225  0.3845E+00  0.2463E+02
  25.235  0.3850E+00  0.2463E+02
  25.245  0.3857E+00  0.2463E+02
  25.255  0.3866E+00  0.2464E+02
  25.265  0.3878E+00  0.2464E+02
  25.275  0.3892E+00  0.2465E+02
  25.285  0.3907E+00  0.2465E+02
  25.295  0.3925E+00  0.2465E+02
