#  E (eV)   dos(E)     Int dos(E) EFermi =  17.786 eV
  -9.642  0.7701E-06  0.7701E-08
  -9.632  0.8438E-06  0.1614E-07
  -9.622  0.9241E-06  0.2538E-07
  -9.612  0.1012E-05  0.3550E-07
  -9.602  0.1107E-05  0.4657E-07
  -9.592  0.1211E-05  0.5868E-07
  -9.582  0.1324E-05  0.7192E-07
  -9.572  0.1448E-05  0.8640E-07
  -9.562  0.1582E-05  0.1022E-06
  -9.552  0.1728E-05  0.1195E-06
  -9.542  0.1886E-05  0.1384E-06
  -9.532  0.2059E-05  0.1589E-06
  -9.522  0.2246E-05  0.1814E-06
  -9.512  0.2449E-05  0.2059E-06
  -9.502  0.2670E-05  0.2326E-06
  -9.492  0.2909E-05  0.2617E-06
  -9.482  0.3169E-05  0.2934E-06
  -9.472  0.3451E-05  0.3279E-06
  -9.462  0.3756E-05  0.3654E-06
  -9.452  0.4086E-05  0.4063E-06
  -9.442  0.4444E-05  0.4507E-06
  -9.432  0.4832E-05  0.4990E-06
  -9.422  0.5251E-05  0.5516E-06
  -9.412  0.5704E-05  0.6086E-06
  -9.402  0.6195E-05  0.6705E-06
  -9.392  0.6725E-05  0.7378E-06
  -9.382  0.7297E-05  0.8108E-06
  -9.372  0.7915E-05  0.8899E-06
  -9.362  0.8582E-05  0.9757E-06
  -9.352  0.9302E-05  0.1069E-05
  -9.342  0.1008E-04  0.1170E-05
  -9.332  0.1092E-04  0.1279E-05
  -9.322  0.1182E-04  0.1397E-05
  -9.312  0.1279E-04  0.1525E-05
  -9.302  0.1384E-04  0.1663E-05
  -9.292  0.1496E-04  0.1813E-05
  -9.282  0.1618E-04  0.1975E-05
  -9.272  0.1748E-04  0.2149E-05
  -9.262  0.1888E-04  0.2338E-05
  -9.252  0.2039E-04  0.2542E-05
  -9.242  0.2201E-04  0.2762E-05
  -9.232  0.2375E-04  0.3000E-05
  -9.222  0.2562E-04  0.3256E-05
  -9.212  0.2762E-04  0.3532E-05
  -9.202  0.2977E-04  0.3830E-05
  -9.192  0.3207E-04  0.4150E-05
  -9.182  0.3454E-04  0.4496E-05
  -9.172  0.3719E-04  0.4868E-05
  -9.162  0.4002E-04  0.5268E-05
  -9.152  0.4306E-04  0.5698E-05
  -9.142  0.4631E-04  0.6162E-05
  -9.132  0.4978E-04  0.6659E-05
  -9.122  0.5349E-04  0.7194E-05
  -9.112  0.5747E-04  0.7769E-05
  -9.102  0.6171E-04  0.8386E-05
  -9.092  0.6624E-04  0.9048E-05
  -9.082  0.7108E-04  0.9759E-05
  -9.072  0.7625E-04  0.1052E-04
  -9.062  0.8176E-04  0.1134E-04
  -9.052  0.8764E-04  0.1222E-04
  -9.042  0.9391E-04  0.1315E-04
  -9.032  0.1006E-03  0.1416E-04
  -9.022  0.1077E-03  0.1524E-04
  -9.012  0.1153E-03  0.1639E-04
  -9.002  0.1233E-03  0.1762E-04
  -8.992  0.1319E-03  0.1894E-04
  -8.982  0.1411E-03  0.2035E-04
  -8.972  0.1508E-03  0.2186E-04
  -8.962  0.1611E-03  0.2347E-04
  -8.952  0.1720E-03  0.2519E-04
  -8.942  0.1837E-03  0.2703E-04
  -8.932  0.1960E-03  0.2899E-04
  -8.922  0.2091E-03  0.3108E-04
  -8.912  0.2231E-03  0.3331E-04
  -8.902  0.2378E-03  0.3569E-04
  -8.892  0.2535E-03  0.3822E-04
  -8.882  0.2700E-03  0.4092E-04
  -8.872  0.2876E-03  0.4380E-04
  -8.862  0.3062E-03  0.4686E-04
  -8.852  0.3258E-03  0.5012E-04
  -8.842  0.3467E-03  0.5359E-04
  -8.832  0.3687E-03  0.5727E-04
  -8.822  0.3920E-03  0.6119E-04
  -8.812  0.4166E-03  0.6536E-04
  -8.802  0.4426E-03  0.6978E-04
  -8.792  0.4700E-03  0.7448E-04
  -8.782  0.4990E-03  0.7947E-04
  -8.772  0.5296E-03  0.8477E-04
  -8.762  0.5618E-03  0.9039E-04
  -8.752  0.5958E-03  0.9635E-04
  -8.742  0.6317E-03  0.1027E-03
  -8.732  0.6695E-03  0.1094E-03
  -8.722  0.7093E-03  0.1165E-03
  -8.712  0.7512E-03  0.1240E-03
  -8.702  0.7953E-03  0.1319E-03
  -8.692  0.8417E-03  0.1403E-03
  -8.682  0.8905E-03  0.1492E-03
  -8.672  0.9418E-03  0.1587E-03
  -8.662  0.9957E-03  0.1686E-03
  -8.652  0.1052E-02  0.1791E-03
  -8.642  0.1112E-02  0.1903E-03
  -8.632  0.1174E-02  0.2020E-03
  -8.622  0.1240E-02  0.2144E-03
  -8.612  0.1309E-02  0.2275E-03
  -8.602  0.1381E-02  0.2413E-03
  -8.592  0.1456E-02  0.2559E-03
  -8.582  0.1536E-02  0.2712E-03
  -8.572  0.1619E-02  0.2874E-03
  -8.562  0.1705E-02  0.3045E-03
  -8.552  0.1796E-02  0.3224E-03
  -8.542  0.1892E-02  0.3413E-03
  -8.532  0.1991E-02  0.3612E-03
  -8.522  0.2095E-02  0.3822E-03
  -8.512  0.2204E-02  0.4042E-03
  -8.502  0.2318E-02  0.4274E-03
  -8.492  0.2436E-02  0.4518E-03
  -8.482  0.2560E-02  0.4774E-03
  -8.472  0.2689E-02  0.5043E-03
  -8.462  0.2824E-02  0.5325E-03
  -8.452  0.2965E-02  0.5622E-03
  -8.442  0.3112E-02  0.5933E-03
  -8.432  0.3264E-02  0.6259E-03
  -8.422  0.3423E-02  0.6602E-03
  -8.412  0.3589E-02  0.6960E-03
  -8.402  0.3762E-02  0.7337E-03
  -8.392  0.3941E-02  0.7731E-03
  -8.382  0.4128E-02  0.8144E-03
  -8.372  0.4322E-02  0.8576E-03
  -8.362  0.4524E-02  0.9028E-03
  -8.352  0.4734E-02  0.9502E-03
  -8.342  0.4951E-02  0.9997E-03
  -8.332  0.5178E-02  0.1051E-02
  -8.322  0.5412E-02  0.1106E-02
  -8.312  0.5656E-02  0.1162E-02
  -8.302  0.5908E-02  0.1221E-02
  -8.292  0.6170E-02  0.1283E-02
  -8.282  0.6441E-02  0.1347E-02
  -8.272  0.6722E-02  0.1415E-02
  -8.262  0.7013E-02  0.1485E-02
  -8.252  0.7314E-02  0.1558E-02
  -8.242  0.7626E-02  0.1634E-02
  -8.232  0.7948E-02  0.1714E-02
  -8.222  0.8282E-02  0.1796E-02
  -8.212  0.8626E-02  0.1883E-02
  -8.202  0.8982E-02  0.1972E-02
  -8.192  0.9350E-02  0.2066E-02
  -8.182  0.9729E-02  0.2163E-02
  -8.172  0.1012E-01  0.2264E-02
  -8.162  0.1053E-01  0.2370E-02
  -8.152  0.1094E-01  0.2479E-02
  -8.142  0.1137E-01  0.2593E-02
  -8.132  0.1182E-01  0.2711E-02
  -8.122  0.1227E-01  0.2834E-02
  -8.112  0.1274E-01  0.2961E-02
  -8.102  0.1322E-01  0.3093E-02
  -8.092  0.1372E-01  0.3231E-02
  -8.082  0.1423E-01  0.3373E-02
  -8.072  0.1476E-01  0.3521E-02
  -8.062  0.1530E-01  0.3674E-02
  -8.052  0.1586E-01  0.3832E-02
  -8.042  0.1643E-01  0.3996E-02
  -8.032  0.1701E-01  0.4167E-02
  -8.022  0.1762E-01  0.4343E-02
  -8.012  0.1823E-01  0.4525E-02
  -8.002  0.1887E-01  0.4714E-02
  -7.992  0.1951E-01  0.4909E-02
  -7.982  0.2018E-01  0.5111E-02
  -7.972  0.2086E-01  0.5319E-02
  -7.962  0.2156E-01  0.5535E-02
  -7.952  0.2227E-01  0.5757E-02
  -7.942  0.2300E-01  0.5987E-02
  -7.932  0.2375E-01  0.6225E-02
  -7.922  0.2451E-01  0.6470E-02
  -7.912  0.2529E-01  0.6723E-02
  -7.902  0.2609E-01  0.6984E-02
  -7.892  0.2690E-01  0.7253E-02
  -7.882  0.2773E-01  0.7530E-02
  -7.872  0.2858E-01  0.7816E-02
  -7.862  0.2944E-01  0.8110E-02
  -7.852  0.3032E-01  0.8413E-02
  -7.842  0.3122E-01  0.8726E-02
  -7.832  0.3214E-01  0.9047E-02
  -7.822  0.3307E-01  0.9378E-02
  -7.812  0.3402E-01  0.9718E-02
  -7.802  0.3498E-01  0.1007E-01
  -7.792  0.3596E-01  0.1043E-01
  -7.782  0.3696E-01  0.1080E-01
  -7.772  0.3798E-01  0.1118E-01
  -7.762  0.3901E-01  0.1157E-01
  -7.752  0.4005E-01  0.1197E-01
  -7.742  0.4112E-01  0.1238E-01
  -7.732  0.4220E-01  0.1280E-01
  -7.722  0.4329E-01  0.1323E-01
  -7.712  0.4440E-01  0.1368E-01
  -7.702  0.4552E-01  0.1413E-01
  -7.692  0.4666E-01  0.1460E-01
  -7.682  0.4782E-01  0.1508E-01
  -7.672  0.4899E-01  0.1557E-01
  -7.662  0.5017E-01  0.1607E-01
  -7.652  0.5137E-01  0.1658E-01
  -7.642  0.5257E-01  0.1711E-01
  -7.632  0.5380E-01  0.1765E-01
  -7.622  0.5503E-01  0.1820E-01
  -7.612  0.5628E-01  0.1876E-01
  -7.602  0.5754E-01  0.1933E-01
  -7.592  0.5881E-01  0.1992E-01
  -7.582  0.6009E-01  0.2052E-01
  -7.572  0.6139E-01  0.2114E-01
  -7.562  0.6269E-01  0.2176E-01
  -7.552  0.6400E-01  0.2240E-01
  -7.542  0.6533E-01  0.2306E-01
  -7.532  0.6666E-01  0.2372E-01
  -7.522  0.6800E-01  0.2440E-01
  -7.512  0.6935E-01  0.2510E-01
  -7.502  0.7070E-01  0.2580E-01
  -7.492  0.7206E-01  0.2653E-01
  -7.482  0.7343E-01  0.2726E-01
  -7.472  0.7481E-01  0.2801E-01
  -7.462  0.7619E-01  0.2877E-01
  -7.452  0.7758E-01  0.2955E-01
  -7.442  0.7897E-01  0.3034E-01
  -7.432  0.8037E-01  0.3114E-01
  -7.422  0.8176E-01  0.3196E-01
  -7.412  0.8317E-01  0.3279E-01
  -7.402  0.8457E-01  0.3363E-01
  -7.392  0.8598E-01  0.3449E-01
  -7.382  0.8739E-01  0.3537E-01
  -7.372  0.8880E-01  0.3626E-01
  -7.362  0.9021E-01  0.3716E-01
  -7.352  0.9162E-01  0.3807E-01
  -7.342  0.9303E-01  0.3900E-01
  -7.332  0.9443E-01  0.3995E-01
  -7.322  0.9584E-01  0.4091E-01
  -7.312  0.9725E-01  0.4188E-01
  -7.302  0.9865E-01  0.4287E-01
  -7.292  0.1001E+00  0.4387E-01
  -7.282  0.1015E+00  0.4488E-01
  -7.272  0.1028E+00  0.4591E-01
  -7.262  0.1042E+00  0.4695E-01
  -7.252  0.1056E+00  0.4801E-01
  -7.242  0.1070E+00  0.4908E-01
  -7.232  0.1084E+00  0.5016E-01
  -7.222  0.1098E+00  0.5126E-01
  -7.212  0.1111E+00  0.5237E-01
  -7.202  0.1125E+00  0.5350E-01
  -7.192  0.1138E+00  0.5463E-01
  -7.182  0.1152E+00  0.5579E-01
  -7.172  0.1165E+00  0.5695E-01
  -7.162  0.1179E+00  0.5813E-01
  -7.152  0.1192E+00  0.5932E-01
  -7.142  0.1205E+00  0.6053E-01
  -7.132  0.1218E+00  0.6175E-01
  -7.122  0.1231E+00  0.6298E-01
  -7.112  0.1245E+00  0.6422E-01
  -7.102  0.1257E+00  0.6548E-01
  -7.092  0.1270E+00  0.6675E-01
  -7.082  0.1283E+00  0.6803E-01
  -7.072  0.1296E+00  0.6933E-01
  -7.062  0.1309E+00  0.7064E-01
  -7.052  0.1321E+00  0.7196E-01
  -7.042  0.1334E+00  0.7329E-01
  -7.032  0.1346E+00  0.7464E-01
  -7.022  0.1359E+00  0.7600E-01
  -7.012  0.1371E+00  0.7737E-01
  -7.002  0.1383E+00  0.7875E-01
  -6.992  0.1395E+00  0.8015E-01
  -6.982  0.1408E+00  0.8155E-01
  -6.972  0.1420E+00  0.8297E-01
  -6.962  0.1432E+00  0.8440E-01
  -6.952  0.1444E+00  0.8585E-01
  -6.942  0.1456E+00  0.8730E-01
  -6.932  0.1468E+00  0.8877E-01
  -6.922  0.1479E+00  0.9025E-01
  -6.912  0.1491E+00  0.9174E-01
  -6.902  0.1503E+00  0.9325E-01
  -6.892  0.1515E+00  0.9476E-01
  -6.882  0.1527E+00  0.9629E-01
  -6.872  0.1539E+00  0.9783E-01
  -6.862  0.1550E+00  0.9938E-01
  -6.852  0.1562E+00  0.1009E+00
  -6.842  0.1574E+00  0.1025E+00
  -6.832  0.1586E+00  0.1041E+00
  -6.822  0.1598E+00  0.1057E+00
  -6.812  0.1609E+00  0.1073E+00
  -6.802  0.1621E+00  0.1089E+00
  -6.792  0.1633E+00  0.1106E+00
  -6.782  0.1645E+00  0.1122E+00
  -6.772  0.1657E+00  0.1139E+00
  -6.762  0.1669E+00  0.1155E+00
  -6.752  0.1681E+00  0.1172E+00
  -6.742  0.1693E+00  0.1189E+00
  -6.732  0.1705E+00  0.1206E+00
  -6.722  0.1717E+00  0.1223E+00
  -6.712  0.1730E+00  0.1241E+00
  -6.702  0.1742E+00  0.1258E+00
  -6.692  0.1754E+00  0.1276E+00
  -6.682  0.1767E+00  0.1293E+00
  -6.672  0.1779E+00  0.1311E+00
  -6.662  0.1792E+00  0.1329E+00
  -6.652  0.1805E+00  0.1347E+00
  -6.642  0.1818E+00  0.1365E+00
  -6.632  0.1830E+00  0.1383E+00
  -6.622  0.1843E+00  0.1402E+00
  -6.612  0.1857E+00  0.1420E+00
  -6.602  0.1870E+00  0.1439E+00
  -6.592  0.1883E+00  0.1458E+00
  -6.582  0.1896E+00  0.1477E+00
  -6.572  0.1910E+00  0.1496E+00
  -6.562  0.1924E+00  0.1515E+00
  -6.552  0.1937E+00  0.1535E+00
  -6.542  0.1951E+00  0.1554E+00
  -6.532  0.1965E+00  0.1574E+00
  -6.522  0.1979E+00  0.1594E+00
  -6.512  0.1993E+00  0.1614E+00
  -6.502  0.2007E+00  0.1634E+00
  -6.492  0.2022E+00  0.1654E+00
  -6.482  0.2036E+00  0.1674E+00
  -6.472  0.2050E+00  0.1695E+00
  -6.462  0.2065E+00  0.1715E+00
  -6.452  0.2080E+00  0.1736E+00
  -6.442  0.2094E+00  0.1757E+00
  -6.432  0.2109E+00  0.1778E+00
  -6.422  0.2124E+00  0.1799E+00
  -6.412  0.2139E+00  0.1821E+00
  -6.402  0.2153E+00  0.1842E+00
  -6.392  0.2168E+00  0.1864E+00
  -6.382  0.2183E+00  0.1886E+00
  -6.372  0.2198E+00  0.1908E+00
  -6.362  0.2213E+00  0.1930E+00
  -6.352  0.2228E+00  0.1952E+00
  -6.342  0.2243E+00  0.1975E+00
  -6.332  0.2258E+00  0.1997E+00
  -6.322  0.2273E+00  0.2020E+00
  -6.312  0.2288E+00  0.2043E+00
  -6.302  0.2303E+00  0.2066E+00
  -6.292  0.2318E+00  0.2089E+00
  -6.282  0.2332E+00  0.2112E+00
  -6.272  0.2347E+00  0.2136E+00
  -6.262  0.2361E+00  0.2159E+00
  -6.252  0.2376E+00  0.2183E+00
  -6.242  0.2390E+00  0.2207E+00
  -6.232  0.2404E+00  0.2231E+00
  -6.222  0.2419E+00  0.2255E+00
  -6.212  0.2432E+00  0.2280E+00
  -6.202  0.2446E+00  0.2304E+00
  -6.192  0.2460E+00  0.2329E+00
  -6.182  0.2473E+00  0.2353E+00
  -6.172  0.2486E+00  0.2378E+00
  -6.162  0.2499E+00  0.2403E+00
  -6.152  0.2512E+00  0.2428E+00
  -6.142  0.2525E+00  0.2454E+00
  -6.132  0.2537E+00  0.2479E+00
  -6.122  0.2549E+00  0.2505E+00
  -6.112  0.2561E+00  0.2530E+00
  -6.102  0.2573E+00  0.2556E+00
  -6.092  0.2584E+00  0.2582E+00
  -6.082  0.2595E+00  0.2608E+00
  -6.072  0.2605E+00  0.2634E+00
  -6.062  0.2616E+00  0.2660E+00
  -6.052  0.2626E+00  0.2686E+00
  -6.042  0.2635E+00  0.2712E+00
  -6.032  0.2645E+00  0.2739E+00
  -6.022  0.2654E+00  0.2765E+00
  -6.012  0.2662E+00  0.2792E+00
  -6.002  0.2671E+00  0.2819E+00
  -5.992  0.2679E+00  0.2846E+00
  -5.982  0.2686E+00  0.2872E+00
  -5.972  0.2693E+00  0.2899E+00
  -5.962  0.2700E+00  0.2926E+00
  -5.952  0.2707E+00  0.2953E+00
  -5.942  0.2713E+00  0.2981E+00
  -5.932  0.2718E+00  0.3008E+00
  -5.922  0.2724E+00  0.3035E+00
  -5.912  0.2729E+00  0.3062E+00
  -5.902  0.2733E+00  0.3090E+00
  -5.892  0.2737E+00  0.3117E+00
  -5.882  0.2741E+00  0.3144E+00
  -5.872  0.2745E+00  0.3172E+00
  -5.862  0.2748E+00  0.3199E+00
  -5.852  0.2751E+00  0.3227E+00
  -5.842  0.2753E+00  0.3254E+00
  -5.832  0.2755E+00  0.3282E+00
  -5.822  0.2757E+00  0.3309E+00
  -5.812  0.2758E+00  0.3337E+00
  -5.802  0.2759E+00  0.3365E+00
  -5.792  0.2759E+00  0.3392E+00
  -5.782  0.2760E+00  0.3420E+00
  -5.772  0.2760E+00  0.3447E+00
  -5.762  0.2760E+00  0.3475E+00
  -5.752  0.2759E+00  0.3503E+00
  -5.742  0.2758E+00  0.3530E+00
  -5.732  0.2757E+00  0.3558E+00
  -5.722  0.2756E+00  0.3585E+00
  -5.712  0.2755E+00  0.3613E+00
  -5.702  0.2753E+00  0.3640E+00
  -5.692  0.2751E+00  0.3668E+00
  -5.682  0.2749E+00  0.3695E+00
  -5.672  0.2747E+00  0.3723E+00
  -5.662  0.2744E+00  0.3750E+00
  -5.652  0.2742E+00  0.3778E+00
  -5.642  0.2739E+00  0.3805E+00
  -5.632  0.2737E+00  0.3833E+00
  -5.622  0.2734E+00  0.3860E+00
  -5.612  0.2731E+00  0.3887E+00
  -5.602  0.2728E+00  0.3914E+00
  -5.592  0.2726E+00  0.3942E+00
  -5.582  0.2723E+00  0.3969E+00
  -5.572  0.2720E+00  0.3996E+00
  -5.562  0.2717E+00  0.4023E+00
  -5.552  0.2714E+00  0.4050E+00
  -5.542  0.2712E+00  0.4078E+00
  -5.532  0.2709E+00  0.4105E+00
  -5.522  0.2707E+00  0.4132E+00
  -5.512  0.2705E+00  0.4159E+00
  -5.502  0.2703E+00  0.4186E+00
  -5.492  0.2701E+00  0.4213E+00
  -5.482  0.2699E+00  0.4240E+00
  -5.472  0.2698E+00  0.4267E+00
  -5.462  0.2696E+00  0.4294E+00
  -5.452  0.2695E+00  0.4321E+00
  -5.442  0.2695E+00  0.4348E+00
  -5.432  0.2694E+00  0.4375E+00
  -5.422  0.2694E+00  0.4402E+00
  -5.412  0.2694E+00  0.4428E+00
  -5.402  0.2695E+00  0.4455E+00
  -5.392  0.2696E+00  0.4482E+00
  -5.382  0.2697E+00  0.4509E+00
  -5.372  0.2699E+00  0.4536E+00
  -5.362  0.2701E+00  0.4563E+00
  -5.352  0.2703E+00  0.4590E+00
  -5.342  0.2706E+00  0.4617E+00
  -5.332  0.2709E+00  0.4645E+00
  -5.322  0.2713E+00  0.4672E+00
  -5.312  0.2717E+00  0.4699E+00
  -5.302  0.2721E+00  0.4726E+00
  -5.292  0.2726E+00  0.4753E+00
  -5.282  0.2732E+00  0.4781E+00
  -5.272  0.2738E+00  0.4808E+00
  -5.262  0.2744E+00  0.4835E+00
  -5.252  0.2751E+00  0.4863E+00
  -5.242  0.2758E+00  0.4891E+00
  -5.232  0.2766E+00  0.4918E+00
  -5.222  0.2774E+00  0.4946E+00
  -5.212  0.2783E+00  0.4974E+00
  -5.202  0.2792E+00  0.5002E+00
  -5.192  0.2802E+00  0.5030E+00
  -5.182  0.2812E+00  0.5058E+00
  -5.172  0.2823E+00  0.5086E+00
  -5.162  0.2834E+00  0.5114E+00
  -5.152  0.2845E+00  0.5143E+00
  -5.142  0.2857E+00  0.5171E+00
  -5.132  0.2870E+00  0.5200E+00
  -5.122  0.2883E+00  0.5229E+00
  -5.112  0.2896E+00  0.5258E+00
  -5.102  0.2910E+00  0.5287E+00
  -5.092  0.2924E+00  0.5316E+00
  -5.082  0.2938E+00  0.5346E+00
  -5.072  0.2953E+00  0.5375E+00
  -5.062  0.2968E+00  0.5405E+00
  -5.052  0.2984E+00  0.5435E+00
  -5.042  0.2999E+00  0.5465E+00
  -5.032  0.3016E+00  0.5495E+00
  -5.022  0.3032E+00  0.5525E+00
  -5.012  0.3049E+00  0.5556E+00
  -5.002  0.3066E+00  0.5586E+00
  -4.992  0.3083E+00  0.5617E+00
  -4.982  0.3101E+00  0.5648E+00
  -4.972  0.3119E+00  0.5679E+00
  -4.962  0.3136E+00  0.5711E+00
  -4.952  0.3155E+00  0.5742E+00
  -4.942  0.3173E+00  0.5774E+00
  -4.932  0.3191E+00  0.5806E+00
  -4.922  0.3210E+00  0.5838E+00
  -4.912  0.3229E+00  0.5870E+00
  -4.902  0.3247E+00  0.5903E+00
  -4.892  0.3266E+00  0.5935E+00
  -4.882  0.3285E+00  0.5968E+00
  -4.872  0.3304E+00  0.6001E+00
  -4.862  0.3323E+00  0.6035E+00
  -4.852  0.3341E+00  0.6068E+00
  -4.842  0.3360E+00  0.6102E+00
  -4.832  0.3379E+00  0.6135E+00
  -4.822  0.3398E+00  0.6169E+00
  -4.812  0.3416E+00  0.6203E+00
  -4.802  0.3435E+00  0.6238E+00
  -4.792  0.3453E+00  0.6272E+00
  -4.782  0.3471E+00  0.6307E+00
  -4.772  0.3489E+00  0.6342E+00
  -4.762  0.3507E+00  0.6377E+00
  -4.752  0.3524E+00  0.6412E+00
  -4.742  0.3542E+00  0.6448E+00
  -4.732  0.3559E+00  0.6483E+00
  -4.722  0.3576E+00  0.6519E+00
  -4.712  0.3592E+00  0.6555E+00
  -4.702  0.3608E+00  0.6591E+00
  -4.692  0.3624E+00  0.6627E+00
  -4.682  0.3640E+00  0.6664E+00
  -4.672  0.3655E+00  0.6700E+00
  -4.662  0.3670E+00  0.6737E+00
  -4.652  0.3685E+00  0.6774E+00
  -4.642  0.3699E+00  0.6811E+00
  -4.632  0.3713E+00  0.6848E+00
  -4.622  0.3726E+00  0.6885E+00
  -4.612  0.3739E+00  0.6923E+00
  -4.602  0.3752E+00  0.6960E+00
  -4.592  0.3764E+00  0.6998E+00
  -4.582  0.3776E+00  0.7035E+00
  -4.572  0.3787E+00  0.7073E+00
  -4.562  0.3798E+00  0.7111E+00
  -4.552  0.3809E+00  0.7149E+00
  -4.542  0.3819E+00  0.7188E+00
  -4.532  0.3828E+00  0.7226E+00
  -4.522  0.3838E+00  0.7264E+00
  -4.512  0.3846E+00  0.7303E+00
  -4.502  0.3855E+00  0.7341E+00
  -4.492  0.3862E+00  0.7380E+00
  -4.482  0.3870E+00  0.7419E+00
  -4.472  0.3877E+00  0.7457E+00
  -4.462  0.3883E+00  0.7496E+00
  -4.452  0.3889E+00  0.7535E+00
  -4.442  0.3895E+00  0.7574E+00
  -4.432  0.3900E+00  0.7613E+00
  -4.422  0.3905E+00  0.7652E+00
  -4.412  0.3909E+00  0.7691E+00
  -4.402  0.3913E+00  0.7730E+00
  -4.392  0.3917E+00  0.7769E+00
  -4.382  0.3920E+00  0.7809E+00
  -4.372  0.3923E+00  0.7848E+00
  -4.362  0.3925E+00  0.7887E+00
  -4.352  0.3927E+00  0.7926E+00
  -4.342  0.3929E+00  0.7966E+00
  -4.332  0.3930E+00  0.8005E+00
  -4.322  0.3931E+00  0.8044E+00
  -4.312  0.3932E+00  0.8084E+00
  -4.302  0.3932E+00  0.8123E+00
  -4.292  0.3932E+00  0.8162E+00
  -4.282  0.3932E+00  0.8202E+00
  -4.272  0.3932E+00  0.8241E+00
  -4.262  0.3931E+00  0.8280E+00
  -4.252  0.3930E+00  0.8319E+00
  -4.242  0.3929E+00  0.8359E+00
  -4.232  0.3928E+00  0.8398E+00
  -4.222  0.3926E+00  0.8437E+00
  -4.212  0.3924E+00  0.8477E+00
  -4.202  0.3923E+00  0.8516E+00
  -4.192  0.3921E+00  0.8555E+00
  -4.182  0.3919E+00  0.8594E+00
  -4.172  0.3916E+00  0.8633E+00
  -4.162  0.3914E+00  0.8672E+00
  -4.152  0.3912E+00  0.8712E+00
  -4.142  0.3910E+00  0.8751E+00
  -4.132  0.3907E+00  0.8790E+00
  -4.122  0.3905E+00  0.8829E+00
  -4.112  0.3903E+00  0.8868E+00
  -4.102  0.3900E+00  0.8907E+00
  -4.092  0.3898E+00  0.8946E+00
  -4.082  0.3896E+00  0.8985E+00
  -4.072  0.3893E+00  0.9024E+00
  -4.062  0.3891E+00  0.9063E+00
  -4.052  0.3889E+00  0.9102E+00
  -4.042  0.3888E+00  0.9140E+00
  -4.032  0.3886E+00  0.9179E+00
  -4.022  0.3884E+00  0.9218E+00
  -4.012  0.3883E+00  0.9257E+00
  -4.002  0.3881E+00  0.9296E+00
  -3.992  0.3880E+00  0.9335E+00
  -3.982  0.3879E+00  0.9373E+00
  -3.972  0.3879E+00  0.9412E+00
  -3.962  0.3878E+00  0.9451E+00
  -3.952  0.3878E+00  0.9490E+00
  -3.942  0.3878E+00  0.9528E+00
  -3.932  0.3878E+00  0.9567E+00
  -3.922  0.3878E+00  0.9606E+00
  -3.912  0.3879E+00  0.9645E+00
  -3.902  0.3880E+00  0.9684E+00
  -3.892  0.3881E+00  0.9722E+00
  -3.882  0.3883E+00  0.9761E+00
  -3.872  0.3885E+00  0.9800E+00
  -3.862  0.3887E+00  0.9839E+00
  -3.852  0.3889E+00  0.9878E+00
  -3.842  0.3891E+00  0.9917E+00
  -3.832  0.3894E+00  0.9956E+00
  -3.822  0.3897E+00  0.9995E+00
  -3.812  0.3901E+00  0.1003E+01
  -3.802  0.3905E+00  0.1007E+01
  -3.792  0.3909E+00  0.1011E+01
  -3.782  0.3913E+00  0.1015E+01
  -3.772  0.3917E+00  0.1019E+01
  -3.762  0.3922E+00  0.1023E+01
  -3.752  0.3927E+00  0.1027E+01
  -3.742  0.3932E+00  0.1031E+01
  -3.732  0.3938E+00  0.1035E+01
  -3.722  0.3943E+00  0.1039E+01
  -3.712  0.3949E+00  0.1043E+01
  -3.702  0.3955E+00  0.1047E+01
  -3.692  0.3962E+00  0.1051E+01
  -3.682  0.3968E+00  0.1055E+01
  -3.672  0.3975E+00  0.1058E+01
  -3.662  0.3981E+00  0.1062E+01
  -3.652  0.3988E+00  0.1066E+01
  -3.642  0.3995E+00  0.1070E+01
  -3.632  0.4002E+00  0.1074E+01
  -3.622  0.4010E+00  0.1078E+01
  -3.612  0.4017E+00  0.1082E+01
  -3.602  0.4024E+00  0.1086E+01
  -3.592  0.4032E+00  0.1091E+01
  -3.582  0.4039E+00  0.1095E+01
  -3.572  0.4046E+00  0.1099E+01
  -3.562  0.4054E+00  0.1103E+01
  -3.552  0.4061E+00  0.1107E+01
  -3.542  0.4069E+00  0.1111E+01
  -3.532  0.4076E+00  0.1115E+01
  -3.522  0.4083E+00  0.1119E+01
  -3.512  0.4090E+00  0.1123E+01
  -3.502  0.4097E+00  0.1127E+01
  -3.492  0.4104E+00  0.1131E+01
  -3.482  0.4110E+00  0.1135E+01
  -3.472  0.4117E+00  0.1139E+01
  -3.462  0.4123E+00  0.1144E+01
  -3.452  0.4129E+00  0.1148E+01
  -3.442  0.4135E+00  0.1152E+01
  -3.432  0.4141E+00  0.1156E+01
  -3.422  0.4146E+00  0.1160E+01
  -3.412  0.4151E+00  0.1164E+01
  -3.402  0.4156E+00  0.1168E+01
  -3.392  0.4161E+00  0.1173E+01
  -3.382  0.4165E+00  0.1177E+01
  -3.372  0.4169E+00  0.1181E+01
  -3.362  0.4172E+00  0.1185E+01
  -3.352  0.4175E+00  0.1189E+01
  -3.342  0.4178E+00  0.1193E+01
  -3.332  0.4181E+00  0.1198E+01
  -3.322  0.4183E+00  0.1202E+01
  -3.312  0.4185E+00  0.1206E+01
  -3.302  0.4186E+00  0.1210E+01
  -3.292  0.4187E+00  0.1214E+01
  -3.282  0.4188E+00  0.1219E+01
  -3.272  0.4188E+00  0.1223E+01
  -3.262  0.4188E+00  0.1227E+01
  -3.252  0.4187E+00  0.1231E+01
  -3.242  0.4186E+00  0.1235E+01
  -3.232  0.4185E+00  0.1240E+01
  -3.222  0.4183E+00  0.1244E+01
  -3.212  0.4181E+00  0.1248E+01
  -3.202  0.4178E+00  0.1252E+01
  -3.192  0.4175E+00  0.1256E+01
  -3.182  0.4172E+00  0.1260E+01
  -3.172  0.4168E+00  0.1265E+01
  -3.162  0.4165E+00  0.1269E+01
  -3.152  0.4160E+00  0.1273E+01
  -3.142  0.4156E+00  0.1277E+01
  -3.132  0.4151E+00  0.1281E+01
  -3.122  0.4146E+00  0.1285E+01
  -3.112  0.4140E+00  0.1289E+01
  -3.102  0.4135E+00  0.1294E+01
  -3.092  0.4129E+00  0.1298E+01
  -3.082  0.4123E+00  0.1302E+01
  -3.072  0.4116E+00  0.1306E+01
  -3.062  0.4110E+00  0.1310E+01
  -3.052  0.4103E+00  0.1314E+01
  -3.042  0.4097E+00  0.1318E+01
  -3.032  0.4090E+00  0.1322E+01
  -3.022  0.4083E+00  0.1326E+01
  -3.012  0.4076E+00  0.1331E+01
  -3.002  0.4069E+00  0.1335E+01
  -2.992  0.4062E+00  0.1339E+01
  -2.982  0.4055E+00  0.1343E+01
  -2.972  0.4048E+00  0.1347E+01
  -2.962  0.4042E+00  0.1351E+01
  -2.952  0.4035E+00  0.1355E+01
  -2.942  0.4028E+00  0.1359E+01
  -2.932  0.4022E+00  0.1363E+01
  -2.922  0.4016E+00  0.1367E+01
  -2.912  0.4010E+00  0.1371E+01
  -2.902  0.4004E+00  0.1375E+01
  -2.892  0.3999E+00  0.1379E+01
  -2.882  0.3994E+00  0.1383E+01
  -2.872  0.3989E+00  0.1387E+01
  -2.862  0.3985E+00  0.1391E+01
  -2.852  0.3981E+00  0.1395E+01
  -2.842  0.3977E+00  0.1399E+01
  -2.832  0.3974E+00  0.1403E+01
  -2.822  0.3972E+00  0.1407E+01
  -2.812  0.3969E+00  0.1411E+01
  -2.802  0.3968E+00  0.1415E+01
  -2.792  0.3967E+00  0.1419E+01
  -2.782  0.3966E+00  0.1423E+01
  -2.772  0.3966E+00  0.1427E+01
  -2.762  0.3967E+00  0.1431E+01
  -2.752  0.3968E+00  0.1435E+01
  -2.742  0.3970E+00  0.1439E+01
  -2.732  0.3973E+00  0.1443E+01
  -2.722  0.3976E+00  0.1447E+01
  -2.712  0.3980E+00  0.1450E+01
  -2.702  0.3984E+00  0.1454E+01
  -2.692  0.3990E+00  0.1458E+01
  -2.682  0.3996E+00  0.1462E+01
  -2.672  0.4003E+00  0.1466E+01
  -2.662  0.4010E+00  0.1470E+01
  -2.652  0.4018E+00  0.1474E+01
  -2.642  0.4027E+00  0.1479E+01
  -2.632  0.4037E+00  0.1483E+01
  -2.622  0.4048E+00  0.1487E+01
  -2.612  0.4059E+00  0.1491E+01
  -2.602  0.4071E+00  0.1495E+01
  -2.592  0.4083E+00  0.1499E+01
  -2.582  0.4097E+00  0.1503E+01
  -2.572  0.4111E+00  0.1507E+01
  -2.562  0.4126E+00  0.1511E+01
  -2.552  0.4142E+00  0.1515E+01
  -2.542  0.4158E+00  0.1519E+01
  -2.532  0.4175E+00  0.1524E+01
  -2.522  0.4193E+00  0.1528E+01
  -2.512  0.4211E+00  0.1532E+01
  -2.502  0.4230E+00  0.1536E+01
  -2.492  0.4250E+00  0.1541E+01
  -2.482  0.4270E+00  0.1545E+01
  -2.472  0.4291E+00  0.1549E+01
  -2.462  0.4312E+00  0.1553E+01
  -2.452  0.4334E+00  0.1558E+01
  -2.442  0.4356E+00  0.1562E+01
  -2.432  0.4379E+00  0.1566E+01
  -2.422  0.4403E+00  0.1571E+01
  -2.412  0.4427E+00  0.1575E+01
  -2.402  0.4451E+00  0.1580E+01
  -2.392  0.4476E+00  0.1584E+01
  -2.382  0.4501E+00  0.1589E+01
  -2.372  0.4527E+00  0.1593E+01
  -2.362  0.4552E+00  0.1598E+01
  -2.352  0.4578E+00  0.1602E+01
  -2.342  0.4605E+00  0.1607E+01
  -2.332  0.4631E+00  0.1612E+01
  -2.322  0.4658E+00  0.1616E+01
  -2.312  0.4685E+00  0.1621E+01
  -2.302  0.4712E+00  0.1626E+01
  -2.292  0.4739E+00  0.1630E+01
  -2.282  0.4766E+00  0.1635E+01
  -2.272  0.4794E+00  0.1640E+01
  -2.262  0.4821E+00  0.1645E+01
  -2.252  0.4848E+00  0.1650E+01
  -2.242  0.4875E+00  0.1654E+01
  -2.232  0.4903E+00  0.1659E+01
  -2.222  0.4930E+00  0.1664E+01
  -2.212  0.4956E+00  0.1669E+01
  -2.202  0.4983E+00  0.1674E+01
  -2.192  0.5010E+00  0.1679E+01
  -2.182  0.5036E+00  0.1684E+01
  -2.172  0.5062E+00  0.1689E+01
  -2.162  0.5088E+00  0.1694E+01
  -2.152  0.5113E+00  0.1700E+01
  -2.142  0.5138E+00  0.1705E+01
  -2.132  0.5163E+00  0.1710E+01
  -2.122  0.5188E+00  0.1715E+01
  -2.112  0.5212E+00  0.1720E+01
  -2.102  0.5235E+00  0.1726E+01
  -2.092  0.5259E+00  0.1731E+01
  -2.082  0.5281E+00  0.1736E+01
  -2.072  0.5304E+00  0.1741E+01
  -2.062  0.5326E+00  0.1747E+01
  -2.052  0.5347E+00  0.1752E+01
  -2.042  0.5368E+00  0.1757E+01
  -2.032  0.5388E+00  0.1763E+01
  -2.022  0.5408E+00  0.1768E+01
  -2.012  0.5427E+00  0.1774E+01
  -2.002  0.5446E+00  0.1779E+01
  -1.992  0.5464E+00  0.1785E+01
  -1.982  0.5482E+00  0.1790E+01
  -1.972  0.5499E+00  0.1796E+01
  -1.962  0.5515E+00  0.1801E+01
  -1.952  0.5531E+00  0.1807E+01
  -1.942  0.5546E+00  0.1812E+01
  -1.932  0.5561E+00  0.1818E+01
  -1.922  0.5575E+00  0.1823E+01
  -1.912  0.5588E+00  0.1829E+01
  -1.902  0.5601E+00  0.1834E+01
  -1.892  0.5614E+00  0.1840E+01
  -1.882  0.5625E+00  0.1846E+01
  -1.872  0.5637E+00  0.1851E+01
  -1.862  0.5647E+00  0.1857E+01
  -1.852  0.5658E+00  0.1863E+01
  -1.842  0.5667E+00  0.1868E+01
  -1.832  0.5676E+00  0.1874E+01
  -1.822  0.5685E+00  0.1880E+01
  -1.812  0.5693E+00  0.1885E+01
  -1.802  0.5700E+00  0.1891E+01
  -1.792  0.5707E+00  0.1897E+01
  -1.782  0.5714E+00  0.1902E+01
  -1.772  0.5720E+00  0.1908E+01
  -1.762  0.5725E+00  0.1914E+01
  -1.752  0.5731E+00  0.1920E+01
  -1.742  0.5735E+00  0.1925E+01
  -1.732  0.5740E+00  0.1931E+01
  -1.722  0.5743E+00  0.1937E+01
  -1.712  0.5747E+00  0.1943E+01
  -1.702  0.5750E+00  0.1948E+01
  -1.692  0.5753E+00  0.1954E+01
  -1.682  0.5755E+00  0.1960E+01
  -1.672  0.5757E+00  0.1966E+01
  -1.662  0.5759E+00  0.1971E+01
  -1.652  0.5761E+00  0.1977E+01
  -1.642  0.5762E+00  0.1983E+01
  -1.632  0.5763E+00  0.1989E+01
  -1.622  0.5763E+00  0.1994E+01
  -1.612  0.5764E+00  0.2000E+01
  -1.602  0.5764E+00  0.2006E+01
  -1.592  0.5764E+00  0.2012E+01
  -1.582  0.5764E+00  0.2017E+01
  -1.572  0.5763E+00  0.2023E+01
  -1.562  0.5763E+00  0.2029E+01
  -1.552  0.5762E+00  0.2035E+01
  -1.542  0.5761E+00  0.2041E+01
  -1.532  0.5760E+00  0.2046E+01
  -1.522  0.5758E+00  0.2052E+01
  -1.512  0.5757E+00  0.2058E+01
  -1.502  0.5756E+00  0.2064E+01
  -1.492  0.5754E+00  0.2069E+01
  -1.482  0.5752E+00  0.2075E+01
  -1.472  0.5750E+00  0.2081E+01
  -1.462  0.5748E+00  0.2087E+01
  -1.452  0.5746E+00  0.2092E+01
  -1.442  0.5744E+00  0.2098E+01
  -1.432  0.5742E+00  0.2104E+01
  -1.422  0.5739E+00  0.2110E+01
  -1.412  0.5737E+00  0.2115E+01
  -1.402  0.5735E+00  0.2121E+01
  -1.392  0.5732E+00  0.2127E+01
  -1.382  0.5729E+00  0.2132E+01
  -1.372  0.5727E+00  0.2138E+01
  -1.362  0.5724E+00  0.2144E+01
  -1.352  0.5721E+00  0.2150E+01
  -1.342  0.5718E+00  0.2155E+01
  -1.332  0.5715E+00  0.2161E+01
  -1.322  0.5711E+00  0.2167E+01
  -1.312  0.5708E+00  0.2172E+01
  -1.302  0.5705E+00  0.2178E+01
  -1.292  0.5701E+00  0.2184E+01
  -1.282  0.5698E+00  0.2190E+01
  -1.272  0.5694E+00  0.2195E+01
  -1.262  0.5690E+00  0.2201E+01
  -1.252  0.5686E+00  0.2207E+01
  -1.242  0.5682E+00  0.2212E+01
  -1.232  0.5677E+00  0.2218E+01
  -1.222  0.5673E+00  0.2224E+01
  -1.212  0.5668E+00  0.2229E+01
  -1.202  0.5663E+00  0.2235E+01
  -1.192  0.5658E+00  0.2241E+01
  -1.182  0.5653E+00  0.2246E+01
  -1.172  0.5648E+00  0.2252E+01
  -1.162  0.5642E+00  0.2258E+01
  -1.152  0.5637E+00  0.2263E+01
  -1.142  0.5631E+00  0.2269E+01
  -1.132  0.5624E+00  0.2275E+01
  -1.122  0.5618E+00  0.2280E+01
  -1.112  0.5611E+00  0.2286E+01
  -1.102  0.5604E+00  0.2291E+01
  -1.092  0.5597E+00  0.2297E+01
  -1.082  0.5590E+00  0.2303E+01
  -1.072  0.5582E+00  0.2308E+01
  -1.062  0.5574E+00  0.2314E+01
  -1.052  0.5566E+00  0.2319E+01
  -1.042  0.5557E+00  0.2325E+01
  -1.032  0.5548E+00  0.2330E+01
  -1.022  0.5539E+00  0.2336E+01
  -1.012  0.5530E+00  0.2341E+01
  -1.002  0.5520E+00  0.2347E+01
  -0.992  0.5510E+00  0.2352E+01
  -0.982  0.5500E+00  0.2358E+01
  -0.972  0.5489E+00  0.2363E+01
  -0.962  0.5478E+00  0.2369E+01
  -0.952  0.5467E+00  0.2374E+01
  -0.942  0.5456E+00  0.2380E+01
  -0.932  0.5444E+00  0.2385E+01
  -0.922  0.5432E+00  0.2391E+01
  -0.912  0.5420E+00  0.2396E+01
  -0.902  0.5407E+00  0.2402E+01
  -0.892  0.5394E+00  0.2407E+01
  -0.882  0.5381E+00  0.2412E+01
  -0.872  0.5368E+00  0.2418E+01
  -0.862  0.5354E+00  0.2423E+01
  -0.852  0.5341E+00  0.2428E+01
  -0.842  0.5327E+00  0.2434E+01
  -0.832  0.5313E+00  0.2439E+01
  -0.822  0.5298E+00  0.2444E+01
  -0.812  0.5284E+00  0.2450E+01
  -0.802  0.5269E+00  0.2455E+01
  -0.792  0.5254E+00  0.2460E+01
  -0.782  0.5239E+00  0.2465E+01
  -0.772  0.5224E+00  0.2471E+01
  -0.762  0.5209E+00  0.2476E+01
  -0.752  0.5194E+00  0.2481E+01
  -0.742  0.5178E+00  0.2486E+01
  -0.732  0.5163E+00  0.2491E+01
  -0.722  0.5147E+00  0.2496E+01
  -0.712  0.5132E+00  0.2502E+01
  -0.702  0.5116E+00  0.2507E+01
  -0.692  0.5101E+00  0.2512E+01
  -0.682  0.5085E+00  0.2517E+01
  -0.672  0.5070E+00  0.2522E+01
  -0.662  0.5055E+00  0.2527E+01
  -0.652  0.5040E+00  0.2532E+01
  -0.642  0.5025E+00  0.2537E+01
  -0.632  0.5010E+00  0.2542E+01
  -0.622  0.4995E+00  0.2547E+01
  -0.612  0.4980E+00  0.2552E+01
  -0.602  0.4966E+00  0.2557E+01
  -0.592  0.4952E+00  0.2562E+01
  -0.582  0.4938E+00  0.2567E+01
  -0.572  0.4925E+00  0.2572E+01
  -0.562  0.4911E+00  0.2577E+01
  -0.552  0.4898E+00  0.2582E+01
  -0.542  0.4886E+00  0.2587E+01
  -0.532  0.4873E+00  0.2591E+01
  -0.522  0.4861E+00  0.2596E+01
  -0.512  0.4850E+00  0.2601E+01
  -0.502  0.4838E+00  0.2606E+01
  -0.492  0.4828E+00  0.2611E+01
  -0.482  0.4817E+00  0.2616E+01
  -0.472  0.4807E+00  0.2620E+01
  -0.462  0.4798E+00  0.2625E+01
  -0.452  0.4789E+00  0.2630E+01
  -0.442  0.4781E+00  0.2635E+01
  -0.432  0.4773E+00  0.2640E+01
  -0.422  0.4765E+00  0.2644E+01
  -0.412  0.4758E+00  0.2649E+01
  -0.402  0.4752E+00  0.2654E+01
  -0.392  0.4746E+00  0.2659E+01
  -0.382  0.4741E+00  0.2663E+01
  -0.372  0.4737E+00  0.2668E+01
  -0.362  0.4733E+00  0.2673E+01
  -0.352  0.4729E+00  0.2678E+01
  -0.342  0.4726E+00  0.2682E+01
  -0.332  0.4724E+00  0.2687E+01
  -0.322  0.4723E+00  0.2692E+01
  -0.312  0.4722E+00  0.2696E+01
  -0.302  0.4721E+00  0.2701E+01
  -0.292  0.4722E+00  0.2706E+01
  -0.282  0.4722E+00  0.2711E+01
  -0.272  0.4724E+00  0.2715E+01
  -0.262  0.4726E+00  0.2720E+01
  -0.252  0.4729E+00  0.2725E+01
  -0.242  0.4732E+00  0.2730E+01
  -0.232  0.4737E+00  0.2734E+01
  -0.222  0.4741E+00  0.2739E+01
  -0.212  0.4747E+00  0.2744E+01
  -0.202  0.4753E+00  0.2748E+01
  -0.192  0.4759E+00  0.2753E+01
  -0.182  0.4767E+00  0.2758E+01
  -0.172  0.4774E+00  0.2763E+01
  -0.162  0.4783E+00  0.2768E+01
  -0.152  0.4792E+00  0.2772E+01
  -0.142  0.4802E+00  0.2777E+01
  -0.132  0.4812E+00  0.2782E+01
  -0.122  0.4823E+00  0.2787E+01
  -0.112  0.4834E+00  0.2792E+01
  -0.102  0.4846E+00  0.2796E+01
  -0.092  0.4859E+00  0.2801E+01
  -0.082  0.4872E+00  0.2806E+01
  -0.072  0.4886E+00  0.2811E+01
  -0.062  0.4900E+00  0.2816E+01
  -0.052  0.4915E+00  0.2821E+01
  -0.042  0.4930E+00  0.2826E+01
  -0.032  0.4946E+00  0.2831E+01
  -0.022  0.4962E+00  0.2836E+01
  -0.012  0.4979E+00  0.2841E+01
  -0.002  0.4997E+00  0.2846E+01
   0.008  0.5014E+00  0.2851E+01
   0.018  0.5033E+00  0.2856E+01
   0.028  0.5052E+00  0.2861E+01
   0.038  0.5071E+00  0.2866E+01
   0.048  0.5091E+00  0.2871E+01
   0.058  0.5111E+00  0.2876E+01
   0.068  0.5131E+00  0.2881E+01
   0.078  0.5152E+00  0.2886E+01
   0.088  0.5174E+00  0.2892E+01
   0.098  0.5195E+00  0.2897E+01
   0.108  0.5218E+00  0.2902E+01
   0.118  0.5240E+00  0.2907E+01
   0.128  0.5263E+00  0.2912E+01
   0.138  0.5287E+00  0.2918E+01
   0.148  0.5310E+00  0.2923E+01
   0.158  0.5334E+00  0.2928E+01
   0.168  0.5359E+00  0.2934E+01
   0.178  0.5384E+00  0.2939E+01
   0.188  0.5409E+00  0.2945E+01
   0.198  0.5434E+00  0.2950E+01
   0.208  0.5460E+00  0.2955E+01
   0.218  0.5486E+00  0.2961E+01
   0.228  0.5512E+00  0.2966E+01
   0.238  0.5539E+00  0.2972E+01
   0.248  0.5566E+00  0.2978E+01
   0.258  0.5593E+00  0.2983E+01
   0.268  0.5620E+00  0.2989E+01
   0.278  0.5648E+00  0.2994E+01
   0.288  0.5676E+00  0.3000E+01
   0.298  0.5704E+00  0.3006E+01
   0.308  0.5733E+00  0.3012E+01
   0.318  0.5762E+00  0.3017E+01
   0.328  0.5790E+00  0.3023E+01
   0.338  0.5819E+00  0.3029E+01
   0.348  0.5849E+00  0.3035E+01
   0.358  0.5878E+00  0.3041E+01
   0.368  0.5908E+00  0.3047E+01
   0.378  0.5938E+00  0.3052E+01
   0.388  0.5968E+00  0.3058E+01
   0.398  0.5998E+00  0.3064E+01
   0.408  0.6028E+00  0.3070E+01
   0.418  0.6058E+00  0.3077E+01
   0.428  0.6089E+00  0.3083E+01
   0.438  0.6119E+00  0.3089E+01
   0.448  0.6150E+00  0.3095E+01
   0.458  0.6181E+00  0.3101E+01
   0.468  0.6211E+00  0.3107E+01
   0.478  0.6242E+00  0.3114E+01
   0.488  0.6273E+00  0.3120E+01
   0.498  0.6303E+00  0.3126E+01
   0.508  0.6334E+00  0.3132E+01
   0.518  0.6365E+00  0.3139E+01
   0.528  0.6395E+00  0.3145E+01
   0.538  0.6426E+00  0.3152E+01
   0.548  0.6456E+00  0.3158E+01
   0.558  0.6486E+00  0.3165E+01
   0.568  0.6516E+00  0.3171E+01
   0.578  0.6546E+00  0.3178E+01
   0.588  0.6576E+00  0.3184E+01
   0.598  0.6605E+00  0.3191E+01
   0.608  0.6634E+00  0.3197E+01
   0.618  0.6663E+00  0.3204E+01
   0.628  0.6692E+00  0.3211E+01
   0.638  0.6720E+00  0.3218E+01
   0.648  0.6748E+00  0.3224E+01
   0.658  0.6776E+00  0.3231E+01
   0.668  0.6803E+00  0.3238E+01
   0.678  0.6829E+00  0.3245E+01
   0.688  0.6856E+00  0.3252E+01
   0.698  0.6881E+00  0.3258E+01
   0.708  0.6907E+00  0.3265E+01
   0.718  0.6931E+00  0.3272E+01
   0.728  0.6955E+00  0.3279E+01
   0.738  0.6979E+00  0.3286E+01
   0.748  0.7001E+00  0.3293E+01
   0.758  0.7023E+00  0.3300E+01
   0.768  0.7045E+00  0.3307E+01
   0.778  0.7066E+00  0.3314E+01
   0.788  0.7085E+00  0.3321E+01
   0.798  0.7105E+00  0.3329E+01
   0.808  0.7123E+00  0.3336E+01
   0.818  0.7140E+00  0.3343E+01
   0.828  0.7157E+00  0.3350E+01
   0.838  0.7173E+00  0.3357E+01
   0.848  0.7187E+00  0.3364E+01
   0.858  0.7201E+00  0.3371E+01
   0.868  0.7214E+00  0.3379E+01
   0.878  0.7226E+00  0.3386E+01
   0.888  0.7237E+00  0.3393E+01
   0.898  0.7247E+00  0.3400E+01
   0.908  0.7255E+00  0.3408E+01
   0.918  0.7263E+00  0.3415E+01
   0.928  0.7270E+00  0.3422E+01
   0.938  0.7275E+00  0.3429E+01
   0.948  0.7279E+00  0.3437E+01
   0.958  0.7282E+00  0.3444E+01
   0.968  0.7284E+00  0.3451E+01
   0.978  0.7285E+00  0.3459E+01
   0.988  0.7285E+00  0.3466E+01
   0.998  0.7283E+00  0.3473E+01
   1.008  0.7280E+00  0.3480E+01
   1.018  0.7276E+00  0.3488E+01
   1.028  0.7271E+00  0.3495E+01
   1.038  0.7265E+00  0.3502E+01
   1.048  0.7257E+00  0.3510E+01
   1.058  0.7248E+00  0.3517E+01
   1.068  0.7238E+00  0.3524E+01
   1.078  0.7227E+00  0.3531E+01
   1.088  0.7214E+00  0.3538E+01
   1.098  0.7201E+00  0.3546E+01
   1.108  0.7186E+00  0.3553E+01
   1.118  0.7170E+00  0.3560E+01
   1.128  0.7152E+00  0.3567E+01
   1.138  0.7134E+00  0.3574E+01
   1.148  0.7114E+00  0.3581E+01
   1.158  0.7094E+00  0.3588E+01
   1.168  0.7072E+00  0.3596E+01
   1.178  0.7049E+00  0.3603E+01
   1.188  0.7025E+00  0.3610E+01
   1.198  0.7000E+00  0.3617E+01
   1.208  0.6974E+00  0.3624E+01
   1.218  0.6947E+00  0.3631E+01
   1.228  0.6919E+00  0.3637E+01
   1.238  0.6891E+00  0.3644E+01
   1.248  0.6861E+00  0.3651E+01
   1.258  0.6831E+00  0.3658E+01
   1.268  0.6799E+00  0.3665E+01
   1.278  0.6767E+00  0.3672E+01
   1.288  0.6734E+00  0.3678E+01
   1.298  0.6701E+00  0.3685E+01
   1.308  0.6667E+00  0.3692E+01
   1.318  0.6632E+00  0.3698E+01
   1.328  0.6596E+00  0.3705E+01
   1.338  0.6561E+00  0.3712E+01
   1.348  0.6524E+00  0.3718E+01
   1.358  0.6487E+00  0.3725E+01
   1.368  0.6450E+00  0.3731E+01
   1.378  0.6413E+00  0.3737E+01
   1.388  0.6375E+00  0.3744E+01
   1.398  0.6336E+00  0.3750E+01
   1.408  0.6298E+00  0.3756E+01
   1.418  0.6260E+00  0.3763E+01
   1.428  0.6221E+00  0.3769E+01
   1.438  0.6182E+00  0.3775E+01
   1.448  0.6143E+00  0.3781E+01
   1.458  0.6105E+00  0.3787E+01
   1.468  0.6066E+00  0.3793E+01
   1.478  0.6027E+00  0.3799E+01
   1.488  0.5989E+00  0.3805E+01
   1.498  0.5951E+00  0.3811E+01
   1.508  0.5913E+00  0.3817E+01
   1.518  0.5875E+00  0.3823E+01
   1.528  0.5837E+00  0.3829E+01
   1.538  0.5800E+00  0.3835E+01
   1.548  0.5764E+00  0.3841E+01
   1.558  0.5728E+00  0.3846E+01
   1.568  0.5692E+00  0.3852E+01
   1.578  0.5657E+00  0.3858E+01
   1.588  0.5622E+00  0.3863E+01
   1.598  0.5588E+00  0.3869E+01
   1.608  0.5555E+00  0.3874E+01
   1.618  0.5522E+00  0.3880E+01
   1.628  0.5490E+00  0.3885E+01
   1.638  0.5459E+00  0.3891E+01
   1.648  0.5428E+00  0.3896E+01
   1.658  0.5398E+00  0.3902E+01
   1.668  0.5369E+00  0.3907E+01
   1.678  0.5341E+00  0.3912E+01
   1.688  0.5314E+00  0.3918E+01
   1.698  0.5287E+00  0.3923E+01
   1.708  0.5262E+00  0.3928E+01
   1.718  0.5237E+00  0.3933E+01
   1.728  0.5213E+00  0.3939E+01
   1.738  0.5191E+00  0.3944E+01
   1.748  0.5169E+00  0.3949E+01
   1.758  0.5148E+00  0.3954E+01
   1.768  0.5128E+00  0.3959E+01
   1.778  0.5109E+00  0.3964E+01
   1.788  0.5091E+00  0.3970E+01
   1.798  0.5074E+00  0.3975E+01
   1.808  0.5057E+00  0.3980E+01
   1.818  0.5042E+00  0.3985E+01
   1.828  0.5028E+00  0.3990E+01
   1.838  0.5015E+00  0.3995E+01
   1.848  0.5003E+00  0.4000E+01
   1.858  0.4991E+00  0.4005E+01
   1.868  0.4981E+00  0.4010E+01
   1.878  0.4972E+00  0.4015E+01
   1.888  0.4963E+00  0.4020E+01
   1.898  0.4956E+00  0.4025E+01
   1.908  0.4949E+00  0.4030E+01
   1.918  0.4943E+00  0.4035E+01
   1.928  0.4939E+00  0.4039E+01
   1.938  0.4935E+00  0.4044E+01
   1.948  0.4931E+00  0.4049E+01
   1.958  0.4929E+00  0.4054E+01
   1.968  0.4928E+00  0.4059E+01
   1.978  0.4927E+00  0.4064E+01
   1.988  0.4927E+00  0.4069E+01
   1.998  0.4928E+00  0.4074E+01
   2.008  0.4930E+00  0.4079E+01
   2.018  0.4932E+00  0.4084E+01
   2.028  0.4935E+00  0.4089E+01
   2.038  0.4939E+00  0.4094E+01
   2.048  0.4943E+00  0.4099E+01
   2.058  0.4948E+00  0.4104E+01
   2.068  0.4954E+00  0.4109E+01
   2.078  0.4960E+00  0.4113E+01
   2.088  0.4967E+00  0.4118E+01
   2.098  0.4975E+00  0.4123E+01
   2.108  0.4983E+00  0.4128E+01
   2.118  0.4991E+00  0.4133E+01
   2.128  0.5000E+00  0.4138E+01
   2.138  0.5010E+00  0.4143E+01
   2.148  0.5020E+00  0.4148E+01
   2.158  0.5030E+00  0.4153E+01
   2.168  0.5041E+00  0.4159E+01
   2.178  0.5053E+00  0.4164E+01
   2.188  0.5064E+00  0.4169E+01
   2.198  0.5077E+00  0.4174E+01
   2.208  0.5089E+00  0.4179E+01
   2.218  0.5102E+00  0.4184E+01
   2.228  0.5115E+00  0.4189E+01
   2.238  0.5129E+00  0.4194E+01
   2.248  0.5143E+00  0.4199E+01
   2.258  0.5157E+00  0.4204E+01
   2.268  0.5171E+00  0.4210E+01
   2.278  0.5186E+00  0.4215E+01
   2.288  0.5201E+00  0.4220E+01
   2.298  0.5217E+00  0.4225E+01
   2.308  0.5232E+00  0.4230E+01
   2.318  0.5248E+00  0.4236E+01
   2.328  0.5264E+00  0.4241E+01
   2.338  0.5281E+00  0.4246E+01
   2.348  0.5298E+00  0.4252E+01
   2.358  0.5315E+00  0.4257E+01
   2.368  0.5332E+00  0.4262E+01
   2.378  0.5350E+00  0.4268E+01
   2.388  0.5368E+00  0.4273E+01
   2.398  0.5386E+00  0.4278E+01
   2.408  0.5404E+00  0.4284E+01
   2.418  0.5423E+00  0.4289E+01
   2.428  0.5442E+00  0.4295E+01
   2.438  0.5462E+00  0.4300E+01
   2.448  0.5481E+00  0.4306E+01
   2.458  0.5501E+00  0.4311E+01
   2.468  0.5522E+00  0.4317E+01
   2.478  0.5542E+00  0.4322E+01
   2.488  0.5563E+00  0.4328E+01
   2.498  0.5584E+00  0.4333E+01
   2.508  0.5606E+00  0.4339E+01
   2.518  0.5628E+00  0.4344E+01
   2.528  0.5651E+00  0.4350E+01
   2.538  0.5673E+00  0.4356E+01
   2.548  0.5697E+00  0.4361E+01
   2.558  0.5720E+00  0.4367E+01
   2.568  0.5744E+00  0.4373E+01
   2.578  0.5768E+00  0.4379E+01
   2.588  0.5793E+00  0.4384E+01
   2.598  0.5819E+00  0.4390E+01
   2.608  0.5844E+00  0.4396E+01
   2.618  0.5870E+00  0.4402E+01
   2.628  0.5897E+00  0.4408E+01
   2.638  0.5924E+00  0.4414E+01
   2.648  0.5952E+00  0.4420E+01
   2.658  0.5980E+00  0.4426E+01
   2.668  0.6008E+00  0.4432E+01
   2.678  0.6037E+00  0.4438E+01
   2.688  0.6066E+00  0.4444E+01
   2.698  0.6096E+00  0.4450E+01
   2.708  0.6127E+00  0.4456E+01
   2.718  0.6158E+00  0.4462E+01
   2.728  0.6189E+00  0.4468E+01
   2.738  0.6221E+00  0.4475E+01
   2.748  0.6253E+00  0.4481E+01
   2.758  0.6286E+00  0.4487E+01
   2.768  0.6320E+00  0.4494E+01
   2.778  0.6353E+00  0.4500E+01
   2.788  0.6388E+00  0.4506E+01
   2.798  0.6422E+00  0.4513E+01
   2.808  0.6457E+00  0.4519E+01
   2.818  0.6493E+00  0.4526E+01
   2.828  0.6529E+00  0.4532E+01
   2.838  0.6565E+00  0.4539E+01
   2.848  0.6602E+00  0.4545E+01
   2.858  0.6639E+00  0.4552E+01
   2.868  0.6677E+00  0.4559E+01
   2.878  0.6715E+00  0.4565E+01
   2.888  0.6753E+00  0.4572E+01
   2.898  0.6791E+00  0.4579E+01
   2.908  0.6830E+00  0.4586E+01
   2.918  0.6869E+00  0.4593E+01
   2.928  0.6908E+00  0.4600E+01
   2.938  0.6947E+00  0.4606E+01
   2.948  0.6987E+00  0.4613E+01
   2.958  0.7026E+00  0.4620E+01
   2.968  0.7066E+00  0.4628E+01
   2.978  0.7106E+00  0.4635E+01
   2.988  0.7145E+00  0.4642E+01
   2.998  0.7185E+00  0.4649E+01
   3.008  0.7225E+00  0.4656E+01
   3.018  0.7265E+00  0.4663E+01
   3.028  0.7304E+00  0.4671E+01
   3.038  0.7344E+00  0.4678E+01
   3.048  0.7383E+00  0.4686E+01
   3.058  0.7422E+00  0.4693E+01
   3.068  0.7460E+00  0.4700E+01
   3.078  0.7499E+00  0.4708E+01
   3.088  0.7537E+00  0.4715E+01
   3.098  0.7574E+00  0.4723E+01
   3.108  0.7612E+00  0.4731E+01
   3.118  0.7648E+00  0.4738E+01
   3.128  0.7685E+00  0.4746E+01
   3.138  0.7720E+00  0.4754E+01
   3.148  0.7755E+00  0.4761E+01
   3.158  0.7790E+00  0.4769E+01
   3.168  0.7823E+00  0.4777E+01
   3.178  0.7856E+00  0.4785E+01
   3.188  0.7889E+00  0.4793E+01
   3.198  0.7920E+00  0.4801E+01
   3.208  0.7950E+00  0.4809E+01
   3.218  0.7980E+00  0.4817E+01
   3.228  0.8009E+00  0.4825E+01
   3.238  0.8037E+00  0.4833E+01
   3.248  0.8063E+00  0.4841E+01
   3.258  0.8089E+00  0.4849E+01
   3.268  0.8114E+00  0.4857E+01
   3.278  0.8137E+00  0.4865E+01
   3.288  0.8159E+00  0.4873E+01
   3.298  0.8181E+00  0.4881E+01
   3.308  0.8200E+00  0.4890E+01
   3.318  0.8219E+00  0.4898E+01
   3.328  0.8236E+00  0.4906E+01
   3.338  0.8253E+00  0.4914E+01
   3.348  0.8267E+00  0.4923E+01
   3.358  0.8281E+00  0.4931E+01
   3.368  0.8293E+00  0.4939E+01
   3.378  0.8303E+00  0.4947E+01
   3.388  0.8312E+00  0.4956E+01
   3.398  0.8320E+00  0.4964E+01
   3.408  0.8326E+00  0.4972E+01
   3.418  0.8331E+00  0.4981E+01
   3.428  0.8334E+00  0.4989E+01
   3.438  0.8336E+00  0.4997E+01
   3.448  0.8337E+00  0.5006E+01
   3.458  0.8335E+00  0.5014E+01
   3.468  0.8333E+00  0.5022E+01
   3.478  0.8328E+00  0.5031E+01
   3.488  0.8323E+00  0.5039E+01
   3.498  0.8315E+00  0.5047E+01
   3.508  0.8307E+00  0.5056E+01
   3.518  0.8296E+00  0.5064E+01
   3.528  0.8284E+00  0.5072E+01
   3.538  0.8271E+00  0.5081E+01
   3.548  0.8256E+00  0.5089E+01
   3.558  0.8240E+00  0.5097E+01
   3.568  0.8222E+00  0.5105E+01
   3.578  0.8203E+00  0.5113E+01
   3.588  0.8183E+00  0.5122E+01
   3.598  0.8161E+00  0.5130E+01
   3.608  0.8137E+00  0.5138E+01
   3.618  0.8113E+00  0.5146E+01
   3.628  0.8087E+00  0.5154E+01
   3.638  0.8060E+00  0.5162E+01
   3.648  0.8031E+00  0.5170E+01
   3.658  0.8002E+00  0.5178E+01
   3.668  0.7971E+00  0.5186E+01
   3.678  0.7939E+00  0.5194E+01
   3.688  0.7906E+00  0.5202E+01
   3.698  0.7871E+00  0.5210E+01
   3.708  0.7836E+00  0.5218E+01
   3.718  0.7800E+00  0.5226E+01
   3.728  0.7763E+00  0.5233E+01
   3.738  0.7725E+00  0.5241E+01
   3.748  0.7686E+00  0.5249E+01
   3.758  0.7647E+00  0.5256E+01
   3.768  0.7606E+00  0.5264E+01
   3.778  0.7565E+00  0.5272E+01
   3.788  0.7524E+00  0.5279E+01
   3.798  0.7482E+00  0.5287E+01
   3.808  0.7439E+00  0.5294E+01
   3.818  0.7396E+00  0.5301E+01
   3.828  0.7352E+00  0.5309E+01
   3.838  0.7308E+00  0.5316E+01
   3.848  0.7264E+00  0.5323E+01
   3.858  0.7220E+00  0.5331E+01
   3.868  0.7175E+00  0.5338E+01
   3.878  0.7130E+00  0.5345E+01
   3.888  0.7085E+00  0.5352E+01
   3.898  0.7041E+00  0.5359E+01
   3.908  0.6996E+00  0.5366E+01
   3.918  0.6951E+00  0.5373E+01
   3.928  0.6907E+00  0.5380E+01
   3.938  0.6862E+00  0.5387E+01
   3.948  0.6819E+00  0.5394E+01
   3.958  0.6775E+00  0.5400E+01
   3.968  0.6732E+00  0.5407E+01
   3.978  0.6689E+00  0.5414E+01
   3.988  0.6647E+00  0.5420E+01
   3.998  0.6605E+00  0.5427E+01
   4.008  0.6564E+00  0.5434E+01
   4.018  0.6524E+00  0.5440E+01
   4.028  0.6484E+00  0.5447E+01
   4.038  0.6446E+00  0.5453E+01
   4.048  0.6408E+00  0.5459E+01
   4.058  0.6371E+00  0.5466E+01
   4.068  0.6334E+00  0.5472E+01
   4.078  0.6299E+00  0.5478E+01
   4.088  0.6265E+00  0.5485E+01
   4.098  0.6232E+00  0.5491E+01
   4.108  0.6200E+00  0.5497E+01
   4.118  0.6169E+00  0.5503E+01
   4.128  0.6140E+00  0.5509E+01
   4.138  0.6111E+00  0.5516E+01
   4.148  0.6084E+00  0.5522E+01
   4.158  0.6058E+00  0.5528E+01
   4.168  0.6034E+00  0.5534E+01
   4.178  0.6011E+00  0.5540E+01
   4.188  0.5989E+00  0.5546E+01
   4.198  0.5968E+00  0.5552E+01
   4.208  0.5949E+00  0.5558E+01
   4.218  0.5932E+00  0.5564E+01
   4.228  0.5916E+00  0.5569E+01
   4.238  0.5901E+00  0.5575E+01
   4.248  0.5888E+00  0.5581E+01
   4.258  0.5877E+00  0.5587E+01
   4.268  0.5866E+00  0.5593E+01
   4.278  0.5858E+00  0.5599E+01
   4.288  0.5851E+00  0.5605E+01
   4.298  0.5845E+00  0.5611E+01
   4.308  0.5841E+00  0.5616E+01
   4.318  0.5839E+00  0.5622E+01
   4.328  0.5838E+00  0.5628E+01
   4.338  0.5838E+00  0.5634E+01
   4.348  0.5840E+00  0.5640E+01
   4.358  0.5844E+00  0.5646E+01
   4.368  0.5849E+00  0.5651E+01
   4.378  0.5856E+00  0.5657E+01
   4.388  0.5863E+00  0.5663E+01
   4.398  0.5873E+00  0.5669E+01
   4.408  0.5884E+00  0.5675E+01
   4.418  0.5896E+00  0.5681E+01
   4.428  0.5909E+00  0.5687E+01
   4.438  0.5924E+00  0.5693E+01
   4.448  0.5940E+00  0.5699E+01
   4.458  0.5958E+00  0.5705E+01
   4.468  0.5976E+00  0.5711E+01
   4.478  0.5996E+00  0.5717E+01
   4.488  0.6017E+00  0.5723E+01
   4.498  0.6039E+00  0.5729E+01
   4.508  0.6063E+00  0.5735E+01
   4.518  0.6087E+00  0.5741E+01
   4.528  0.6112E+00  0.5747E+01
   4.538  0.6138E+00  0.5753E+01
   4.548  0.6166E+00  0.5759E+01
   4.558  0.6194E+00  0.5765E+01
   4.568  0.6223E+00  0.5772E+01
   4.578  0.6253E+00  0.5778E+01
   4.588  0.6283E+00  0.5784E+01
   4.598  0.6315E+00  0.5790E+01
   4.608  0.6346E+00  0.5797E+01
   4.618  0.6379E+00  0.5803E+01
   4.628  0.6412E+00  0.5810E+01
   4.638  0.6446E+00  0.5816E+01
   4.648  0.6480E+00  0.5822E+01
   4.658  0.6515E+00  0.5829E+01
   4.668  0.6550E+00  0.5836E+01
   4.678  0.6585E+00  0.5842E+01
   4.688  0.6621E+00  0.5849E+01
   4.698  0.6657E+00  0.5855E+01
   4.708  0.6693E+00  0.5862E+01
   4.718  0.6730E+00  0.5869E+01
   4.728  0.6766E+00  0.5876E+01
   4.738  0.6803E+00  0.5882E+01
   4.748  0.6839E+00  0.5889E+01
   4.758  0.6876E+00  0.5896E+01
   4.768  0.6913E+00  0.5903E+01
   4.778  0.6950E+00  0.5910E+01
   4.788  0.6986E+00  0.5917E+01
   4.798  0.7023E+00  0.5924E+01
   4.808  0.7059E+00  0.5931E+01
   4.818  0.7095E+00  0.5938E+01
   4.828  0.7131E+00  0.5945E+01
   4.838  0.7167E+00  0.5952E+01
   4.848  0.7202E+00  0.5960E+01
   4.858  0.7237E+00  0.5967E+01
   4.868  0.7272E+00  0.5974E+01
   4.878  0.7306E+00  0.5981E+01
   4.888  0.7341E+00  0.5989E+01
   4.898  0.7374E+00  0.5996E+01
   4.908  0.7408E+00  0.6004E+01
   4.918  0.7441E+00  0.6011E+01
   4.928  0.7473E+00  0.6018E+01
   4.938  0.7505E+00  0.6026E+01
   4.948  0.7537E+00  0.6034E+01
   4.958  0.7568E+00  0.6041E+01
   4.968  0.7599E+00  0.6049E+01
   4.978  0.7630E+00  0.6056E+01
   4.988  0.7660E+00  0.6064E+01
   4.998  0.7689E+00  0.6072E+01
   5.008  0.7718E+00  0.6079E+01
   5.018  0.7747E+00  0.6087E+01
   5.028  0.7775E+00  0.6095E+01
   5.038  0.7803E+00  0.6103E+01
   5.048  0.7830E+00  0.6111E+01
   5.058  0.7857E+00  0.6118E+01
   5.068  0.7883E+00  0.6126E+01
   5.078  0.7909E+00  0.6134E+01
   5.088  0.7935E+00  0.6142E+01
   5.098  0.7960E+00  0.6150E+01
   5.108  0.7985E+00  0.6158E+01
   5.118  0.8010E+00  0.6166E+01
   5.128  0.8034E+00  0.6174E+01
   5.138  0.8058E+00  0.6182E+01
   5.148  0.8082E+00  0.6190E+01
   5.158  0.8105E+00  0.6198E+01
   5.168  0.8128E+00  0.6206E+01
   5.178  0.8151E+00  0.6215E+01
   5.188  0.8174E+00  0.6223E+01
   5.198  0.8196E+00  0.6231E+01
   5.208  0.8219E+00  0.6239E+01
   5.218  0.8241E+00  0.6247E+01
   5.228  0.8263E+00  0.6256E+01
   5.238  0.8285E+00  0.6264E+01
   5.248  0.8306E+00  0.6272E+01
   5.258  0.8328E+00  0.6281E+01
   5.268  0.8350E+00  0.6289E+01
   5.278  0.8371E+00  0.6297E+01
   5.288  0.8393E+00  0.6306E+01
   5.298  0.8414E+00  0.6314E+01
   5.308  0.8436E+00  0.6323E+01
   5.318  0.8457E+00  0.6331E+01
   5.328  0.8479E+00  0.6340E+01
   5.338  0.8500E+00  0.6348E+01
   5.348  0.8522E+00  0.6357E+01
   5.358  0.8544E+00  0.6365E+01
   5.368  0.8565E+00  0.6374E+01
   5.378  0.8587E+00  0.6382E+01
   5.388  0.8609E+00  0.6391E+01
   5.398  0.8631E+00  0.6400E+01
   5.408  0.8654E+00  0.6408E+01
   5.418  0.8676E+00  0.6417E+01
   5.428  0.8698E+00  0.6426E+01
   5.438  0.8721E+00  0.6434E+01
   5.448  0.8744E+00  0.6443E+01
   5.458  0.8767E+00  0.6452E+01
   5.468  0.8790E+00  0.6461E+01
   5.478  0.8813E+00  0.6469E+01
   5.488  0.8836E+00  0.6478E+01
   5.498  0.8860E+00  0.6487E+01
   5.508  0.8883E+00  0.6496E+01
   5.518  0.8907E+00  0.6505E+01
   5.528  0.8930E+00  0.6514E+01
   5.538  0.8954E+00  0.6523E+01
   5.548  0.8978E+00  0.6532E+01
   5.558  0.9002E+00  0.6541E+01
   5.568  0.9026E+00  0.6550E+01
   5.578  0.9050E+00  0.6559E+01
   5.588  0.9074E+00  0.6568E+01
   5.598  0.9098E+00  0.6577E+01
   5.608  0.9122E+00  0.6586E+01
   5.618  0.9146E+00  0.6595E+01
   5.628  0.9170E+00  0.6604E+01
   5.638  0.9194E+00  0.6614E+01
   5.648  0.9217E+00  0.6623E+01
   5.658  0.9241E+00  0.6632E+01
   5.668  0.9264E+00  0.6641E+01
   5.678  0.9287E+00  0.6651E+01
   5.688  0.9310E+00  0.6660E+01
   5.698  0.9333E+00  0.6669E+01
   5.708  0.9355E+00  0.6679E+01
   5.718  0.9377E+00  0.6688E+01
   5.728  0.9399E+00  0.6697E+01
   5.738  0.9420E+00  0.6707E+01
   5.748  0.9441E+00  0.6716E+01
   5.758  0.9461E+00  0.6726E+01
   5.768  0.9481E+00  0.6735E+01
   5.778  0.9501E+00  0.6745E+01
   5.788  0.9520E+00  0.6754E+01
   5.798  0.9538E+00  0.6764E+01
   5.808  0.9555E+00  0.6773E+01
   5.818  0.9572E+00  0.6783E+01
   5.828  0.9589E+00  0.6792E+01
   5.838  0.9604E+00  0.6802E+01
   5.848  0.9619E+00  0.6812E+01
   5.858  0.9633E+00  0.6821E+01
   5.868  0.9646E+00  0.6831E+01
   5.878  0.9659E+00  0.6841E+01
   5.888  0.9670E+00  0.6850E+01
   5.898  0.9681E+00  0.6860E+01
   5.908  0.9690E+00  0.6870E+01
   5.918  0.9699E+00  0.6879E+01
   5.928  0.9706E+00  0.6889E+01
   5.938  0.9713E+00  0.6899E+01
   5.948  0.9718E+00  0.6909E+01
   5.958  0.9722E+00  0.6918E+01
   5.968  0.9725E+00  0.6928E+01
   5.978  0.9727E+00  0.6938E+01
   5.988  0.9728E+00  0.6947E+01
   5.998  0.9728E+00  0.6957E+01
   6.008  0.9726E+00  0.6967E+01
   6.018  0.9723E+00  0.6977E+01
   6.028  0.9719E+00  0.6986E+01
   6.038  0.9713E+00  0.6996E+01
   6.048  0.9706E+00  0.7006E+01
   6.058  0.9698E+00  0.7015E+01
   6.068  0.9689E+00  0.7025E+01
   6.078  0.9678E+00  0.7035E+01
   6.088  0.9666E+00  0.7044E+01
   6.098  0.9652E+00  0.7054E+01
   6.108  0.9637E+00  0.7064E+01
   6.118  0.9620E+00  0.7073E+01
   6.128  0.9603E+00  0.7083E+01
   6.138  0.9583E+00  0.7093E+01
   6.148  0.9563E+00  0.7102E+01
   6.158  0.9541E+00  0.7112E+01
   6.168  0.9517E+00  0.7121E+01
   6.178  0.9492E+00  0.7131E+01
   6.188  0.9466E+00  0.7140E+01
   6.198  0.9439E+00  0.7150E+01
   6.208  0.9410E+00  0.7159E+01
   6.218  0.9379E+00  0.7168E+01
   6.228  0.9348E+00  0.7178E+01
   6.238  0.9315E+00  0.7187E+01
   6.248  0.9280E+00  0.7196E+01
   6.258  0.9245E+00  0.7206E+01
   6.268  0.9208E+00  0.7215E+01
   6.278  0.9169E+00  0.7224E+01
   6.288  0.9130E+00  0.7233E+01
   6.298  0.9089E+00  0.7242E+01
   6.308  0.9048E+00  0.7251E+01
   6.318  0.9005E+00  0.7260E+01
   6.328  0.8961E+00  0.7269E+01
   6.338  0.8916E+00  0.7278E+01
   6.348  0.8869E+00  0.7287E+01
   6.358  0.8822E+00  0.7296E+01
   6.368  0.8774E+00  0.7305E+01
   6.378  0.8725E+00  0.7313E+01
   6.388  0.8675E+00  0.7322E+01
   6.398  0.8624E+00  0.7331E+01
   6.408  0.8572E+00  0.7339E+01
   6.418  0.8520E+00  0.7348E+01
   6.428  0.8467E+00  0.7356E+01
   6.438  0.8413E+00  0.7365E+01
   6.448  0.8359E+00  0.7373E+01
   6.458  0.8304E+00  0.7381E+01
   6.468  0.8248E+00  0.7389E+01
   6.478  0.8192E+00  0.7398E+01
   6.488  0.8136E+00  0.7406E+01
   6.498  0.8079E+00  0.7414E+01
   6.508  0.8022E+00  0.7422E+01
   6.518  0.7965E+00  0.7430E+01
   6.528  0.7907E+00  0.7438E+01
   6.538  0.7850E+00  0.7446E+01
   6.548  0.7792E+00  0.7453E+01
   6.558  0.7734E+00  0.7461E+01
   6.568  0.7676E+00  0.7469E+01
   6.578  0.7619E+00  0.7476E+01
   6.588  0.7561E+00  0.7484E+01
   6.598  0.7504E+00  0.7491E+01
   6.608  0.7447E+00  0.7499E+01
   6.618  0.7390E+00  0.7506E+01
   6.628  0.7333E+00  0.7514E+01
   6.638  0.7277E+00  0.7521E+01
   6.648  0.7222E+00  0.7528E+01
   6.658  0.7167E+00  0.7535E+01
   6.668  0.7112E+00  0.7542E+01
   6.678  0.7058E+00  0.7549E+01
   6.688  0.7005E+00  0.7556E+01
   6.698  0.6953E+00  0.7563E+01
   6.708  0.6901E+00  0.7570E+01
   6.718  0.6850E+00  0.7577E+01
   6.728  0.6800E+00  0.7584E+01
   6.738  0.6751E+00  0.7591E+01
   6.748  0.6703E+00  0.7597E+01
   6.758  0.6656E+00  0.7604E+01
   6.768  0.6610E+00  0.7611E+01
   6.778  0.6565E+00  0.7617E+01
   6.788  0.6522E+00  0.7624E+01
   6.798  0.6479E+00  0.7630E+01
   6.808  0.6438E+00  0.7637E+01
   6.818  0.6398E+00  0.7643E+01
   6.828  0.6360E+00  0.7649E+01
   6.838  0.6323E+00  0.7656E+01
   6.848  0.6287E+00  0.7662E+01
   6.858  0.6252E+00  0.7668E+01
   6.868  0.6220E+00  0.7675E+01
   6.878  0.6188E+00  0.7681E+01
   6.888  0.6158E+00  0.7687E+01
   6.898  0.6130E+00  0.7693E+01
   6.908  0.6103E+00  0.7699E+01
   6.918  0.6078E+00  0.7705E+01
   6.928  0.6054E+00  0.7711E+01
   6.938  0.6032E+00  0.7717E+01
   6.948  0.6012E+00  0.7723E+01
   6.958  0.5993E+00  0.7729E+01
   6.968  0.5976E+00  0.7735E+01
   6.978  0.5961E+00  0.7741E+01
   6.988  0.5947E+00  0.7747E+01
   6.998  0.5935E+00  0.7753E+01
   7.008  0.5925E+00  0.7759E+01
   7.018  0.5917E+00  0.7765E+01
   7.028  0.5910E+00  0.7771E+01
   7.038  0.5905E+00  0.7777E+01
   7.048  0.5902E+00  0.7783E+01
   7.058  0.5901E+00  0.7789E+01
   7.068  0.5901E+00  0.7794E+01
   7.078  0.5903E+00  0.7800E+01
   7.088  0.5907E+00  0.7806E+01
   7.098  0.5913E+00  0.7812E+01
   7.108  0.5920E+00  0.7818E+01
   7.118  0.5929E+00  0.7824E+01
   7.128  0.5939E+00  0.7830E+01
   7.138  0.5952E+00  0.7836E+01
   7.148  0.5966E+00  0.7842E+01
   7.158  0.5982E+00  0.7848E+01
   7.168  0.5999E+00  0.7854E+01
   7.178  0.6018E+00  0.7860E+01
   7.188  0.6038E+00  0.7866E+01
   7.198  0.6061E+00  0.7872E+01
   7.208  0.6084E+00  0.7878E+01
   7.218  0.6110E+00  0.7884E+01
   7.228  0.6137E+00  0.7890E+01
   7.238  0.6165E+00  0.7897E+01
   7.248  0.6195E+00  0.7903E+01
   7.258  0.6226E+00  0.7909E+01
   7.268  0.6259E+00  0.7915E+01
   7.278  0.6293E+00  0.7921E+01
   7.288  0.6329E+00  0.7928E+01
   7.298  0.6365E+00  0.7934E+01
   7.308  0.6404E+00  0.7941E+01
   7.318  0.6443E+00  0.7947E+01
   7.328  0.6484E+00  0.7954E+01
   7.338  0.6526E+00  0.7960E+01
   7.348  0.6569E+00  0.7967E+01
   7.358  0.6613E+00  0.7973E+01
   7.368  0.6658E+00  0.7980E+01
   7.378  0.6705E+00  0.7987E+01
   7.388  0.6752E+00  0.7993E+01
   7.398  0.6801E+00  0.8000E+01
   7.408  0.6850E+00  0.8007E+01
   7.418  0.6901E+00  0.8014E+01
   7.428  0.6952E+00  0.8021E+01
   7.438  0.7004E+00  0.8028E+01
   7.448  0.7057E+00  0.8035E+01
   7.458  0.7111E+00  0.8042E+01
   7.468  0.7166E+00  0.8049E+01
   7.478  0.7221E+00  0.8056E+01
   7.488  0.7277E+00  0.8064E+01
   7.498  0.7334E+00  0.8071E+01
   7.508  0.7391E+00  0.8078E+01
   7.518  0.7448E+00  0.8086E+01
   7.528  0.7506E+00  0.8093E+01
   7.538  0.7565E+00  0.8101E+01
   7.548  0.7624E+00  0.8109E+01
   7.558  0.7684E+00  0.8116E+01
   7.568  0.7743E+00  0.8124E+01
   7.578  0.7803E+00  0.8132E+01
   7.588  0.7864E+00  0.8140E+01
   7.598  0.7924E+00  0.8148E+01
   7.608  0.7985E+00  0.8156E+01
   7.618  0.8046E+00  0.8164E+01
   7.628  0.8107E+00  0.8172E+01
   7.638  0.8168E+00  0.8180E+01
   7.648  0.8229E+00  0.8188E+01
   7.658  0.8290E+00  0.8196E+01
   7.668  0.8350E+00  0.8205E+01
   7.678  0.8411E+00  0.8213E+01
   7.688  0.8472E+00  0.8222E+01
   7.698  0.8532E+00  0.8230E+01
   7.708  0.8592E+00  0.8239E+01
   7.718  0.8652E+00  0.8247E+01
   7.728  0.8711E+00  0.8256E+01
   7.738  0.8770E+00  0.8265E+01
   7.748  0.8829E+00  0.8274E+01
   7.758  0.8887E+00  0.8283E+01
   7.768  0.8945E+00  0.8292E+01
   7.778  0.9002E+00  0.8301E+01
   7.788  0.9059E+00  0.8310E+01
   7.798  0.9115E+00  0.8319E+01
   7.808  0.9170E+00  0.8328E+01
   7.818  0.9225E+00  0.8337E+01
   7.828  0.9278E+00  0.8346E+01
   7.838  0.9331E+00  0.8356E+01
   7.848  0.9384E+00  0.8365E+01
   7.858  0.9435E+00  0.8375E+01
   7.868  0.9485E+00  0.8384E+01
   7.878  0.9535E+00  0.8394E+01
   7.888  0.9583E+00  0.8403E+01
   7.898  0.9631E+00  0.8413E+01
   7.908  0.9677E+00  0.8422E+01
   7.918  0.9723E+00  0.8432E+01
   7.928  0.9767E+00  0.8442E+01
   7.938  0.9810E+00  0.8452E+01
   7.948  0.9852E+00  0.8462E+01
   7.958  0.9892E+00  0.8471E+01
   7.968  0.9932E+00  0.8481E+01
   7.978  0.9970E+00  0.8491E+01
   7.988  0.1001E+01  0.8501E+01
   7.998  0.1004E+01  0.8511E+01
   8.008  0.1008E+01  0.8522E+01
   8.018  0.1011E+01  0.8532E+01
   8.028  0.1014E+01  0.8542E+01
   8.038  0.1017E+01  0.8552E+01
   8.048  0.1020E+01  0.8562E+01
   8.058  0.1022E+01  0.8572E+01
   8.068  0.1025E+01  0.8583E+01
   8.078  0.1027E+01  0.8593E+01
   8.088  0.1030E+01  0.8603E+01
   8.098  0.1032E+01  0.8613E+01
   8.108  0.1033E+01  0.8624E+01
   8.118  0.1035E+01  0.8634E+01
   8.128  0.1037E+01  0.8645E+01
   8.138  0.1038E+01  0.8655E+01
   8.148  0.1039E+01  0.8665E+01
   8.158  0.1040E+01  0.8676E+01
   8.168  0.1041E+01  0.8686E+01
   8.178  0.1042E+01  0.8697E+01
   8.188  0.1042E+01  0.8707E+01
   8.198  0.1043E+01  0.8717E+01
   8.208  0.1043E+01  0.8728E+01
   8.218  0.1043E+01  0.8738E+01
   8.228  0.1043E+01  0.8749E+01
   8.238  0.1042E+01  0.8759E+01
   8.248  0.1042E+01  0.8770E+01
   8.258  0.1041E+01  0.8780E+01
   8.268  0.1040E+01  0.8790E+01
   8.278  0.1039E+01  0.8801E+01
   8.288  0.1038E+01  0.8811E+01
   8.298  0.1037E+01  0.8821E+01
   8.308  0.1035E+01  0.8832E+01
   8.318  0.1034E+01  0.8842E+01
   8.328  0.1032E+01  0.8852E+01
   8.338  0.1030E+01  0.8863E+01
   8.348  0.1028E+01  0.8873E+01
   8.358  0.1025E+01  0.8883E+01
   8.368  0.1023E+01  0.8894E+01
   8.378  0.1020E+01  0.8904E+01
   8.388  0.1018E+01  0.8914E+01
   8.398  0.1015E+01  0.8924E+01
   8.408  0.1012E+01  0.8934E+01
   8.418  0.1008E+01  0.8944E+01
   8.428  0.1005E+01  0.8954E+01
   8.438  0.1002E+01  0.8964E+01
   8.448  0.9983E+00  0.8974E+01
   8.458  0.9946E+00  0.8984E+01
   8.468  0.9909E+00  0.8994E+01
   8.478  0.9870E+00  0.9004E+01
   8.488  0.9830E+00  0.9014E+01
   8.498  0.9790E+00  0.9024E+01
   8.508  0.9748E+00  0.9033E+01
   8.518  0.9706E+00  0.9043E+01
   8.528  0.9663E+00  0.9053E+01
   8.538  0.9619E+00  0.9062E+01
   8.548  0.9575E+00  0.9072E+01
   8.558  0.9529E+00  0.9082E+01
   8.568  0.9484E+00  0.9091E+01
   8.578  0.9438E+00  0.9100E+01
   8.588  0.9391E+00  0.9110E+01
   8.598  0.9344E+00  0.9119E+01
   8.608  0.9297E+00  0.9128E+01
   8.618  0.9249E+00  0.9138E+01
   8.628  0.9202E+00  0.9147E+01
   8.638  0.9154E+00  0.9156E+01
   8.648  0.9106E+00  0.9165E+01
   8.658  0.9059E+00  0.9174E+01
   8.668  0.9011E+00  0.9183E+01
   8.678  0.8963E+00  0.9192E+01
   8.688  0.8916E+00  0.9201E+01
   8.698  0.8869E+00  0.9210E+01
   8.708  0.8823E+00  0.9219E+01
   8.718  0.8776E+00  0.9228E+01
   8.728  0.8731E+00  0.9236E+01
   8.738  0.8685E+00  0.9245E+01
   8.748  0.8641E+00  0.9254E+01
   8.758  0.8597E+00  0.9262E+01
   8.768  0.8554E+00  0.9271E+01
   8.778  0.8511E+00  0.9279E+01
   8.788  0.8470E+00  0.9288E+01
   8.798  0.8429E+00  0.9296E+01
   8.808  0.8389E+00  0.9305E+01
   8.818  0.8350E+00  0.9313E+01
   8.828  0.8313E+00  0.9321E+01
   8.838  0.8276E+00  0.9330E+01
   8.848  0.8240E+00  0.9338E+01
   8.858  0.8206E+00  0.9346E+01
   8.868  0.8173E+00  0.9354E+01
   8.878  0.8141E+00  0.9362E+01
   8.888  0.8111E+00  0.9370E+01
   8.898  0.8082E+00  0.9378E+01
   8.908  0.8054E+00  0.9387E+01
   8.918  0.8027E+00  0.9395E+01
   8.928  0.8002E+00  0.9403E+01
   8.938  0.7979E+00  0.9411E+01
   8.948  0.7957E+00  0.9419E+01
   8.958  0.7936E+00  0.9426E+01
   8.968  0.7918E+00  0.9434E+01
   8.978  0.7900E+00  0.9442E+01
   8.988  0.7884E+00  0.9450E+01
   8.998  0.7870E+00  0.9458E+01
   9.008  0.7857E+00  0.9466E+01
   9.018  0.7846E+00  0.9474E+01
   9.028  0.7837E+00  0.9482E+01
   9.038  0.7829E+00  0.9489E+01
   9.048  0.7823E+00  0.9497E+01
   9.058  0.7818E+00  0.9505E+01
   9.068  0.7815E+00  0.9513E+01
   9.078  0.7813E+00  0.9521E+01
   9.088  0.7813E+00  0.9528E+01
   9.098  0.7815E+00  0.9536E+01
   9.108  0.7818E+00  0.9544E+01
   9.118  0.7823E+00  0.9552E+01
   9.128  0.7829E+00  0.9560E+01
   9.138  0.7836E+00  0.9568E+01
   9.148  0.7845E+00  0.9575E+01
   9.158  0.7856E+00  0.9583E+01
   9.168  0.7868E+00  0.9591E+01
   9.178  0.7881E+00  0.9599E+01
   9.188  0.7896E+00  0.9607E+01
   9.198  0.7912E+00  0.9615E+01
   9.208  0.7929E+00  0.9623E+01
   9.218  0.7947E+00  0.9631E+01
   9.228  0.7966E+00  0.9639E+01
   9.238  0.7987E+00  0.9647E+01
   9.248  0.8009E+00  0.9655E+01
   9.258  0.8032E+00  0.9663E+01
   9.268  0.8055E+00  0.9671E+01
   9.278  0.8080E+00  0.9679E+01
   9.288  0.8106E+00  0.9687E+01
   9.298  0.8132E+00  0.9695E+01
   9.308  0.8160E+00  0.9703E+01
   9.318  0.8188E+00  0.9711E+01
   9.328  0.8216E+00  0.9720E+01
   9.338  0.8246E+00  0.9728E+01
   9.348  0.8276E+00  0.9736E+01
   9.358  0.8306E+00  0.9744E+01
   9.368  0.8337E+00  0.9753E+01
   9.378  0.8369E+00  0.9761E+01
   9.388  0.8401E+00  0.9770E+01
   9.398  0.8433E+00  0.9778E+01
   9.408  0.8465E+00  0.9786E+01
   9.418  0.8498E+00  0.9795E+01
   9.428  0.8531E+00  0.9804E+01
   9.438  0.8564E+00  0.9812E+01
   9.448  0.8597E+00  0.9821E+01
   9.458  0.8630E+00  0.9829E+01
   9.468  0.8663E+00  0.9838E+01
   9.478  0.8696E+00  0.9847E+01
   9.488  0.8729E+00  0.9855E+01
   9.498  0.8761E+00  0.9864E+01
   9.508  0.8793E+00  0.9873E+01
   9.518  0.8826E+00  0.9882E+01
   9.528  0.8857E+00  0.9891E+01
   9.538  0.8889E+00  0.9900E+01
   9.548  0.8920E+00  0.9908E+01
   9.558  0.8950E+00  0.9917E+01
   9.568  0.8980E+00  0.9926E+01
   9.578  0.9009E+00  0.9935E+01
   9.588  0.9038E+00  0.9944E+01
   9.598  0.9067E+00  0.9953E+01
   9.608  0.9094E+00  0.9963E+01
   9.618  0.9121E+00  0.9972E+01
   9.628  0.9147E+00  0.9981E+01
   9.638  0.9173E+00  0.9990E+01
   9.648  0.9198E+00  0.9999E+01
   9.658  0.9222E+00  0.1001E+02
   9.668  0.9245E+00  0.1002E+02
   9.678  0.9267E+00  0.1003E+02
   9.688  0.9289E+00  0.1004E+02
   9.698  0.9310E+00  0.1005E+02
   9.708  0.9329E+00  0.1005E+02
   9.718  0.9348E+00  0.1006E+02
   9.728  0.9366E+00  0.1007E+02
   9.738  0.9384E+00  0.1008E+02
   9.748  0.9400E+00  0.1009E+02
   9.758  0.9415E+00  0.1010E+02
   9.768  0.9430E+00  0.1011E+02
   9.778  0.9443E+00  0.1012E+02
   9.788  0.9456E+00  0.1013E+02
   9.798  0.9467E+00  0.1014E+02
   9.808  0.9478E+00  0.1015E+02
   9.818  0.9488E+00  0.1016E+02
   9.828  0.9497E+00  0.1017E+02
   9.838  0.9505E+00  0.1018E+02
   9.848  0.9512E+00  0.1019E+02
   9.858  0.9519E+00  0.1020E+02
   9.868  0.9524E+00  0.1021E+02
   9.878  0.9529E+00  0.1022E+02
   9.888  0.9533E+00  0.1023E+02
   9.898  0.9536E+00  0.1023E+02
   9.908  0.9538E+00  0.1024E+02
   9.918  0.9540E+00  0.1025E+02
   9.928  0.9541E+00  0.1026E+02
   9.938  0.9541E+00  0.1027E+02
   9.948  0.9540E+00  0.1028E+02
   9.958  0.9539E+00  0.1029E+02
   9.968  0.9538E+00  0.1030E+02
   9.978  0.9535E+00  0.1031E+02
   9.988  0.9532E+00  0.1032E+02
   9.998  0.9529E+00  0.1033E+02
  10.008  0.9525E+00  0.1034E+02
  10.018  0.9521E+00  0.1035E+02
  10.028  0.9516E+00  0.1036E+02
  10.038  0.9511E+00  0.1037E+02
  10.048  0.9506E+00  0.1038E+02
  10.058  0.9500E+00  0.1039E+02
  10.068  0.9494E+00  0.1040E+02
  10.078  0.9487E+00  0.1041E+02
  10.088  0.9481E+00  0.1042E+02
  10.098  0.9474E+00  0.1043E+02
  10.108  0.9467E+00  0.1043E+02
  10.118  0.9460E+00  0.1044E+02
  10.128  0.9452E+00  0.1045E+02
  10.138  0.9445E+00  0.1046E+02
  10.148  0.9438E+00  0.1047E+02
  10.158  0.9430E+00  0.1048E+02
  10.168  0.9423E+00  0.1049E+02
  10.178  0.9416E+00  0.1050E+02
  10.188  0.9408E+00  0.1051E+02
  10.198  0.9401E+00  0.1052E+02
  10.208  0.9394E+00  0.1053E+02
  10.218  0.9387E+00  0.1054E+02
  10.228  0.9381E+00  0.1055E+02
  10.238  0.9374E+00  0.1056E+02
  10.248  0.9368E+00  0.1057E+02
  10.258  0.9362E+00  0.1058E+02
  10.268  0.9356E+00  0.1059E+02
  10.278  0.9350E+00  0.1059E+02
  10.288  0.9345E+00  0.1060E+02
  10.298  0.9340E+00  0.1061E+02
  10.308  0.9336E+00  0.1062E+02
  10.318  0.9332E+00  0.1063E+02
  10.328  0.9328E+00  0.1064E+02
  10.338  0.9324E+00  0.1065E+02
  10.348  0.9321E+00  0.1066E+02
  10.358  0.9318E+00  0.1067E+02
  10.368  0.9316E+00  0.1068E+02
  10.378  0.9314E+00  0.1069E+02
  10.388  0.9312E+00  0.1070E+02
  10.398  0.9311E+00  0.1071E+02
  10.408  0.9310E+00  0.1072E+02
  10.418  0.9309E+00  0.1072E+02
  10.428  0.9309E+00  0.1073E+02
  10.438  0.9309E+00  0.1074E+02
  10.448  0.9310E+00  0.1075E+02
  10.458  0.9311E+00  0.1076E+02
  10.468  0.9312E+00  0.1077E+02
  10.478  0.9314E+00  0.1078E+02
  10.488  0.9316E+00  0.1079E+02
  10.498  0.9319E+00  0.1080E+02
  10.508  0.9321E+00  0.1081E+02
  10.518  0.9324E+00  0.1082E+02
  10.528  0.9328E+00  0.1083E+02
  10.538  0.9331E+00  0.1084E+02
  10.548  0.9335E+00  0.1085E+02
  10.558  0.9339E+00  0.1086E+02
  10.568  0.9344E+00  0.1086E+02
  10.578  0.9348E+00  0.1087E+02
  10.588  0.9353E+00  0.1088E+02
  10.598  0.9358E+00  0.1089E+02
  10.608  0.9363E+00  0.1090E+02
  10.618  0.9368E+00  0.1091E+02
  10.628  0.9374E+00  0.1092E+02
  10.638  0.9379E+00  0.1093E+02
  10.648  0.9385E+00  0.1094E+02
  10.658  0.9390E+00  0.1095E+02
  10.668  0.9396E+00  0.1096E+02
  10.678  0.9402E+00  0.1097E+02
  10.688  0.9407E+00  0.1098E+02
  10.698  0.9413E+00  0.1099E+02
  10.708  0.9419E+00  0.1100E+02
  10.718  0.9424E+00  0.1101E+02
  10.728  0.9430E+00  0.1101E+02
  10.738  0.9435E+00  0.1102E+02
  10.748  0.9440E+00  0.1103E+02
  10.758  0.9445E+00  0.1104E+02
  10.768  0.9450E+00  0.1105E+02
  10.778  0.9455E+00  0.1106E+02
  10.788  0.9460E+00  0.1107E+02
  10.798  0.9464E+00  0.1108E+02
  10.808  0.9468E+00  0.1109E+02
  10.818  0.9472E+00  0.1110E+02
  10.828  0.9476E+00  0.1111E+02
  10.838  0.9479E+00  0.1112E+02
  10.848  0.9482E+00  0.1113E+02
  10.858  0.9485E+00  0.1114E+02
  10.868  0.9488E+00  0.1115E+02
  10.878  0.9490E+00  0.1116E+02
  10.888  0.9492E+00  0.1117E+02
  10.898  0.9493E+00  0.1118E+02
  10.908  0.9495E+00  0.1119E+02
  10.918  0.9496E+00  0.1119E+02
  10.928  0.9496E+00  0.1120E+02
  10.938  0.9497E+00  0.1121E+02
  10.948  0.9497E+00  0.1122E+02
  10.958  0.9496E+00  0.1123E+02
  10.968  0.9496E+00  0.1124E+02
  10.978  0.9495E+00  0.1125E+02
  10.988  0.9493E+00  0.1126E+02
  10.998  0.9492E+00  0.1127E+02
  11.008  0.9490E+00  0.1128E+02
  11.018  0.9488E+00  0.1129E+02
  11.028  0.9486E+00  0.1130E+02
  11.038  0.9483E+00  0.1131E+02
  11.048  0.9480E+00  0.1132E+02
  11.058  0.9477E+00  0.1133E+02
  11.068  0.9474E+00  0.1134E+02
  11.078  0.9470E+00  0.1135E+02
  11.088  0.9466E+00  0.1136E+02
  11.098  0.9462E+00  0.1137E+02
  11.108  0.9458E+00  0.1138E+02
  11.118  0.9454E+00  0.1138E+02
  11.128  0.9450E+00  0.1139E+02
  11.138  0.9446E+00  0.1140E+02
  11.148  0.9442E+00  0.1141E+02
  11.158  0.9437E+00  0.1142E+02
  11.168  0.9433E+00  0.1143E+02
  11.178  0.9429E+00  0.1144E+02
  11.188  0.9424E+00  0.1145E+02
  11.198  0.9420E+00  0.1146E+02
  11.208  0.9416E+00  0.1147E+02
  11.218  0.9412E+00  0.1148E+02
  11.228  0.9409E+00  0.1149E+02
  11.238  0.9405E+00  0.1150E+02
  11.248  0.9402E+00  0.1151E+02
  11.258  0.9399E+00  0.1152E+02
  11.268  0.9397E+00  0.1153E+02
  11.278  0.9394E+00  0.1154E+02
  11.288  0.9393E+00  0.1154E+02
  11.298  0.9391E+00  0.1155E+02
  11.308  0.9390E+00  0.1156E+02
  11.318  0.9389E+00  0.1157E+02
  11.328  0.9389E+00  0.1158E+02
  11.338  0.9390E+00  0.1159E+02
  11.348  0.9391E+00  0.1160E+02
  11.358  0.9392E+00  0.1161E+02
  11.368  0.9394E+00  0.1162E+02
  11.378  0.9397E+00  0.1163E+02
  11.388  0.9401E+00  0.1164E+02
  11.398  0.9405E+00  0.1165E+02
  11.408  0.9410E+00  0.1166E+02
  11.418  0.9415E+00  0.1167E+02
  11.428  0.9422E+00  0.1168E+02
  11.438  0.9429E+00  0.1169E+02
  11.448  0.9437E+00  0.1170E+02
  11.458  0.9445E+00  0.1170E+02
  11.468  0.9455E+00  0.1171E+02
  11.478  0.9466E+00  0.1172E+02
  11.488  0.9477E+00  0.1173E+02
  11.498  0.9489E+00  0.1174E+02
  11.508  0.9502E+00  0.1175E+02
  11.518  0.9516E+00  0.1176E+02
  11.528  0.9531E+00  0.1177E+02
  11.538  0.9547E+00  0.1178E+02
  11.548  0.9564E+00  0.1179E+02
  11.558  0.9582E+00  0.1180E+02
  11.568  0.9601E+00  0.1181E+02
  11.578  0.9620E+00  0.1182E+02
  11.588  0.9641E+00  0.1183E+02
  11.598  0.9663E+00  0.1184E+02
  11.608  0.9685E+00  0.1185E+02
  11.618  0.9709E+00  0.1186E+02
  11.628  0.9733E+00  0.1187E+02
  11.638  0.9758E+00  0.1188E+02
  11.648  0.9785E+00  0.1189E+02
  11.658  0.9812E+00  0.1190E+02
  11.668  0.9840E+00  0.1191E+02
  11.678  0.9868E+00  0.1192E+02
  11.688  0.9898E+00  0.1193E+02
  11.698  0.9928E+00  0.1194E+02
  11.708  0.9960E+00  0.1195E+02
  11.718  0.9992E+00  0.1196E+02
  11.728  0.1002E+01  0.1197E+02
  11.738  0.1006E+01  0.1198E+02
  11.748  0.1009E+01  0.1199E+02
  11.758  0.1013E+01  0.1200E+02
  11.768  0.1016E+01  0.1201E+02
  11.778  0.1020E+01  0.1202E+02
  11.788  0.1023E+01  0.1203E+02
  11.798  0.1027E+01  0.1204E+02
  11.808  0.1031E+01  0.1205E+02
  11.818  0.1035E+01  0.1206E+02
  11.828  0.1039E+01  0.1207E+02
  11.838  0.1042E+01  0.1208E+02
  11.848  0.1046E+01  0.1209E+02
  11.858  0.1050E+01  0.1210E+02
  11.868  0.1054E+01  0.1211E+02
  11.878  0.1058E+01  0.1212E+02
  11.888  0.1062E+01  0.1213E+02
  11.898  0.1066E+01  0.1214E+02
  11.908  0.1070E+01  0.1215E+02
  11.918  0.1074E+01  0.1216E+02
  11.928  0.1078E+01  0.1217E+02
  11.938  0.1082E+01  0.1219E+02
  11.948  0.1086E+01  0.1220E+02
  11.958  0.1090E+01  0.1221E+02
  11.968  0.1094E+01  0.1222E+02
  11.978  0.1098E+01  0.1223E+02
  11.988  0.1102E+01  0.1224E+02
  11.998  0.1106E+01  0.1225E+02
  12.008  0.1110E+01  0.1226E+02
  12.018  0.1114E+01  0.1227E+02
  12.028  0.1117E+01  0.1228E+02
  12.038  0.1121E+01  0.1230E+02
  12.048  0.1125E+01  0.1231E+02
  12.058  0.1128E+01  0.1232E+02
  12.068  0.1132E+01  0.1233E+02
  12.078  0.1135E+01  0.1234E+02
  12.088  0.1139E+01  0.1235E+02
  12.098  0.1142E+01  0.1236E+02
  12.108  0.1145E+01  0.1238E+02
  12.118  0.1148E+01  0.1239E+02
  12.128  0.1152E+01  0.1240E+02
  12.138  0.1154E+01  0.1241E+02
  12.148  0.1157E+01  0.1242E+02
  12.158  0.1160E+01  0.1243E+02
  12.168  0.1163E+01  0.1244E+02
  12.178  0.1165E+01  0.1246E+02
  12.188  0.1168E+01  0.1247E+02
  12.198  0.1170E+01  0.1248E+02
  12.208  0.1173E+01  0.1249E+02
  12.218  0.1175E+01  0.1250E+02
  12.228  0.1177E+01  0.1251E+02
  12.238  0.1179E+01  0.1253E+02
  12.248  0.1180E+01  0.1254E+02
  12.258  0.1182E+01  0.1255E+02
  12.268  0.1184E+01  0.1256E+02
  12.278  0.1185E+01  0.1257E+02
  12.288  0.1187E+01  0.1259E+02
  12.298  0.1188E+01  0.1260E+02
  12.308  0.1189E+01  0.1261E+02
  12.318  0.1190E+01  0.1262E+02
  12.328  0.1191E+01  0.1263E+02
  12.338  0.1191E+01  0.1265E+02
  12.348  0.1192E+01  0.1266E+02
  12.358  0.1193E+01  0.1267E+02
  12.368  0.1193E+01  0.1268E+02
  12.378  0.1193E+01  0.1269E+02
  12.388  0.1193E+01  0.1270E+02
  12.398  0.1193E+01  0.1272E+02
  12.408  0.1193E+01  0.1273E+02
  12.418  0.1193E+01  0.1274E+02
  12.428  0.1193E+01  0.1275E+02
  12.438  0.1192E+01  0.1276E+02
  12.448  0.1192E+01  0.1278E+02
  12.458  0.1191E+01  0.1279E+02
  12.468  0.1190E+01  0.1280E+02
  12.478  0.1189E+01  0.1281E+02
  12.488  0.1189E+01  0.1282E+02
  12.498  0.1187E+01  0.1284E+02
  12.508  0.1186E+01  0.1285E+02
  12.518  0.1185E+01  0.1286E+02
  12.528  0.1184E+01  0.1287E+02
  12.538  0.1182E+01  0.1288E+02
  12.548  0.1181E+01  0.1290E+02
  12.558  0.1179E+01  0.1291E+02
  12.568  0.1178E+01  0.1292E+02
  12.578  0.1176E+01  0.1293E+02
  12.588  0.1174E+01  0.1294E+02
  12.598  0.1172E+01  0.1295E+02
  12.608  0.1170E+01  0.1297E+02
  12.618  0.1168E+01  0.1298E+02
  12.628  0.1166E+01  0.1299E+02
  12.638  0.1164E+01  0.1300E+02
  12.648  0.1162E+01  0.1301E+02
  12.658  0.1160E+01  0.1302E+02
  12.668  0.1158E+01  0.1304E+02
  12.678  0.1156E+01  0.1305E+02
  12.688  0.1154E+01  0.1306E+02
  12.698  0.1151E+01  0.1307E+02
  12.708  0.1149E+01  0.1308E+02
  12.718  0.1147E+01  0.1309E+02
  12.728  0.1145E+01  0.1310E+02
  12.738  0.1142E+01  0.1312E+02
  12.748  0.1140E+01  0.1313E+02
  12.758  0.1138E+01  0.1314E+02
  12.768  0.1136E+01  0.1315E+02
  12.778  0.1133E+01  0.1316E+02
  12.788  0.1131E+01  0.1317E+02
  12.798  0.1129E+01  0.1318E+02
  12.808  0.1127E+01  0.1320E+02
  12.818  0.1125E+01  0.1321E+02
  12.828  0.1123E+01  0.1322E+02
  12.838  0.1121E+01  0.1323E+02
  12.848  0.1119E+01  0.1324E+02
  12.858  0.1117E+01  0.1325E+02
  12.868  0.1115E+01  0.1326E+02
  12.878  0.1113E+01  0.1327E+02
  12.888  0.1112E+01  0.1328E+02
  12.898  0.1110E+01  0.1330E+02
  12.908  0.1109E+01  0.1331E+02
  12.918  0.1107E+01  0.1332E+02
  12.928  0.1106E+01  0.1333E+02
  12.938  0.1105E+01  0.1334E+02
  12.948  0.1104E+01  0.1335E+02
  12.958  0.1103E+01  0.1336E+02
  12.968  0.1102E+01  0.1337E+02
  12.978  0.1101E+01  0.1338E+02
  12.988  0.1100E+01  0.1340E+02
  12.998  0.1100E+01  0.1341E+02
  13.008  0.1099E+01  0.1342E+02
  13.018  0.1099E+01  0.1343E+02
  13.028  0.1099E+01  0.1344E+02
  13.038  0.1099E+01  0.1345E+02
  13.048  0.1099E+01  0.1346E+02
  13.058  0.1099E+01  0.1347E+02
  13.068  0.1099E+01  0.1348E+02
  13.078  0.1100E+01  0.1349E+02
  13.088  0.1101E+01  0.1350E+02
  13.098  0.1102E+01  0.1352E+02
  13.108  0.1103E+01  0.1353E+02
  13.118  0.1104E+01  0.1354E+02
  13.128  0.1105E+01  0.1355E+02
  13.138  0.1107E+01  0.1356E+02
  13.148  0.1109E+01  0.1357E+02
  13.158  0.1110E+01  0.1358E+02
  13.168  0.1112E+01  0.1359E+02
  13.178  0.1115E+01  0.1360E+02
  13.188  0.1117E+01  0.1362E+02
  13.198  0.1120E+01  0.1363E+02
  13.208  0.1123E+01  0.1364E+02
  13.218  0.1125E+01  0.1365E+02
  13.228  0.1129E+01  0.1366E+02
  13.238  0.1132E+01  0.1367E+02
  13.248  0.1135E+01  0.1368E+02
  13.258  0.1139E+01  0.1369E+02
  13.268  0.1143E+01  0.1371E+02
  13.278  0.1147E+01  0.1372E+02
  13.288  0.1151E+01  0.1373E+02
  13.298  0.1156E+01  0.1374E+02
  13.308  0.1160E+01  0.1375E+02
  13.318  0.1165E+01  0.1376E+02
  13.328  0.1170E+01  0.1378E+02
  13.338  0.1175E+01  0.1379E+02
  13.348  0.1181E+01  0.1380E+02
  13.358  0.1186E+01  0.1381E+02
  13.368  0.1192E+01  0.1382E+02
  13.378  0.1197E+01  0.1384E+02
  13.388  0.1203E+01  0.1385E+02
  13.398  0.1210E+01  0.1386E+02
  13.408  0.1216E+01  0.1387E+02
  13.418  0.1222E+01  0.1388E+02
  13.428  0.1229E+01  0.1390E+02
  13.438  0.1236E+01  0.1391E+02
  13.448  0.1242E+01  0.1392E+02
  13.458  0.1249E+01  0.1393E+02
  13.468  0.1257E+01  0.1395E+02
  13.478  0.1264E+01  0.1396E+02
  13.488  0.1271E+01  0.1397E+02
  13.498  0.1279E+01  0.1398E+02
  13.508  0.1286E+01  0.1400E+02
  13.518  0.1294E+01  0.1401E+02
  13.528  0.1302E+01  0.1402E+02
  13.538  0.1309E+01  0.1404E+02
  13.548  0.1317E+01  0.1405E+02
  13.558  0.1325E+01  0.1406E+02
  13.568  0.1333E+01  0.1408E+02
  13.578  0.1341E+01  0.1409E+02
  13.588  0.1349E+01  0.1410E+02
  13.598  0.1358E+01  0.1412E+02
  13.608  0.1366E+01  0.1413E+02
  13.618  0.1374E+01  0.1414E+02
  13.628  0.1382E+01  0.1416E+02
  13.638  0.1390E+01  0.1417E+02
  13.648  0.1399E+01  0.1419E+02
  13.658  0.1407E+01  0.1420E+02
  13.668  0.1415E+01  0.1421E+02
  13.678  0.1423E+01  0.1423E+02
  13.688  0.1431E+01  0.1424E+02
  13.698  0.1439E+01  0.1426E+02
  13.708  0.1447E+01  0.1427E+02
  13.718  0.1455E+01  0.1429E+02
  13.728  0.1463E+01  0.1430E+02
  13.738  0.1470E+01  0.1431E+02
  13.748  0.1478E+01  0.1433E+02
  13.758  0.1485E+01  0.1434E+02
  13.768  0.1493E+01  0.1436E+02
  13.778  0.1500E+01  0.1437E+02
  13.788  0.1507E+01  0.1439E+02
  13.798  0.1514E+01  0.1440E+02
  13.808  0.1521E+01  0.1442E+02
  13.818  0.1527E+01  0.1443E+02
  13.828  0.1534E+01  0.1445E+02
  13.838  0.1540E+01  0.1447E+02
  13.848  0.1546E+01  0.1448E+02
  13.858  0.1552E+01  0.1450E+02
  13.868  0.1558E+01  0.1451E+02
  13.878  0.1563E+01  0.1453E+02
  13.888  0.1568E+01  0.1454E+02
  13.898  0.1574E+01  0.1456E+02
  13.908  0.1578E+01  0.1457E+02
  13.918  0.1583E+01  0.1459E+02
  13.928  0.1587E+01  0.1461E+02
  13.938  0.1591E+01  0.1462E+02
  13.948  0.1595E+01  0.1464E+02
  13.958  0.1598E+01  0.1465E+02
  13.968  0.1602E+01  0.1467E+02
  13.978  0.1605E+01  0.1469E+02
  13.988  0.1607E+01  0.1470E+02
  13.998  0.1610E+01  0.1472E+02
  14.008  0.1612E+01  0.1473E+02
  14.018  0.1613E+01  0.1475E+02
  14.028  0.1615E+01  0.1477E+02
  14.038  0.1616E+01  0.1478E+02
  14.048  0.1617E+01  0.1480E+02
  14.058  0.1618E+01  0.1482E+02
  14.068  0.1618E+01  0.1483E+02
  14.078  0.1618E+01  0.1485E+02
  14.088  0.1618E+01  0.1486E+02
  14.098  0.1617E+01  0.1488E+02
  14.108  0.1616E+01  0.1490E+02
  14.118  0.1615E+01  0.1491E+02
  14.128  0.1613E+01  0.1493E+02
  14.138  0.1611E+01  0.1494E+02
  14.148  0.1609E+01  0.1496E+02
  14.158  0.1607E+01  0.1498E+02
  14.168  0.1604E+01  0.1499E+02
  14.178  0.1601E+01  0.1501E+02
  14.188  0.1598E+01  0.1503E+02
  14.198  0.1594E+01  0.1504E+02
  14.208  0.1590E+01  0.1506E+02
  14.218  0.1586E+01  0.1507E+02
  14.228  0.1581E+01  0.1509E+02
  14.238  0.1576E+01  0.1510E+02
  14.248  0.1571E+01  0.1512E+02
  14.258  0.1566E+01  0.1514E+02
  14.268  0.1560E+01  0.1515E+02
  14.278  0.1554E+01  0.1517E+02
  14.288  0.1548E+01  0.1518E+02
  14.298  0.1542E+01  0.1520E+02
  14.308  0.1535E+01  0.1521E+02
  14.318  0.1528E+01  0.1523E+02
  14.328  0.1521E+01  0.1524E+02
  14.338  0.1514E+01  0.1526E+02
  14.348  0.1506E+01  0.1527E+02
  14.358  0.1498E+01  0.1529E+02
  14.368  0.1490E+01  0.1530E+02
  14.378  0.1482E+01  0.1532E+02
  14.388  0.1474E+01  0.1533E+02
  14.398  0.1465E+01  0.1535E+02
  14.408  0.1456E+01  0.1536E+02
  14.418  0.1447E+01  0.1538E+02
  14.428  0.1438E+01  0.1539E+02
  14.438  0.1429E+01  0.1541E+02
  14.448  0.1420E+01  0.1542E+02
  14.458  0.1410E+01  0.1543E+02
  14.468  0.1400E+01  0.1545E+02
  14.478  0.1390E+01  0.1546E+02
  14.488  0.1381E+01  0.1548E+02
  14.498  0.1370E+01  0.1549E+02
  14.508  0.1360E+01  0.1550E+02
  14.518  0.1350E+01  0.1552E+02
  14.528  0.1340E+01  0.1553E+02
  14.538  0.1329E+01  0.1554E+02
  14.548  0.1319E+01  0.1556E+02
  14.558  0.1308E+01  0.1557E+02
  14.568  0.1298E+01  0.1558E+02
  14.578  0.1287E+01  0.1560E+02
  14.588  0.1276E+01  0.1561E+02
  14.598  0.1265E+01  0.1562E+02
  14.608  0.1254E+01  0.1563E+02
  14.618  0.1244E+01  0.1565E+02
  14.628  0.1233E+01  0.1566E+02
  14.638  0.1222E+01  0.1567E+02
  14.648  0.1211E+01  0.1568E+02
  14.658  0.1200E+01  0.1569E+02
  14.668  0.1189E+01  0.1571E+02
  14.678  0.1178E+01  0.1572E+02
  14.688  0.1167E+01  0.1573E+02
  14.698  0.1156E+01  0.1574E+02
  14.708  0.1146E+01  0.1575E+02
  14.718  0.1135E+01  0.1576E+02
  14.728  0.1124E+01  0.1578E+02
  14.738  0.1113E+01  0.1579E+02
  14.748  0.1103E+01  0.1580E+02
  14.758  0.1092E+01  0.1581E+02
  14.768  0.1081E+01  0.1582E+02
  14.778  0.1071E+01  0.1583E+02
  14.788  0.1060E+01  0.1584E+02
  14.798  0.1050E+01  0.1585E+02
  14.808  0.1040E+01  0.1586E+02
  14.818  0.1030E+01  0.1587E+02
  14.828  0.1019E+01  0.1588E+02
  14.838  0.1009E+01  0.1589E+02
  14.848  0.9993E+00  0.1590E+02
  14.858  0.9894E+00  0.1591E+02
  14.868  0.9796E+00  0.1592E+02
  14.878  0.9700E+00  0.1593E+02
  14.888  0.9604E+00  0.1594E+02
  14.898  0.9509E+00  0.1595E+02
  14.908  0.9415E+00  0.1596E+02
  14.918  0.9322E+00  0.1597E+02
  14.928  0.9231E+00  0.1598E+02
  14.938  0.9141E+00  0.1599E+02
  14.948  0.9052E+00  0.1600E+02
  14.958  0.8964E+00  0.1601E+02
  14.968  0.8877E+00  0.1601E+02
  14.978  0.8791E+00  0.1602E+02
  14.988  0.8707E+00  0.1603E+02
  14.998  0.8624E+00  0.1604E+02
  15.008  0.8543E+00  0.1605E+02
  15.018  0.8463E+00  0.1606E+02
  15.028  0.8384E+00  0.1607E+02
  15.038  0.8306E+00  0.1607E+02
  15.048  0.8230E+00  0.1608E+02
  15.058  0.8156E+00  0.1609E+02
  15.068  0.8082E+00  0.1610E+02
  15.078  0.8010E+00  0.1611E+02
  15.088  0.7940E+00  0.1611E+02
  15.098  0.7871E+00  0.1612E+02
  15.108  0.7803E+00  0.1613E+02
  15.118  0.7737E+00  0.1614E+02
  15.128  0.7673E+00  0.1615E+02
  15.138  0.7610E+00  0.1615E+02
  15.148  0.7548E+00  0.1616E+02
  15.158  0.7488E+00  0.1617E+02
  15.168  0.7429E+00  0.1618E+02
  15.178  0.7372E+00  0.1618E+02
  15.188  0.7316E+00  0.1619E+02
  15.198  0.7262E+00  0.1620E+02
  15.208  0.7209E+00  0.1620E+02
  15.218  0.7157E+00  0.1621E+02
  15.228  0.7107E+00  0.1622E+02
  15.238  0.7059E+00  0.1623E+02
  15.248  0.7012E+00  0.1623E+02
  15.258  0.6966E+00  0.1624E+02
  15.268  0.6922E+00  0.1625E+02
  15.278  0.6880E+00  0.1625E+02
  15.288  0.6839E+00  0.1626E+02
  15.298  0.6799E+00  0.1627E+02
  15.308  0.6760E+00  0.1627E+02
  15.318  0.6723E+00  0.1628E+02
  15.328  0.6688E+00  0.1629E+02
  15.338  0.6653E+00  0.1629E+02
  15.348  0.6620E+00  0.1630E+02
  15.358  0.6589E+00  0.1631E+02
  15.368  0.6558E+00  0.1631E+02
  15.378  0.6529E+00  0.1632E+02
  15.388  0.6501E+00  0.1633E+02
  15.398  0.6475E+00  0.1633E+02
  15.408  0.6450E+00  0.1634E+02
  15.418  0.6425E+00  0.1635E+02
  15.428  0.6403E+00  0.1635E+02
  15.438  0.6381E+00  0.1636E+02
  15.448  0.6360E+00  0.1637E+02
  15.458  0.6340E+00  0.1637E+02
  15.468  0.6322E+00  0.1638E+02
  15.478  0.6304E+00  0.1638E+02
  15.488  0.6288E+00  0.1639E+02
  15.498  0.6273E+00  0.1640E+02
  15.508  0.6258E+00  0.1640E+02
  15.518  0.6244E+00  0.1641E+02
  15.528  0.6232E+00  0.1642E+02
  15.538  0.6220E+00  0.1642E+02
  15.548  0.6209E+00  0.1643E+02
  15.558  0.6199E+00  0.1643E+02
  15.568  0.6189E+00  0.1644E+02
  15.578  0.6181E+00  0.1645E+02
  15.588  0.6173E+00  0.1645E+02
  15.598  0.6166E+00  0.1646E+02
  15.608  0.6159E+00  0.1647E+02
  15.618  0.6153E+00  0.1647E+02
  15.628  0.6148E+00  0.1648E+02
  15.638  0.6143E+00  0.1648E+02
  15.648  0.6138E+00  0.1649E+02
  15.658  0.6135E+00  0.1650E+02
  15.668  0.6131E+00  0.1650E+02
  15.678  0.6128E+00  0.1651E+02
  15.688  0.6126E+00  0.1651E+02
  15.698  0.6124E+00  0.1652E+02
  15.708  0.6122E+00  0.1653E+02
  15.718  0.6121E+00  0.1653E+02
  15.728  0.6119E+00  0.1654E+02
  15.738  0.6118E+00  0.1655E+02
  15.748  0.6118E+00  0.1655E+02
  15.758  0.6117E+00  0.1656E+02
  15.768  0.6117E+00  0.1656E+02
  15.778  0.6117E+00  0.1657E+02
  15.788  0.6117E+00  0.1658E+02
  15.798  0.6117E+00  0.1658E+02
  15.808  0.6118E+00  0.1659E+02
  15.818  0.6118E+00  0.1659E+02
  15.828  0.6118E+00  0.1660E+02
  15.838  0.6119E+00  0.1661E+02
  15.848  0.6119E+00  0.1661E+02
  15.858  0.6120E+00  0.1662E+02
  15.868  0.6120E+00  0.1662E+02
  15.878  0.6121E+00  0.1663E+02
  15.888  0.6121E+00  0.1664E+02
  15.898  0.6121E+00  0.1664E+02
  15.908  0.6122E+00  0.1665E+02
  15.918  0.6122E+00  0.1666E+02
  15.928  0.6122E+00  0.1666E+02
  15.938  0.6122E+00  0.1667E+02
  15.948  0.6122E+00  0.1667E+02
  15.958  0.6122E+00  0.1668E+02
  15.968  0.6122E+00  0.1669E+02
  15.978  0.6122E+00  0.1669E+02
  15.988  0.6121E+00  0.1670E+02
  15.998  0.6121E+00  0.1670E+02
  16.008  0.6120E+00  0.1671E+02
  16.018  0.6120E+00  0.1672E+02
  16.028  0.6119E+00  0.1672E+02
  16.038  0.6118E+00  0.1673E+02
  16.048  0.6117E+00  0.1674E+02
  16.058  0.6116E+00  0.1674E+02
  16.068  0.6115E+00  0.1675E+02
  16.078  0.6114E+00  0.1675E+02
  16.088  0.6112E+00  0.1676E+02
  16.098  0.6111E+00  0.1677E+02
  16.108  0.6109E+00  0.1677E+02
  16.118  0.6108E+00  0.1678E+02
  16.128  0.6106E+00  0.1678E+02
  16.138  0.6105E+00  0.1679E+02
  16.148  0.6103E+00  0.1680E+02
  16.158  0.6102E+00  0.1680E+02
  16.168  0.6100E+00  0.1681E+02
  16.178  0.6098E+00  0.1681E+02
  16.188  0.6097E+00  0.1682E+02
  16.198  0.6095E+00  0.1683E+02
  16.208  0.6094E+00  0.1683E+02
  16.218  0.6093E+00  0.1684E+02
  16.228  0.6091E+00  0.1684E+02
  16.238  0.6090E+00  0.1685E+02
  16.248  0.6089E+00  0.1686E+02
  16.258  0.6088E+00  0.1686E+02
  16.268  0.6087E+00  0.1687E+02
  16.278  0.6086E+00  0.1688E+02
  16.288  0.6086E+00  0.1688E+02
  16.298  0.6086E+00  0.1689E+02
  16.308  0.6085E+00  0.1689E+02
  16.318  0.6085E+00  0.1690E+02
  16.328  0.6086E+00  0.1691E+02
  16.338  0.6086E+00  0.1691E+02
  16.348  0.6087E+00  0.1692E+02
  16.358  0.6088E+00  0.1692E+02
  16.368  0.6089E+00  0.1693E+02
  16.378  0.6091E+00  0.1694E+02
  16.388  0.6092E+00  0.1694E+02
  16.398  0.6095E+00  0.1695E+02
  16.408  0.6097E+00  0.1695E+02
  16.418  0.6100E+00  0.1696E+02
  16.428  0.6103E+00  0.1697E+02
  16.438  0.6106E+00  0.1697E+02
  16.448  0.6110E+00  0.1698E+02
  16.458  0.6115E+00  0.1699E+02
  16.468  0.6119E+00  0.1699E+02
  16.478  0.6124E+00  0.1700E+02
  16.488  0.6130E+00  0.1700E+02
  16.498  0.6136E+00  0.1701E+02
  16.508  0.6142E+00  0.1702E+02
  16.518  0.6149E+00  0.1702E+02
  16.528  0.6156E+00  0.1703E+02
  16.538  0.6163E+00  0.1703E+02
  16.548  0.6171E+00  0.1704E+02
  16.558  0.6180E+00  0.1705E+02
  16.568  0.6189E+00  0.1705E+02
  16.578  0.6198E+00  0.1706E+02
  16.588  0.6208E+00  0.1707E+02
  16.598  0.6219E+00  0.1707E+02
  16.608  0.6230E+00  0.1708E+02
  16.618  0.6241E+00  0.1708E+02
  16.628  0.6253E+00  0.1709E+02
  16.638  0.6266E+00  0.1710E+02
  16.648  0.6278E+00  0.1710E+02
  16.658  0.6292E+00  0.1711E+02
  16.668  0.6306E+00  0.1712E+02
  16.678  0.6320E+00  0.1712E+02
  16.688  0.6336E+00  0.1713E+02
  16.698  0.6351E+00  0.1713E+02
  16.708  0.6367E+00  0.1714E+02
  16.718  0.6384E+00  0.1715E+02
  16.728  0.6401E+00  0.1715E+02
  16.738  0.6419E+00  0.1716E+02
  16.748  0.6437E+00  0.1717E+02
  16.758  0.6456E+00  0.1717E+02
  16.768  0.6475E+00  0.1718E+02
  16.778  0.6495E+00  0.1719E+02
  16.788  0.6515E+00  0.1719E+02
  16.798  0.6536E+00  0.1720E+02
  16.808  0.6558E+00  0.1721E+02
  16.818  0.6580E+00  0.1721E+02
  16.828  0.6602E+00  0.1722E+02
  16.838  0.6626E+00  0.1723E+02
  16.848  0.6649E+00  0.1723E+02
  16.858  0.6673E+00  0.1724E+02
  16.868  0.6698E+00  0.1725E+02
  16.878  0.6723E+00  0.1725E+02
  16.888  0.6749E+00  0.1726E+02
  16.898  0.6775E+00  0.1727E+02
  16.908  0.6802E+00  0.1727E+02
  16.918  0.6829E+00  0.1728E+02
  16.928  0.6857E+00  0.1729E+02
  16.938  0.6886E+00  0.1729E+02
  16.948  0.6914E+00  0.1730E+02
  16.958  0.6944E+00  0.1731E+02
  16.968  0.6974E+00  0.1731E+02
  16.978  0.7004E+00  0.1732E+02
  16.988  0.7035E+00  0.1733E+02
  16.998  0.7066E+00  0.1733E+02
  17.008  0.7098E+00  0.1734E+02
  17.018  0.7130E+00  0.1735E+02
  17.028  0.7162E+00  0.1736E+02
  17.038  0.7196E+00  0.1736E+02
  17.048  0.7229E+00  0.1737E+02
  17.058  0.7263E+00  0.1738E+02
  17.068  0.7297E+00  0.1738E+02
  17.078  0.7332E+00  0.1739E+02
  17.088  0.7367E+00  0.1740E+02
  17.098  0.7403E+00  0.1741E+02
  17.108  0.7439E+00  0.1741E+02
  17.118  0.7475E+00  0.1742E+02
  17.128  0.7511E+00  0.1743E+02
  17.138  0.7548E+00  0.1744E+02
  17.148  0.7586E+00  0.1744E+02
  17.158  0.7623E+00  0.1745E+02
  17.168  0.7661E+00  0.1746E+02
  17.178  0.7699E+00  0.1747E+02
  17.188  0.7737E+00  0.1748E+02
  17.198  0.7776E+00  0.1748E+02
  17.208  0.7815E+00  0.1749E+02
  17.218  0.7854E+00  0.1750E+02
  17.228  0.7893E+00  0.1751E+02
  17.238  0.7932E+00  0.1751E+02
  17.248  0.7972E+00  0.1752E+02
  17.258  0.8011E+00  0.1753E+02
  17.268  0.8051E+00  0.1754E+02
  17.278  0.8091E+00  0.1755E+02
  17.288  0.8131E+00  0.1755E+02
  17.298  0.8171E+00  0.1756E+02
  17.308  0.8211E+00  0.1757E+02
  17.318  0.8251E+00  0.1758E+02
  17.328  0.8291E+00  0.1759E+02
  17.338  0.8331E+00  0.1760E+02
  17.348  0.8370E+00  0.1760E+02
  17.358  0.8410E+00  0.1761E+02
  17.368  0.8450E+00  0.1762E+02
  17.378  0.8489E+00  0.1763E+02
  17.388  0.8529E+00  0.1764E+02
  17.398  0.8568E+00  0.1765E+02
  17.408  0.8607E+00  0.1766E+02
  17.418  0.8646E+00  0.1766E+02
  17.428  0.8684E+00  0.1767E+02
  17.438  0.8722E+00  0.1768E+02
  17.448  0.8760E+00  0.1769E+02
  17.458  0.8798E+00  0.1770E+02
  17.468  0.8835E+00  0.1771E+02
  17.478  0.8872E+00  0.1772E+02
  17.488  0.8908E+00  0.1773E+02
  17.498  0.8944E+00  0.1773E+02
  17.508  0.8979E+00  0.1774E+02
  17.518  0.9014E+00  0.1775E+02
  17.528  0.9049E+00  0.1776E+02
  17.538  0.9083E+00  0.1777E+02
  17.548  0.9116E+00  0.1778E+02
  17.558  0.9149E+00  0.1779E+02
  17.568  0.9181E+00  0.1780E+02
  17.578  0.9212E+00  0.1781E+02
  17.588  0.9243E+00  0.1782E+02
  17.598  0.9273E+00  0.1783E+02
  17.608  0.9302E+00  0.1784E+02
  17.618  0.9331E+00  0.1784E+02
  17.628  0.9358E+00  0.1785E+02
  17.638  0.9385E+00  0.1786E+02
  17.648  0.9412E+00  0.1787E+02
  17.658  0.9437E+00  0.1788E+02
  17.668  0.9461E+00  0.1789E+02
  17.678  0.9485E+00  0.1790E+02
  17.688  0.9507E+00  0.1791E+02
  17.698  0.9529E+00  0.1792E+02
  17.708  0.9549E+00  0.1793E+02
  17.718  0.9569E+00  0.1794E+02
  17.728  0.9587E+00  0.1795E+02
  17.738  0.9605E+00  0.1796E+02
  17.748  0.9621E+00  0.1797E+02
  17.758  0.9637E+00  0.1798E+02
  17.768  0.9651E+00  0.1799E+02
  17.778  0.9664E+00  0.1800E+02
  17.788  0.9676E+00  0.1801E+02
  17.798  0.9687E+00  0.1802E+02
  17.808  0.9697E+00  0.1803E+02
  17.818  0.9705E+00  0.1804E+02
  17.828  0.9712E+00  0.1805E+02
  17.838  0.9718E+00  0.1806E+02
  17.848  0.9723E+00  0.1807E+02
  17.858  0.9727E+00  0.1807E+02
  17.868  0.9729E+00  0.1808E+02
  17.878  0.9730E+00  0.1809E+02
  17.888  0.9730E+00  0.1810E+02
  17.898  0.9728E+00  0.1811E+02
  17.908  0.9725E+00  0.1812E+02
  17.918  0.9721E+00  0.1813E+02
  17.928  0.9715E+00  0.1814E+02
  17.938  0.9708E+00  0.1815E+02
  17.948  0.9700E+00  0.1816E+02
  17.958  0.9691E+00  0.1817E+02
  17.968  0.9680E+00  0.1818E+02
  17.978  0.9668E+00  0.1819E+02
  17.988  0.9654E+00  0.1820E+02
  17.998  0.9639E+00  0.1821E+02
  18.008  0.9623E+00  0.1822E+02
  18.018  0.9605E+00  0.1823E+02
  18.028  0.9586E+00  0.1824E+02
  18.038  0.9566E+00  0.1825E+02
  18.048  0.9544E+00  0.1826E+02
  18.058  0.9521E+00  0.1827E+02
  18.068  0.9497E+00  0.1828E+02
  18.078  0.9472E+00  0.1829E+02
  18.088  0.9445E+00  0.1830E+02
  18.098  0.9417E+00  0.1831E+02
  18.108  0.9387E+00  0.1832E+02
  18.118  0.9357E+00  0.1832E+02
  18.128  0.9325E+00  0.1833E+02
  18.138  0.9292E+00  0.1834E+02
  18.148  0.9258E+00  0.1835E+02
  18.158  0.9222E+00  0.1836E+02
  18.168  0.9186E+00  0.1837E+02
  18.178  0.9148E+00  0.1838E+02
  18.188  0.9110E+00  0.1839E+02
  18.198  0.9070E+00  0.1840E+02
  18.208  0.9029E+00  0.1841E+02
  18.218  0.8987E+00  0.1842E+02
  18.228  0.8944E+00  0.1843E+02
  18.238  0.8900E+00  0.1843E+02
  18.248  0.8856E+00  0.1844E+02
  18.258  0.8810E+00  0.1845E+02
  18.268  0.8764E+00  0.1846E+02
  18.278  0.8716E+00  0.1847E+02
  18.288  0.8668E+00  0.1848E+02
  18.298  0.8619E+00  0.1849E+02
  18.308  0.8570E+00  0.1850E+02
  18.318  0.8520E+00  0.1850E+02
  18.328  0.8469E+00  0.1851E+02
  18.338  0.8418E+00  0.1852E+02
  18.348  0.8366E+00  0.1853E+02
  18.358  0.8313E+00  0.1854E+02
  18.368  0.8260E+00  0.1855E+02
  18.378  0.8207E+00  0.1855E+02
  18.388  0.8153E+00  0.1856E+02
  18.398  0.8100E+00  0.1857E+02
  18.408  0.8045E+00  0.1858E+02
  18.418  0.7991E+00  0.1859E+02
  18.428  0.7936E+00  0.1859E+02
  18.438  0.7881E+00  0.1860E+02
  18.448  0.7827E+00  0.1861E+02
  18.458  0.7772E+00  0.1862E+02
  18.468  0.7717E+00  0.1863E+02
  18.478  0.7662E+00  0.1863E+02
  18.488  0.7607E+00  0.1864E+02
  18.498  0.7553E+00  0.1865E+02
  18.508  0.7498E+00  0.1866E+02
  18.518  0.7444E+00  0.1866E+02
  18.528  0.7391E+00  0.1867E+02
  18.538  0.7337E+00  0.1868E+02
  18.548  0.7284E+00  0.1868E+02
  18.558  0.7231E+00  0.1869E+02
  18.568  0.7179E+00  0.1870E+02
  18.578  0.7127E+00  0.1871E+02
  18.588  0.7076E+00  0.1871E+02
  18.598  0.7026E+00  0.1872E+02
  18.608  0.6976E+00  0.1873E+02
  18.618  0.6927E+00  0.1873E+02
  18.628  0.6878E+00  0.1874E+02
  18.638  0.6831E+00  0.1875E+02
  18.648  0.6784E+00  0.1875E+02
  18.658  0.6738E+00  0.1876E+02
  18.668  0.6692E+00  0.1877E+02
  18.678  0.6648E+00  0.1877E+02
  18.688  0.6605E+00  0.1878E+02
  18.698  0.6562E+00  0.1879E+02
  18.708  0.6521E+00  0.1879E+02
  18.718  0.6480E+00  0.1880E+02
  18.728  0.6441E+00  0.1881E+02
  18.738  0.6403E+00  0.1881E+02
  18.748  0.6366E+00  0.1882E+02
  18.758  0.6329E+00  0.1883E+02
  18.768  0.6294E+00  0.1883E+02
  18.778  0.6261E+00  0.1884E+02
  18.788  0.6228E+00  0.1885E+02
  18.798  0.6196E+00  0.1885E+02
  18.808  0.6166E+00  0.1886E+02
  18.818  0.6137E+00  0.1886E+02
  18.828  0.6109E+00  0.1887E+02
  18.838  0.6082E+00  0.1888E+02
  18.848  0.6056E+00  0.1888E+02
  18.858  0.6032E+00  0.1889E+02
  18.868  0.6009E+00  0.1889E+02
  18.878  0.5987E+00  0.1890E+02
  18.888  0.5966E+00  0.1891E+02
  18.898  0.5947E+00  0.1891E+02
  18.908  0.5929E+00  0.1892E+02
  18.918  0.5912E+00  0.1892E+02
  18.928  0.5896E+00  0.1893E+02
  18.938  0.5881E+00  0.1894E+02
  18.948  0.5867E+00  0.1894E+02
  18.958  0.5855E+00  0.1895E+02
  18.968  0.5844E+00  0.1895E+02
  18.978  0.5834E+00  0.1896E+02
  18.988  0.5825E+00  0.1896E+02
  18.998  0.5817E+00  0.1897E+02
  19.008  0.5810E+00  0.1898E+02
  19.018  0.5804E+00  0.1898E+02
  19.028  0.5799E+00  0.1899E+02
  19.038  0.5795E+00  0.1899E+02
  19.048  0.5792E+00  0.1900E+02
  19.058  0.5791E+00  0.1901E+02
  19.068  0.5790E+00  0.1901E+02
  19.078  0.5789E+00  0.1902E+02
  19.088  0.5790E+00  0.1902E+02
  19.098  0.5792E+00  0.1903E+02
  19.108  0.5794E+00  0.1903E+02
  19.118  0.5797E+00  0.1904E+02
  19.128  0.5801E+00  0.1905E+02
  19.138  0.5806E+00  0.1905E+02
  19.148  0.5811E+00  0.1906E+02
  19.158  0.5817E+00  0.1906E+02
  19.168  0.5823E+00  0.1907E+02
  19.178  0.5831E+00  0.1908E+02
  19.188  0.5838E+00  0.1908E+02
  19.198  0.5846E+00  0.1909E+02
  19.208  0.5855E+00  0.1909E+02
  19.218  0.5864E+00  0.1910E+02
  19.228  0.5873E+00  0.1910E+02
  19.238  0.5883E+00  0.1911E+02
  19.248  0.5893E+00  0.1912E+02
  19.258  0.5903E+00  0.1912E+02
  19.268  0.5914E+00  0.1913E+02
  19.278  0.5925E+00  0.1913E+02
  19.288  0.5936E+00  0.1914E+02
  19.298  0.5947E+00  0.1915E+02
  19.308  0.5958E+00  0.1915E+02
  19.318  0.5970E+00  0.1916E+02
  19.328  0.5981E+00  0.1916E+02
  19.338  0.5993E+00  0.1917E+02
  19.348  0.6004E+00  0.1918E+02
  19.358  0.6016E+00  0.1918E+02
  19.368  0.6027E+00  0.1919E+02
  19.378  0.6038E+00  0.1919E+02
  19.388  0.6050E+00  0.1920E+02
  19.398  0.6061E+00  0.1921E+02
  19.408  0.6072E+00  0.1921E+02
  19.418  0.6082E+00  0.1922E+02
  19.428  0.6093E+00  0.1922E+02
  19.438  0.6103E+00  0.1923E+02
  19.448  0.6113E+00  0.1924E+02
  19.458  0.6122E+00  0.1924E+02
  19.468  0.6132E+00  0.1925E+02
  19.478  0.6141E+00  0.1925E+02
  19.488  0.6149E+00  0.1926E+02
  19.498  0.6158E+00  0.1927E+02
  19.508  0.6166E+00  0.1927E+02
  19.518  0.6173E+00  0.1928E+02
  19.528  0.6180E+00  0.1929E+02
  19.538  0.6187E+00  0.1929E+02
  19.548  0.6193E+00  0.1930E+02
  19.558  0.6199E+00  0.1930E+02
  19.568  0.6205E+00  0.1931E+02
  19.578  0.6209E+00  0.1932E+02
  19.588  0.6214E+00  0.1932E+02
  19.598  0.6218E+00  0.1933E+02
  19.608  0.6221E+00  0.1934E+02
  19.618  0.6224E+00  0.1934E+02
  19.628  0.6227E+00  0.1935E+02
  19.638  0.6229E+00  0.1935E+02
  19.648  0.6230E+00  0.1936E+02
  19.658  0.6231E+00  0.1937E+02
  19.668  0.6232E+00  0.1937E+02
  19.678  0.6232E+00  0.1938E+02
  19.688  0.6231E+00  0.1939E+02
  19.698  0.6230E+00  0.1939E+02
  19.708  0.6229E+00  0.1940E+02
  19.718  0.6227E+00  0.1940E+02
  19.728  0.6225E+00  0.1941E+02
  19.738  0.6222E+00  0.1942E+02
  19.748  0.6218E+00  0.1942E+02
  19.758  0.6215E+00  0.1943E+02
  19.768  0.6211E+00  0.1943E+02
  19.778  0.6206E+00  0.1944E+02
  19.788  0.6201E+00  0.1945E+02
  19.798  0.6195E+00  0.1945E+02
  19.808  0.6190E+00  0.1946E+02
  19.818  0.6183E+00  0.1947E+02
  19.828  0.6177E+00  0.1947E+02
  19.838  0.6170E+00  0.1948E+02
  19.848  0.6163E+00  0.1948E+02
  19.858  0.6155E+00  0.1949E+02
  19.868  0.6147E+00  0.1950E+02
  19.878  0.6139E+00  0.1950E+02
  19.888  0.6131E+00  0.1951E+02
  19.898  0.6122E+00  0.1952E+02
  19.908  0.6113E+00  0.1952E+02
  19.918  0.6104E+00  0.1953E+02
  19.928  0.6095E+00  0.1953E+02
  19.938  0.6085E+00  0.1954E+02
  19.948  0.6076E+00  0.1955E+02
  19.958  0.6066E+00  0.1955E+02
  19.968  0.6056E+00  0.1956E+02
  19.978  0.6046E+00  0.1956E+02
  19.988  0.6036E+00  0.1957E+02
  19.998  0.6026E+00  0.1958E+02
  20.008  0.6016E+00  0.1958E+02
  20.018  0.6006E+00  0.1959E+02
  20.028  0.5996E+00  0.1959E+02
  20.038  0.5986E+00  0.1960E+02
  20.048  0.5976E+00  0.1961E+02
  20.058  0.5966E+00  0.1961E+02
  20.068  0.5956E+00  0.1962E+02
  20.078  0.5946E+00  0.1962E+02
  20.088  0.5936E+00  0.1963E+02
  20.098  0.5927E+00  0.1964E+02
  20.108  0.5918E+00  0.1964E+02
  20.118  0.5909E+00  0.1965E+02
  20.128  0.5900E+00  0.1965E+02
  20.138  0.5891E+00  0.1966E+02
  20.148  0.5883E+00  0.1967E+02
  20.158  0.5875E+00  0.1967E+02
  20.168  0.5867E+00  0.1968E+02
  20.178  0.5859E+00  0.1968E+02
  20.188  0.5852E+00  0.1969E+02
  20.198  0.5846E+00  0.1969E+02
  20.208  0.5839E+00  0.1970E+02
  20.218  0.5833E+00  0.1971E+02
  20.228  0.5827E+00  0.1971E+02
  20.238  0.5822E+00  0.1972E+02
  20.248  0.5817E+00  0.1972E+02
  20.258  0.5813E+00  0.1973E+02
  20.268  0.5809E+00  0.1974E+02
  20.278  0.5806E+00  0.1974E+02
  20.288  0.5803E+00  0.1975E+02
  20.298  0.5800E+00  0.1975E+02
  20.308  0.5798E+00  0.1976E+02
  20.318  0.5797E+00  0.1976E+02
  20.328  0.5796E+00  0.1977E+02
  20.338  0.5796E+00  0.1978E+02
  20.348  0.5796E+00  0.1978E+02
  20.358  0.5797E+00  0.1979E+02
  20.368  0.5798E+00  0.1979E+02
  20.378  0.5800E+00  0.1980E+02
  20.388  0.5802E+00  0.1980E+02
  20.398  0.5805E+00  0.1981E+02
  20.408  0.5809E+00  0.1982E+02
  20.418  0.5813E+00  0.1982E+02
  20.428  0.5818E+00  0.1983E+02
  20.438  0.5824E+00  0.1983E+02
  20.448  0.5830E+00  0.1984E+02
  20.458  0.5837E+00  0.1985E+02
  20.468  0.5844E+00  0.1985E+02
  20.478  0.5852E+00  0.1986E+02
  20.488  0.5861E+00  0.1986E+02
  20.498  0.5870E+00  0.1987E+02
  20.508  0.5880E+00  0.1987E+02
  20.518  0.5890E+00  0.1988E+02
  20.528  0.5902E+00  0.1989E+02
  20.538  0.5913E+00  0.1989E+02
  20.548  0.5926E+00  0.1990E+02
  20.558  0.5939E+00  0.1990E+02
  20.568  0.5952E+00  0.1991E+02
  20.578  0.5966E+00  0.1992E+02
  20.588  0.5981E+00  0.1992E+02
  20.598  0.5997E+00  0.1993E+02
  20.608  0.6013E+00  0.1993E+02
  20.618  0.6029E+00  0.1994E+02
  20.628  0.6047E+00  0.1995E+02
  20.638  0.6064E+00  0.1995E+02
  20.648  0.6083E+00  0.1996E+02
  20.658  0.6102E+00  0.1996E+02
  20.668  0.6121E+00  0.1997E+02
  20.678  0.6141E+00  0.1998E+02
  20.688  0.6162E+00  0.1998E+02
  20.698  0.6183E+00  0.1999E+02
  20.708  0.6205E+00  0.2000E+02
  20.718  0.6227E+00  0.2000E+02
  20.728  0.6250E+00  0.2001E+02
  20.738  0.6273E+00  0.2001E+02
  20.748  0.6297E+00  0.2002E+02
  20.758  0.6322E+00  0.2003E+02
  20.768  0.6347E+00  0.2003E+02
  20.778  0.6372E+00  0.2004E+02
  20.788  0.6398E+00  0.2005E+02
  20.798  0.6425E+00  0.2005E+02
  20.808  0.6452E+00  0.2006E+02
  20.818  0.6480E+00  0.2007E+02
  20.828  0.6508E+00  0.2007E+02
  20.838  0.6536E+00  0.2008E+02
  20.848  0.6566E+00  0.2008E+02
  20.858  0.6595E+00  0.2009E+02
  20.868  0.6625E+00  0.2010E+02
  20.878  0.6656E+00  0.2010E+02
  20.888  0.6687E+00  0.2011E+02
  20.898  0.6719E+00  0.2012E+02
  20.908  0.6751E+00  0.2012E+02
  20.918  0.6784E+00  0.2013E+02
  20.928  0.6818E+00  0.2014E+02
  20.938  0.6852E+00  0.2015E+02
  20.948  0.6886E+00  0.2015E+02
  20.958  0.6921E+00  0.2016E+02
  20.968  0.6957E+00  0.2017E+02
  20.978  0.6993E+00  0.2017E+02
  20.988  0.7030E+00  0.2018E+02
  20.998  0.7068E+00  0.2019E+02
  21.008  0.7106E+00  0.2019E+02
  21.018  0.7145E+00  0.2020E+02
  21.028  0.7184E+00  0.2021E+02
  21.038  0.7224E+00  0.2022E+02
  21.048  0.7265E+00  0.2022E+02
  21.058  0.7306E+00  0.2023E+02
  21.068  0.7349E+00  0.2024E+02
  21.078  0.7391E+00  0.2025E+02
  21.088  0.7435E+00  0.2025E+02
  21.098  0.7479E+00  0.2026E+02
  21.108  0.7525E+00  0.2027E+02
  21.118  0.7570E+00  0.2028E+02
  21.128  0.7617E+00  0.2028E+02
  21.138  0.7665E+00  0.2029E+02
  21.148  0.7713E+00  0.2030E+02
  21.158  0.7762E+00  0.2031E+02
  21.168  0.7812E+00  0.2031E+02
  21.178  0.7863E+00  0.2032E+02
  21.188  0.7915E+00  0.2033E+02
  21.198  0.7968E+00  0.2034E+02
  21.208  0.8022E+00  0.2035E+02
  21.218  0.8076E+00  0.2035E+02
  21.228  0.8132E+00  0.2036E+02
  21.238  0.8189E+00  0.2037E+02
  21.248  0.8246E+00  0.2038E+02
  21.258  0.8305E+00  0.2039E+02
  21.268  0.8364E+00  0.2039E+02
  21.278  0.8425E+00  0.2040E+02
  21.288  0.8486E+00  0.2041E+02
  21.298  0.8549E+00  0.2042E+02
  21.308  0.8612E+00  0.2043E+02
  21.318  0.8677E+00  0.2044E+02
  21.328  0.8742E+00  0.2045E+02
  21.338  0.8809E+00  0.2046E+02
  21.348  0.8876E+00  0.2046E+02
  21.358  0.8945E+00  0.2047E+02
  21.368  0.9015E+00  0.2048E+02
  21.378  0.9085E+00  0.2049E+02
  21.388  0.9157E+00  0.2050E+02
  21.398  0.9229E+00  0.2051E+02
  21.408  0.9303E+00  0.2052E+02
  21.418  0.9377E+00  0.2053E+02
  21.428  0.9452E+00  0.2054E+02
  21.438  0.9529E+00  0.2055E+02
  21.448  0.9606E+00  0.2056E+02
  21.458  0.9684E+00  0.2057E+02
  21.468  0.9762E+00  0.2058E+02
  21.478  0.9842E+00  0.2059E+02
  21.488  0.9922E+00  0.2060E+02
  21.498  0.1000E+01  0.2061E+02
  21.508  0.1009E+01  0.2062E+02
  21.518  0.1017E+01  0.2063E+02
  21.528  0.1025E+01  0.2064E+02
  21.538  0.1033E+01  0.2065E+02
  21.548  0.1042E+01  0.2066E+02
  21.558  0.1050E+01  0.2067E+02
  21.568  0.1059E+01  0.2068E+02
  21.578  0.1067E+01  0.2069E+02
  21.588  0.1076E+01  0.2070E+02
  21.598  0.1084E+01  0.2071E+02
  21.608  0.1093E+01  0.2072E+02
  21.618  0.1102E+01  0.2073E+02
  21.628  0.1110E+01  0.2074E+02
  21.638  0.1119E+01  0.2075E+02
  21.648  0.1127E+01  0.2077E+02
  21.658  0.1136E+01  0.2078E+02
  21.668  0.1145E+01  0.2079E+02
  21.678  0.1153E+01  0.2080E+02
  21.688  0.1162E+01  0.2081E+02
  21.698  0.1170E+01  0.2082E+02
  21.708  0.1179E+01  0.2084E+02
  21.718  0.1187E+01  0.2085E+02
  21.728  0.1195E+01  0.2086E+02
  21.738  0.1203E+01  0.2087E+02
  21.748  0.1212E+01  0.2088E+02
  21.758  0.1220E+01  0.2090E+02
  21.768  0.1228E+01  0.2091E+02
  21.778  0.1236E+01  0.2092E+02
  21.788  0.1243E+01  0.2093E+02
  21.798  0.1251E+01  0.2095E+02
  21.808  0.1259E+01  0.2096E+02
  21.818  0.1266E+01  0.2097E+02
  21.828  0.1273E+01  0.2098E+02
  21.838  0.1281E+01  0.2100E+02
  21.848  0.1288E+01  0.2101E+02
  21.858  0.1295E+01  0.2102E+02
  21.868  0.1301E+01  0.2103E+02
  21.878  0.1308E+01  0.2105E+02
  21.888  0.1314E+01  0.2106E+02
  21.898  0.1321E+01  0.2107E+02
  21.908  0.1327E+01  0.2109E+02
  21.918  0.1333E+01  0.2110E+02
  21.928  0.1338E+01  0.2111E+02
  21.938  0.1344E+01  0.2113E+02
  21.948  0.1349E+01  0.2114E+02
  21.958  0.1354E+01  0.2115E+02
  21.968  0.1359E+01  0.2117E+02
  21.978  0.1364E+01  0.2118E+02
  21.988  0.1368E+01  0.2120E+02
  21.998  0.1373E+01  0.2121E+02
  22.008  0.1377E+01  0.2122E+02
  22.018  0.1381E+01  0.2124E+02
  22.028  0.1385E+01  0.2125E+02
  22.038  0.1388E+01  0.2126E+02
  22.048  0.1391E+01  0.2128E+02
  22.058  0.1394E+01  0.2129E+02
  22.068  0.1397E+01  0.2131E+02
  22.078  0.1400E+01  0.2132E+02
  22.088  0.1402E+01  0.2133E+02
  22.098  0.1404E+01  0.2135E+02
  22.108  0.1406E+01  0.2136E+02
  22.118  0.1408E+01  0.2138E+02
  22.128  0.1410E+01  0.2139E+02
  22.138  0.1411E+01  0.2140E+02
  22.148  0.1412E+01  0.2142E+02
  22.158  0.1413E+01  0.2143E+02
  22.168  0.1414E+01  0.2145E+02
  22.178  0.1414E+01  0.2146E+02
  22.188  0.1415E+01  0.2148E+02
  22.198  0.1415E+01  0.2149E+02
  22.208  0.1415E+01  0.2150E+02
  22.218  0.1415E+01  0.2152E+02
  22.228  0.1414E+01  0.2153E+02
  22.238  0.1414E+01  0.2155E+02
  22.248  0.1413E+01  0.2156E+02
  22.258  0.1412E+01  0.2157E+02
  22.268  0.1411E+01  0.2159E+02
  22.278  0.1410E+01  0.2160E+02
  22.288  0.1409E+01  0.2162E+02
  22.298  0.1407E+01  0.2163E+02
  22.308  0.1406E+01  0.2164E+02
  22.318  0.1404E+01  0.2166E+02
  22.328  0.1402E+01  0.2167E+02
  22.338  0.1400E+01  0.2169E+02
  22.348  0.1398E+01  0.2170E+02
  22.358  0.1396E+01  0.2171E+02
  22.368  0.1394E+01  0.2173E+02
  22.378  0.1392E+01  0.2174E+02
  22.388  0.1389E+01  0.2176E+02
  22.398  0.1387E+01  0.2177E+02
  22.408  0.1384E+01  0.2178E+02
  22.418  0.1382E+01  0.2180E+02
  22.428  0.1379E+01  0.2181E+02
  22.438  0.1377E+01  0.2183E+02
  22.448  0.1374E+01  0.2184E+02
  22.458  0.1371E+01  0.2185E+02
  22.468  0.1368E+01  0.2187E+02
  22.478  0.1365E+01  0.2188E+02
  22.488  0.1363E+01  0.2189E+02
  22.498  0.1360E+01  0.2191E+02
  22.508  0.1357E+01  0.2192E+02
  22.518  0.1354E+01  0.2193E+02
  22.528  0.1351E+01  0.2195E+02
  22.538  0.1348E+01  0.2196E+02
  22.548  0.1345E+01  0.2198E+02
  22.558  0.1342E+01  0.2199E+02
  22.568  0.1340E+01  0.2200E+02
  22.578  0.1337E+01  0.2202E+02
  22.588  0.1334E+01  0.2203E+02
  22.598  0.1331E+01  0.2204E+02
  22.608  0.1329E+01  0.2206E+02
  22.618  0.1326E+01  0.2207E+02
  22.628  0.1323E+01  0.2208E+02
  22.638  0.1320E+01  0.2210E+02
  22.648  0.1318E+01  0.2211E+02
  22.658  0.1315E+01  0.2212E+02
  22.668  0.1313E+01  0.2213E+02
  22.678  0.1310E+01  0.2215E+02
  22.688  0.1308E+01  0.2216E+02
  22.698  0.1305E+01  0.2217E+02
  22.708  0.1303E+01  0.2219E+02
  22.718  0.1301E+01  0.2220E+02
  22.728  0.1299E+01  0.2221E+02
  22.738  0.1296E+01  0.2223E+02
  22.748  0.1294E+01  0.2224E+02
  22.758  0.1292E+01  0.2225E+02
  22.768  0.1290E+01  0.2226E+02
  22.778  0.1288E+01  0.2228E+02
  22.788  0.1286E+01  0.2229E+02
  22.798  0.1284E+01  0.2230E+02
  22.808  0.1282E+01  0.2232E+02
  22.818  0.1280E+01  0.2233E+02
  22.828  0.1278E+01  0.2234E+02
  22.838  0.1276E+01  0.2235E+02
  22.848  0.1275E+01  0.2237E+02
  22.858  0.1273E+01  0.2238E+02
  22.868  0.1271E+01  0.2239E+02
  22.878  0.1269E+01  0.2241E+02
  22.888  0.1268E+01  0.2242E+02
  22.898  0.1266E+01  0.2243E+02
  22.908  0.1264E+01  0.2244E+02
  22.918  0.1263E+01  0.2246E+02
  22.928  0.1261E+01  0.2247E+02
  22.938  0.1259E+01  0.2248E+02
  22.948  0.1258E+01  0.2249E+02
  22.958  0.1256E+01  0.2251E+02
  22.968  0.1254E+01  0.2252E+02
  22.978  0.1253E+01  0.2253E+02
  22.988  0.1251E+01  0.2254E+02
  22.998  0.1249E+01  0.2256E+02
  23.008  0.1248E+01  0.2257E+02
  23.018  0.1246E+01  0.2258E+02
  23.028  0.1244E+01  0.2259E+02
  23.038  0.1242E+01  0.2261E+02
  23.048  0.1240E+01  0.2262E+02
  23.058  0.1238E+01  0.2263E+02
  23.068  0.1237E+01  0.2264E+02
  23.078  0.1235E+01  0.2266E+02
  23.088  0.1233E+01  0.2267E+02
  23.098  0.1231E+01  0.2268E+02
  23.108  0.1228E+01  0.2269E+02
  23.118  0.1226E+01  0.2270E+02
  23.128  0.1224E+01  0.2272E+02
  23.138  0.1222E+01  0.2273E+02
  23.148  0.1219E+01  0.2274E+02
  23.158  0.1217E+01  0.2275E+02
  23.168  0.1215E+01  0.2277E+02
  23.178  0.1212E+01  0.2278E+02
  23.188  0.1209E+01  0.2279E+02
  23.198  0.1207E+01  0.2280E+02
  23.208  0.1204E+01  0.2281E+02
  23.218  0.1201E+01  0.2283E+02
  23.228  0.1198E+01  0.2284E+02
  23.238  0.1195E+01  0.2285E+02
  23.248  0.1192E+01  0.2286E+02
  23.258  0.1189E+01  0.2287E+02
  23.268  0.1186E+01  0.2289E+02
  23.278  0.1183E+01  0.2290E+02
  23.288  0.1179E+01  0.2291E+02
  23.298  0.1176E+01  0.2292E+02
  23.308  0.1172E+01  0.2293E+02
  23.318  0.1169E+01  0.2294E+02
  23.328  0.1165E+01  0.2296E+02
  23.338  0.1161E+01  0.2297E+02
  23.348  0.1157E+01  0.2298E+02
  23.358  0.1153E+01  0.2299E+02
  23.368  0.1149E+01  0.2300E+02
  23.378  0.1145E+01  0.2301E+02
  23.388  0.1141E+01  0.2303E+02
  23.398  0.1137E+01  0.2304E+02
  23.408  0.1132E+01  0.2305E+02
  23.418  0.1128E+01  0.2306E+02
  23.428  0.1124E+01  0.2307E+02
  23.438  0.1119E+01  0.2308E+02
  23.448  0.1115E+01  0.2309E+02
  23.458  0.1110E+01  0.2310E+02
  23.468  0.1105E+01  0.2311E+02
  23.478  0.1101E+01  0.2313E+02
  23.488  0.1096E+01  0.2314E+02
  23.498  0.1091E+01  0.2315E+02
  23.508  0.1086E+01  0.2316E+02
  23.518  0.1081E+01  0.2317E+02
  23.528  0.1076E+01  0.2318E+02
  23.538  0.1071E+01  0.2319E+02
  23.548  0.1066E+01  0.2320E+02
  23.558  0.1061E+01  0.2321E+02
  23.568  0.1056E+01  0.2322E+02
  23.578  0.1051E+01  0.2323E+02
  23.588  0.1046E+01  0.2324E+02
  23.598  0.1041E+01  0.2325E+02
  23.608  0.1036E+01  0.2326E+02
  23.618  0.1031E+01  0.2327E+02
  23.628  0.1026E+01  0.2329E+02
  23.638  0.1020E+01  0.2330E+02
  23.648  0.1015E+01  0.2331E+02
  23.658  0.1010E+01  0.2332E+02
  23.668  0.1005E+01  0.2333E+02
  23.678  0.1000E+01  0.2334E+02
  23.688  0.9951E+00  0.2335E+02
  23.698  0.9901E+00  0.2336E+02
  23.708  0.9851E+00  0.2337E+02
  23.718  0.9802E+00  0.2338E+02
  23.728  0.9753E+00  0.2338E+02
  23.738  0.9704E+00  0.2339E+02
  23.748  0.9656E+00  0.2340E+02
  23.758  0.9609E+00  0.2341E+02
  23.768  0.9562E+00  0.2342E+02
  23.778  0.9516E+00  0.2343E+02
  23.788  0.9470E+00  0.2344E+02
  23.798  0.9425E+00  0.2345E+02
  23.808  0.9381E+00  0.2346E+02
  23.818  0.9337E+00  0.2347E+02
  23.828  0.9294E+00  0.2348E+02
  23.838  0.9252E+00  0.2349E+02
  23.848  0.9211E+00  0.2350E+02
  23.858  0.9171E+00  0.2351E+02
  23.868  0.9131E+00  0.2352E+02
  23.878  0.9093E+00  0.2353E+02
  23.888  0.9055E+00  0.2353E+02
  23.898  0.9018E+00  0.2354E+02
  23.908  0.8983E+00  0.2355E+02
  23.918  0.8948E+00  0.2356E+02
  23.928  0.8914E+00  0.2357E+02
  23.938  0.8882E+00  0.2358E+02
  23.948  0.8850E+00  0.2359E+02
  23.958  0.8819E+00  0.2360E+02
  23.968  0.8790E+00  0.2361E+02
  23.978  0.8762E+00  0.2361E+02
  23.988  0.8734E+00  0.2362E+02
  23.998  0.8708E+00  0.2363E+02
  24.008  0.8683E+00  0.2364E+02
  24.018  0.8659E+00  0.2365E+02
  24.028  0.8636E+00  0.2366E+02
  24.038  0.8615E+00  0.2367E+02
  24.048  0.8594E+00  0.2368E+02
  24.058  0.8575E+00  0.2368E+02
  24.068  0.8556E+00  0.2369E+02
  24.078  0.8539E+00  0.2370E+02
  24.088  0.8523E+00  0.2371E+02
  24.098  0.8508E+00  0.2372E+02
  24.108  0.8494E+00  0.2373E+02
  24.118  0.8481E+00  0.2373E+02
  24.128  0.8469E+00  0.2374E+02
  24.138  0.8459E+00  0.2375E+02
  24.148  0.8449E+00  0.2376E+02
  24.158  0.8440E+00  0.2377E+02
  24.168  0.8433E+00  0.2378E+02
  24.178  0.8426E+00  0.2379E+02
  24.188  0.8420E+00  0.2379E+02
  24.198  0.8415E+00  0.2380E+02
  24.208  0.8412E+00  0.2381E+02
  24.218  0.8409E+00  0.2382E+02
  24.228  0.8406E+00  0.2383E+02
  24.238  0.8405E+00  0.2384E+02
  24.248  0.8405E+00  0.2384E+02
  24.258  0.8405E+00  0.2385E+02
  24.268  0.8406E+00  0.2386E+02
  24.278  0.8408E+00  0.2387E+02
  24.288  0.8411E+00  0.2388E+02
  24.298  0.8414E+00  0.2389E+02
  24.308  0.8418E+00  0.2389E+02
  24.318  0.8422E+00  0.2390E+02
  24.328  0.8427E+00  0.2391E+02
  24.338  0.8433E+00  0.2392E+02
  24.348  0.8439E+00  0.2393E+02
  24.358  0.8445E+00  0.2394E+02
  24.368  0.8452E+00  0.2395E+02
  24.378  0.8459E+00  0.2395E+02
  24.388  0.8467E+00  0.2396E+02
  24.398  0.8474E+00  0.2397E+02
  24.408  0.8483E+00  0.2398E+02
  24.418  0.8491E+00  0.2399E+02
  24.428  0.8500E+00  0.2400E+02
  24.438  0.8508E+00  0.2400E+02
  24.448  0.8517E+00  0.2401E+02
  24.458  0.8526E+00  0.2402E+02
  24.468  0.8535E+00  0.2403E+02
  24.478  0.8544E+00  0.2404E+02
  24.488  0.8552E+00  0.2405E+02
  24.498  0.8561E+00  0.2406E+02
  24.508  0.8570E+00  0.2406E+02
  24.518  0.8578E+00  0.2407E+02
  24.528  0.8586E+00  0.2408E+02
  24.538  0.8594E+00  0.2409E+02
  24.548  0.8602E+00  0.2410E+02
  24.558  0.8609E+00  0.2411E+02
  24.568  0.8616E+00  0.2412E+02
  24.578  0.8623E+00  0.2412E+02
  24.588  0.8629E+00  0.2413E+02
  24.598  0.8635E+00  0.2414E+02
  24.608  0.8640E+00  0.2415E+02
  24.618  0.8644E+00  0.2416E+02
  24.628  0.8648E+00  0.2417E+02
  24.638  0.8652E+00  0.2418E+02
  24.648  0.8655E+00  0.2419E+02
  24.658  0.8657E+00  0.2419E+02
  24.668  0.8658E+00  0.2420E+02
  24.678  0.8659E+00  0.2421E+02
  24.688  0.8659E+00  0.2422E+02
  24.698  0.8658E+00  0.2423E+02
  24.708  0.8656E+00  0.2424E+02
  24.718  0.8654E+00  0.2425E+02
  24.728  0.8650E+00  0.2425E+02
  24.738  0.8646E+00  0.2426E+02
  24.748  0.8641E+00  0.2427E+02
  24.758  0.8635E+00  0.2428E+02
  24.768  0.8628E+00  0.2429E+02
  24.778  0.8620E+00  0.2430E+02
  24.788  0.8611E+00  0.2431E+02
  24.798  0.8601E+00  0.2432E+02
  24.808  0.8591E+00  0.2432E+02
  24.818  0.8579E+00  0.2433E+02
  24.828  0.8566E+00  0.2434E+02
  24.838  0.8552E+00  0.2435E+02
  24.848  0.8537E+00  0.2436E+02
  24.858  0.8521E+00  0.2437E+02
  24.868  0.8504E+00  0.2437E+02
  24.878  0.8487E+00  0.2438E+02
  24.888  0.8468E+00  0.2439E+02
  24.898  0.8448E+00  0.2440E+02
  24.908  0.8427E+00  0.2441E+02
  24.918  0.8405E+00  0.2442E+02
  24.928  0.8382E+00  0.2443E+02
  24.938  0.8358E+00  0.2443E+02
  24.948  0.8333E+00  0.2444E+02
  24.958  0.8307E+00  0.2445E+02
  24.968  0.8280E+00  0.2446E+02
  24.978  0.8252E+00  0.2447E+02
  24.988  0.8223E+00  0.2448E+02
  24.998  0.8193E+00  0.2448E+02
  25.008  0.8163E+00  0.2449E+02
  25.018  0.8132E+00  0.2450E+02
  25.028  0.8099E+00  0.2451E+02
  25.038  0.8066E+00  0.2452E+02
  25.048  0.8032E+00  0.2452E+02
  25.058  0.7998E+00  0.2453E+02
  25.068  0.7963E+00  0.2454E+02
  25.078  0.7927E+00  0.2455E+02
  25.088  0.7890E+00  0.2456E+02
  25.098  0.7853E+00  0.2456E+02
  25.108  0.7815E+00  0.2457E+02
  25.118  0.7776E+00  0.2458E+02
  25.128  0.7737E+00  0.2459E+02
  25.138  0.7698E+00  0.2459E+02
  25.148  0.7658E+00  0.2460E+02
  25.158  0.7617E+00  0.2461E+02
  25.168  0.7576E+00  0.2462E+02
  25.178  0.7535E+00  0.2463E+02
  25.188  0.7494E+00  0.2463E+02
  25.198  0.7452E+00  0.2464E+02
  25.208  0.7410E+00  0.2465E+02
  25.218  0.7368E+00  0.2465E+02
  25.228  0.7325E+00  0.2466E+02
  25.238  0.7283E+00  0.2467E+02
  25.248  0.7240E+00  0.2468E+02
  25.258  0.7197E+00  0.2468E+02
  25.268  0.7155E+00  0.2469E+02
  25.278  0.7112E+00  0.2470E+02
  25.288  0.7069E+00  0.2471E+02
  25.298  0.7027E+00  0.2471E+02
  25.308  0.6984E+00  0.2472E+02
  25.318  0.6942E+00  0.2473E+02
  25.328  0.6900E+00  0.2473E+02
  25.338  0.6858E+00  0.2474E+02
  25.348  0.6816E+00  0.2475E+02
  25.358  0.6774E+00  0.2475E+02
  25.368  0.6733E+00  0.2476E+02
  25.378  0.6692E+00  0.2477E+02
  25.388  0.6652E+00  0.2477E+02
  25.398  0.6612E+00  0.2478E+02
  25.408  0.6572E+00  0.2479E+02
  25.418  0.6533E+00  0.2479E+02
  25.428  0.6494E+00  0.2480E+02
  25.438  0.6455E+00  0.2481E+02
  25.448  0.6417E+00  0.2481E+02
  25.458  0.6380E+00  0.2482E+02
  25.468  0.6343E+00  0.2483E+02
  25.478  0.6306E+00  0.2483E+02
  25.488  0.6270E+00  0.2484E+02
  25.498  0.6234E+00  0.2484E+02
  25.508  0.6199E+00  0.2485E+02
  25.518  0.6165E+00  0.2486E+02
  25.528  0.6131E+00  0.2486E+02
  25.538  0.6098E+00  0.2487E+02
  25.548  0.6065E+00  0.2487E+02
  25.558  0.6032E+00  0.2488E+02
