#  E (eV)   dos(E)     Int dos(E) EFermi =  17.679 eV
  -9.645  0.6384E-06  0.6384E-08
  -9.635  0.7013E-06  0.1340E-07
  -9.625  0.7701E-06  0.2110E-07
  -9.615  0.8453E-06  0.2955E-07
  -9.605  0.9274E-06  0.3882E-07
  -9.595  0.1017E-05  0.4900E-07
  -9.585  0.1115E-05  0.6015E-07
  -9.575  0.1222E-05  0.7237E-07
  -9.565  0.1339E-05  0.8576E-07
  -9.555  0.1466E-05  0.1004E-06
  -9.545  0.1605E-05  0.1165E-06
  -9.535  0.1756E-05  0.1340E-06
  -9.525  0.1920E-05  0.1532E-06
  -9.515  0.2100E-05  0.1742E-06
  -9.505  0.2295E-05  0.1972E-06
  -9.495  0.2507E-05  0.2222E-06
  -9.485  0.2737E-05  0.2496E-06
  -9.475  0.2988E-05  0.2795E-06
  -9.465  0.3261E-05  0.3121E-06
  -9.455  0.3557E-05  0.3477E-06
  -9.445  0.3878E-05  0.3864E-06
  -9.435  0.4226E-05  0.4287E-06
  -9.425  0.4605E-05  0.4748E-06
  -9.415  0.5014E-05  0.5249E-06
  -9.405  0.5459E-05  0.5795E-06
  -9.395  0.5940E-05  0.6389E-06
  -9.385  0.6462E-05  0.7035E-06
  -9.375  0.7026E-05  0.7738E-06
  -9.365  0.7637E-05  0.8501E-06
  -9.355  0.8297E-05  0.9331E-06
  -9.345  0.9011E-05  0.1023E-05
  -9.335  0.9783E-05  0.1121E-05
  -9.325  0.1062E-04  0.1227E-05
  -9.315  0.1152E-04  0.1342E-05
  -9.305  0.1249E-04  0.1467E-05
  -9.295  0.1354E-04  0.1603E-05
  -9.285  0.1467E-04  0.1749E-05
  -9.275  0.1589E-04  0.1908E-05
  -9.265  0.1720E-04  0.2080E-05
  -9.255  0.1862E-04  0.2266E-05
  -9.245  0.2014E-04  0.2468E-05
  -9.235  0.2178E-04  0.2686E-05
  -9.225  0.2354E-04  0.2921E-05
  -9.215  0.2544E-04  0.3175E-05
  -9.205  0.2748E-04  0.3450E-05
  -9.195  0.2967E-04  0.3747E-05
  -9.185  0.3203E-04  0.4067E-05
  -9.175  0.3456E-04  0.4413E-05
  -9.165  0.3727E-04  0.4786E-05
  -9.155  0.4018E-04  0.5187E-05
  -9.145  0.4330E-04  0.5620E-05
  -9.135  0.4665E-04  0.6087E-05
  -9.125  0.5023E-04  0.6589E-05
  -9.115  0.5407E-04  0.7130E-05
  -9.105  0.5818E-04  0.7712E-05
  -9.095  0.6258E-04  0.8337E-05
  -9.085  0.6728E-04  0.9010E-05
  -9.075  0.7232E-04  0.9733E-05
  -9.065  0.7769E-04  0.1051E-04
  -9.055  0.8344E-04  0.1134E-04
  -9.045  0.8958E-04  0.1224E-04
  -9.035  0.9613E-04  0.1320E-04
  -9.025  0.1031E-03  0.1423E-04
  -9.015  0.1106E-03  0.1534E-04
  -9.005  0.1185E-03  0.1652E-04
  -8.995  0.1270E-03  0.1779E-04
  -8.985  0.1360E-03  0.1915E-04
  -8.975  0.1456E-03  0.2061E-04
  -8.965  0.1559E-03  0.2217E-04
  -8.955  0.1668E-03  0.2384E-04
  -8.945  0.1783E-03  0.2562E-04
  -8.935  0.1906E-03  0.2753E-04
  -8.925  0.2037E-03  0.2956E-04
  -8.915  0.2176E-03  0.3174E-04
  -8.905  0.2324E-03  0.3406E-04
  -8.895  0.2481E-03  0.3654E-04
  -8.885  0.2647E-03  0.3919E-04
  -8.875  0.2823E-03  0.4201E-04
  -8.865  0.3010E-03  0.4502E-04
  -8.855  0.3208E-03  0.4823E-04
  -8.845  0.3418E-03  0.5165E-04
  -8.835  0.3640E-03  0.5529E-04
  -8.825  0.3875E-03  0.5916E-04
  -8.815  0.4124E-03  0.6329E-04
  -8.805  0.4387E-03  0.6767E-04
  -8.795  0.4665E-03  0.7234E-04
  -8.785  0.4959E-03  0.7730E-04
  -8.775  0.5269E-03  0.8257E-04
  -8.765  0.5596E-03  0.8816E-04
  -8.755  0.5942E-03  0.9411E-04
  -8.745  0.6307E-03  0.1004E-03
  -8.735  0.6692E-03  0.1071E-03
  -8.725  0.7097E-03  0.1142E-03
  -8.715  0.7524E-03  0.1217E-03
  -8.705  0.7974E-03  0.1297E-03
  -8.695  0.8448E-03  0.1381E-03
  -8.685  0.8947E-03  0.1471E-03
  -8.675  0.9471E-03  0.1566E-03
  -8.665  0.1002E-02  0.1666E-03
  -8.655  0.1060E-02  0.1772E-03
  -8.645  0.1121E-02  0.1884E-03
  -8.635  0.1185E-02  0.2003E-03
  -8.625  0.1252E-02  0.2128E-03
  -8.615  0.1323E-02  0.2260E-03
  -8.605  0.1397E-02  0.2400E-03
  -8.595  0.1474E-02  0.2547E-03
  -8.585  0.1555E-02  0.2703E-03
  -8.575  0.1640E-02  0.2867E-03
  -8.565  0.1729E-02  0.3040E-03
  -8.555  0.1823E-02  0.3222E-03
  -8.545  0.1920E-02  0.3414E-03
  -8.535  0.2022E-02  0.3616E-03
  -8.525  0.2129E-02  0.3829E-03
  -8.515  0.2241E-02  0.4053E-03
  -8.505  0.2357E-02  0.4289E-03
  -8.495  0.2479E-02  0.4537E-03
  -8.485  0.2606E-02  0.4797E-03
  -8.475  0.2738E-02  0.5071E-03
  -8.465  0.2877E-02  0.5359E-03
  -8.455  0.3021E-02  0.5661E-03
  -8.445  0.3171E-02  0.5978E-03
  -8.435  0.3327E-02  0.6311E-03
  -8.425  0.3490E-02  0.6660E-03
  -8.415  0.3660E-02  0.7026E-03
  -8.405  0.3836E-02  0.7409E-03
  -8.395  0.4020E-02  0.7811E-03
  -8.385  0.4210E-02  0.8232E-03
  -8.375  0.4409E-02  0.8673E-03
  -8.365  0.4615E-02  0.9134E-03
  -8.355  0.4828E-02  0.9617E-03
  -8.345  0.5050E-02  0.1012E-02
  -8.335  0.5281E-02  0.1065E-02
  -8.325  0.5519E-02  0.1120E-02
  -8.315  0.5767E-02  0.1178E-02
  -8.305  0.6024E-02  0.1238E-02
  -8.295  0.6289E-02  0.1301E-02
  -8.285  0.6565E-02  0.1367E-02
  -8.275  0.6849E-02  0.1435E-02
  -8.265  0.7144E-02  0.1507E-02
  -8.255  0.7449E-02  0.1581E-02
  -8.245  0.7764E-02  0.1659E-02
  -8.235  0.8090E-02  0.1740E-02
  -8.225  0.8426E-02  0.1824E-02
  -8.215  0.8774E-02  0.1912E-02
  -8.205  0.9132E-02  0.2003E-02
  -8.195  0.9502E-02  0.2098E-02
  -8.185  0.9884E-02  0.2197E-02
  -8.175  0.1028E-01  0.2300E-02
  -8.165  0.1068E-01  0.2406E-02
  -8.155  0.1110E-01  0.2517E-02
  -8.145  0.1153E-01  0.2633E-02
  -8.135  0.1197E-01  0.2752E-02
  -8.125  0.1243E-01  0.2877E-02
  -8.115  0.1290E-01  0.3006E-02
  -8.105  0.1338E-01  0.3140E-02
  -8.095  0.1387E-01  0.3278E-02
  -8.085  0.1438E-01  0.3422E-02
  -8.075  0.1491E-01  0.3571E-02
  -8.065  0.1544E-01  0.3726E-02
  -8.055  0.1599E-01  0.3886E-02
  -8.045  0.1656E-01  0.4051E-02
  -8.035  0.1714E-01  0.4222E-02
  -8.025  0.1773E-01  0.4400E-02
  -8.015  0.1834E-01  0.4583E-02
  -8.005  0.1896E-01  0.4773E-02
  -7.995  0.1960E-01  0.4969E-02
  -7.985  0.2025E-01  0.5171E-02
  -7.975  0.2092E-01  0.5381E-02
  -7.965  0.2161E-01  0.5597E-02
  -7.955  0.2230E-01  0.5820E-02
  -7.945  0.2302E-01  0.6050E-02
  -7.935  0.2375E-01  0.6287E-02
  -7.925  0.2449E-01  0.6532E-02
  -7.915  0.2525E-01  0.6785E-02
  -7.905  0.2603E-01  0.7045E-02
  -7.895  0.2682E-01  0.7313E-02
  -7.885  0.2763E-01  0.7590E-02
  -7.875  0.2845E-01  0.7874E-02
  -7.865  0.2929E-01  0.8167E-02
  -7.855  0.3015E-01  0.8469E-02
  -7.845  0.3102E-01  0.8779E-02
  -7.835  0.3191E-01  0.9098E-02
  -7.825  0.3281E-01  0.9426E-02
  -7.815  0.3373E-01  0.9763E-02
  -7.805  0.3466E-01  0.1011E-01
  -7.795  0.3561E-01  0.1047E-01
  -7.785  0.3657E-01  0.1083E-01
  -7.775  0.3755E-01  0.1121E-01
  -7.765  0.3855E-01  0.1159E-01
  -7.755  0.3956E-01  0.1199E-01
  -7.745  0.4059E-01  0.1239E-01
  -7.735  0.4163E-01  0.1281E-01
  -7.725  0.4268E-01  0.1324E-01
  -7.715  0.4375E-01  0.1367E-01
  -7.705  0.4484E-01  0.1412E-01
  -7.695  0.4594E-01  0.1458E-01
  -7.685  0.4705E-01  0.1505E-01
  -7.675  0.4818E-01  0.1553E-01
  -7.665  0.4932E-01  0.1603E-01
  -7.655  0.5048E-01  0.1653E-01
  -7.645  0.5165E-01  0.1705E-01
  -7.635  0.5283E-01  0.1758E-01
  -7.625  0.5402E-01  0.1812E-01
  -7.615  0.5523E-01  0.1867E-01
  -7.605  0.5646E-01  0.1923E-01
  -7.595  0.5769E-01  0.1981E-01
  -7.585  0.5894E-01  0.2040E-01
  -7.575  0.6019E-01  0.2100E-01
  -7.565  0.6146E-01  0.2162E-01
  -7.555  0.6275E-01  0.2224E-01
  -7.545  0.6404E-01  0.2289E-01
  -7.535  0.6534E-01  0.2354E-01
  -7.525  0.6666E-01  0.2421E-01
  -7.515  0.6798E-01  0.2489E-01
  -7.505  0.6932E-01  0.2558E-01
  -7.495  0.7067E-01  0.2628E-01
  -7.485  0.7202E-01  0.2701E-01
  -7.475  0.7338E-01  0.2774E-01
  -7.465  0.7476E-01  0.2849E-01
  -7.455  0.7614E-01  0.2925E-01
  -7.445  0.7753E-01  0.3002E-01
  -7.435  0.7893E-01  0.3081E-01
  -7.425  0.8033E-01  0.3162E-01
  -7.415  0.8175E-01  0.3243E-01
  -7.405  0.8317E-01  0.3327E-01
  -7.395  0.8459E-01  0.3411E-01
  -7.385  0.8603E-01  0.3497E-01
  -7.375  0.8747E-01  0.3585E-01
  -7.365  0.8891E-01  0.3674E-01
  -7.355  0.9036E-01  0.3764E-01
  -7.345  0.9182E-01  0.3856E-01
  -7.335  0.9328E-01  0.3949E-01
  -7.325  0.9475E-01  0.4044E-01
  -7.315  0.9621E-01  0.4140E-01
  -7.305  0.9769E-01  0.4238E-01
  -7.295  0.9916E-01  0.4337E-01
  -7.285  0.1006E+00  0.4437E-01
  -7.275  0.1021E+00  0.4540E-01
  -7.265  0.1036E+00  0.4643E-01
  -7.255  0.1051E+00  0.4748E-01
  -7.245  0.1066E+00  0.4855E-01
  -7.235  0.1081E+00  0.4963E-01
  -7.225  0.1096E+00  0.5072E-01
  -7.215  0.1110E+00  0.5183E-01
  -7.205  0.1125E+00  0.5296E-01
  -7.195  0.1140E+00  0.5410E-01
  -7.185  0.1155E+00  0.5526E-01
  -7.175  0.1170E+00  0.5643E-01
  -7.165  0.1185E+00  0.5761E-01
  -7.155  0.1200E+00  0.5881E-01
  -7.145  0.1215E+00  0.6002E-01
  -7.135  0.1229E+00  0.6125E-01
  -7.125  0.1244E+00  0.6250E-01
  -7.115  0.1259E+00  0.6376E-01
  -7.105  0.1274E+00  0.6503E-01
  -7.095  0.1288E+00  0.6632E-01
  -7.085  0.1303E+00  0.6762E-01
  -7.075  0.1318E+00  0.6894E-01
  -7.065  0.1332E+00  0.7027E-01
  -7.055  0.1347E+00  0.7162E-01
  -7.045  0.1361E+00  0.7298E-01
  -7.035  0.1375E+00  0.7436E-01
  -7.025  0.1390E+00  0.7575E-01
  -7.015  0.1404E+00  0.7715E-01
  -7.005  0.1418E+00  0.7857E-01
  -6.995  0.1432E+00  0.8000E-01
  -6.985  0.1447E+00  0.8145E-01
  -6.975  0.1461E+00  0.8291E-01
  -6.965  0.1474E+00  0.8438E-01
  -6.955  0.1488E+00  0.8587E-01
  -6.945  0.1502E+00  0.8737E-01
  -6.935  0.1516E+00  0.8889E-01
  -6.925  0.1529E+00  0.9042E-01
  -6.915  0.1543E+00  0.9196E-01
  -6.905  0.1556E+00  0.9352E-01
  -6.895  0.1570E+00  0.9509E-01
  -6.885  0.1583E+00  0.9667E-01
  -6.875  0.1596E+00  0.9827E-01
  -6.865  0.1609E+00  0.9987E-01
  -6.855  0.1622E+00  0.1015E+00
  -6.845  0.1635E+00  0.1031E+00
  -6.835  0.1648E+00  0.1048E+00
  -6.825  0.1660E+00  0.1064E+00
  -6.815  0.1673E+00  0.1081E+00
  -6.805  0.1686E+00  0.1098E+00
  -6.795  0.1698E+00  0.1115E+00
  -6.785  0.1710E+00  0.1132E+00
  -6.775  0.1722E+00  0.1149E+00
  -6.765  0.1734E+00  0.1167E+00
  -6.755  0.1746E+00  0.1184E+00
  -6.745  0.1758E+00  0.1202E+00
  -6.735  0.1770E+00  0.1219E+00
  -6.725  0.1782E+00  0.1237E+00
  -6.715  0.1793E+00  0.1255E+00
  -6.705  0.1805E+00  0.1273E+00
  -6.695  0.1816E+00  0.1291E+00
  -6.685  0.1827E+00  0.1310E+00
  -6.675  0.1838E+00  0.1328E+00
  -6.665  0.1850E+00  0.1346E+00
  -6.655  0.1861E+00  0.1365E+00
  -6.645  0.1871E+00  0.1384E+00
  -6.635  0.1882E+00  0.1403E+00
  -6.625  0.1893E+00  0.1422E+00
  -6.615  0.1904E+00  0.1441E+00
  -6.605  0.1914E+00  0.1460E+00
  -6.595  0.1925E+00  0.1479E+00
  -6.585  0.1935E+00  0.1498E+00
  -6.575  0.1945E+00  0.1518E+00
  -6.565  0.1956E+00  0.1537E+00
  -6.555  0.1966E+00  0.1557E+00
  -6.545  0.1976E+00  0.1577E+00
  -6.535  0.1986E+00  0.1597E+00
  -6.525  0.1996E+00  0.1617E+00
  -6.515  0.2006E+00  0.1637E+00
  -6.505  0.2016E+00  0.1657E+00
  -6.495  0.2026E+00  0.1677E+00
  -6.485  0.2035E+00  0.1697E+00
  -6.475  0.2045E+00  0.1718E+00
  -6.465  0.2055E+00  0.1738E+00
  -6.455  0.2064E+00  0.1759E+00
  -6.445  0.2074E+00  0.1780E+00
  -6.435  0.2084E+00  0.1801E+00
  -6.425  0.2093E+00  0.1822E+00
  -6.415  0.2103E+00  0.1843E+00
  -6.405  0.2112E+00  0.1864E+00
  -6.395  0.2122E+00  0.1885E+00
  -6.385  0.2131E+00  0.1906E+00
  -6.375  0.2141E+00  0.1928E+00
  -6.365  0.2150E+00  0.1949E+00
  -6.355  0.2160E+00  0.1971E+00
  -6.345  0.2169E+00  0.1992E+00
  -6.335  0.2179E+00  0.2014E+00
  -6.325  0.2188E+00  0.2036E+00
  -6.315  0.2197E+00  0.2058E+00
  -6.305  0.2207E+00  0.2080E+00
  -6.295  0.2216E+00  0.2102E+00
  -6.285  0.2226E+00  0.2125E+00
  -6.275  0.2235E+00  0.2147E+00
  -6.265  0.2245E+00  0.2169E+00
  -6.255  0.2254E+00  0.2192E+00
  -6.245  0.2264E+00  0.2215E+00
  -6.235  0.2274E+00  0.2237E+00
  -6.225  0.2283E+00  0.2260E+00
  -6.215  0.2293E+00  0.2283E+00
  -6.205  0.2302E+00  0.2306E+00
  -6.195  0.2312E+00  0.2329E+00
  -6.185  0.2322E+00  0.2352E+00
  -6.175  0.2332E+00  0.2376E+00
  -6.165  0.2341E+00  0.2399E+00
  -6.155  0.2351E+00  0.2423E+00
  -6.145  0.2361E+00  0.2446E+00
  -6.135  0.2371E+00  0.2470E+00
  -6.125  0.2380E+00  0.2494E+00
  -6.115  0.2390E+00  0.2518E+00
  -6.105  0.2400E+00  0.2542E+00
  -6.095  0.2410E+00  0.2566E+00
  -6.085  0.2420E+00  0.2590E+00
  -6.075  0.2430E+00  0.2614E+00
  -6.065  0.2440E+00  0.2639E+00
  -6.055  0.2450E+00  0.2663E+00
  -6.045  0.2460E+00  0.2688E+00
  -6.035  0.2470E+00  0.2712E+00
  -6.025  0.2479E+00  0.2737E+00
  -6.015  0.2489E+00  0.2762E+00
  -6.005  0.2499E+00  0.2787E+00
  -5.995  0.2509E+00  0.2812E+00
  -5.985  0.2519E+00  0.2837E+00
  -5.975  0.2529E+00  0.2863E+00
  -5.965  0.2539E+00  0.2888E+00
  -5.955  0.2549E+00  0.2914E+00
  -5.945  0.2559E+00  0.2939E+00
  -5.935  0.2569E+00  0.2965E+00
  -5.925  0.2578E+00  0.2991E+00
  -5.915  0.2588E+00  0.3017E+00
  -5.905  0.2598E+00  0.3042E+00
  -5.895  0.2608E+00  0.3069E+00
  -5.885  0.2617E+00  0.3095E+00
  -5.875  0.2627E+00  0.3121E+00
  -5.865  0.2636E+00  0.3147E+00
  -5.855  0.2646E+00  0.3174E+00
  -5.845  0.2655E+00  0.3200E+00
  -5.835  0.2665E+00  0.3227E+00
  -5.825  0.2674E+00  0.3254E+00
  -5.815  0.2683E+00  0.3281E+00
  -5.805  0.2693E+00  0.3308E+00
  -5.795  0.2702E+00  0.3335E+00
  -5.785  0.2711E+00  0.3362E+00
  -5.775  0.2720E+00  0.3389E+00
  -5.765  0.2729E+00  0.3416E+00
  -5.755  0.2738E+00  0.3444E+00
  -5.745  0.2746E+00  0.3471E+00
  -5.735  0.2755E+00  0.3499E+00
  -5.725  0.2763E+00  0.3526E+00
  -5.715  0.2772E+00  0.3554E+00
  -5.705  0.2780E+00  0.3582E+00
  -5.695  0.2789E+00  0.3610E+00
  -5.685  0.2797E+00  0.3638E+00
  -5.675  0.2805E+00  0.3666E+00
  -5.665  0.2813E+00  0.3694E+00
  -5.655  0.2821E+00  0.3722E+00
  -5.645  0.2828E+00  0.3750E+00
  -5.635  0.2836E+00  0.3779E+00
  -5.625  0.2844E+00  0.3807E+00
  -5.615  0.2851E+00  0.3836E+00
  -5.605  0.2858E+00  0.3864E+00
  -5.595  0.2866E+00  0.3893E+00
  -5.585  0.2873E+00  0.3921E+00
  -5.575  0.2880E+00  0.3950E+00
  -5.565  0.2887E+00  0.3979E+00
  -5.555  0.2893E+00  0.4008E+00
  -5.545  0.2900E+00  0.4037E+00
  -5.535  0.2907E+00  0.4066E+00
  -5.525  0.2913E+00  0.4095E+00
  -5.515  0.2919E+00  0.4124E+00
  -5.505  0.2926E+00  0.4154E+00
  -5.495  0.2932E+00  0.4183E+00
  -5.485  0.2938E+00  0.4212E+00
  -5.475  0.2944E+00  0.4242E+00
  -5.465  0.2950E+00  0.4271E+00
  -5.455  0.2955E+00  0.4301E+00
  -5.445  0.2961E+00  0.4331E+00
  -5.435  0.2967E+00  0.4360E+00
  -5.425  0.2972E+00  0.4390E+00
  -5.415  0.2977E+00  0.4420E+00
  -5.405  0.2983E+00  0.4450E+00
  -5.395  0.2988E+00  0.4479E+00
  -5.385  0.2993E+00  0.4509E+00
  -5.375  0.2998E+00  0.4539E+00
  -5.365  0.3003E+00  0.4569E+00
  -5.355  0.3008E+00  0.4599E+00
  -5.345  0.3012E+00  0.4630E+00
  -5.335  0.3017E+00  0.4660E+00
  -5.325  0.3022E+00  0.4690E+00
  -5.315  0.3026E+00  0.4720E+00
  -5.305  0.3031E+00  0.4750E+00
  -5.295  0.3035E+00  0.4781E+00
  -5.285  0.3039E+00  0.4811E+00
  -5.275  0.3044E+00  0.4842E+00
  -5.265  0.3048E+00  0.4872E+00
  -5.255  0.3052E+00  0.4903E+00
  -5.245  0.3056E+00  0.4933E+00
  -5.235  0.3061E+00  0.4964E+00
  -5.225  0.3065E+00  0.4994E+00
  -5.215  0.3069E+00  0.5025E+00
  -5.205  0.3073E+00  0.5056E+00
  -5.195  0.3077E+00  0.5087E+00
  -5.185  0.3081E+00  0.5117E+00
  -5.175  0.3085E+00  0.5148E+00
  -5.165  0.3089E+00  0.5179E+00
  -5.155  0.3093E+00  0.5210E+00
  -5.145  0.3097E+00  0.5241E+00
  -5.135  0.3101E+00  0.5272E+00
  -5.125  0.3104E+00  0.5303E+00
  -5.115  0.3108E+00  0.5334E+00
  -5.105  0.3112E+00  0.5365E+00
  -5.095  0.3116E+00  0.5397E+00
  -5.085  0.3120E+00  0.5428E+00
  -5.075  0.3124E+00  0.5459E+00
  -5.065  0.3129E+00  0.5490E+00
  -5.055  0.3133E+00  0.5522E+00
  -5.045  0.3137E+00  0.5553E+00
  -5.035  0.3141E+00  0.5584E+00
  -5.025  0.3145E+00  0.5616E+00
  -5.015  0.3150E+00  0.5647E+00
  -5.005  0.3154E+00  0.5679E+00
  -4.995  0.3158E+00  0.5710E+00
  -4.985  0.3163E+00  0.5742E+00
  -4.975  0.3167E+00  0.5774E+00
  -4.965  0.3172E+00  0.5805E+00
  -4.955  0.3177E+00  0.5837E+00
  -4.945  0.3182E+00  0.5869E+00
  -4.935  0.3187E+00  0.5901E+00
  -4.925  0.3192E+00  0.5933E+00
  -4.915  0.3197E+00  0.5965E+00
  -4.905  0.3202E+00  0.5997E+00
  -4.895  0.3207E+00  0.6029E+00
  -4.885  0.3213E+00  0.6061E+00
  -4.875  0.3218E+00  0.6093E+00
  -4.865  0.3224E+00  0.6125E+00
  -4.855  0.3230E+00  0.6158E+00
  -4.845  0.3236E+00  0.6190E+00
  -4.835  0.3242E+00  0.6222E+00
  -4.825  0.3248E+00  0.6255E+00
  -4.815  0.3254E+00  0.6288E+00
  -4.805  0.3261E+00  0.6320E+00
  -4.795  0.3268E+00  0.6353E+00
  -4.785  0.3274E+00  0.6386E+00
  -4.775  0.3281E+00  0.6418E+00
  -4.765  0.3288E+00  0.6451E+00
  -4.755  0.3296E+00  0.6484E+00
  -4.745  0.3303E+00  0.6517E+00
  -4.735  0.3311E+00  0.6550E+00
  -4.725  0.3318E+00  0.6584E+00
  -4.715  0.3326E+00  0.6617E+00
  -4.705  0.3334E+00  0.6650E+00
  -4.695  0.3343E+00  0.6684E+00
  -4.685  0.3351E+00  0.6717E+00
  -4.675  0.3359E+00  0.6751E+00
  -4.665  0.3368E+00  0.6784E+00
  -4.655  0.3377E+00  0.6818E+00
  -4.645  0.3386E+00  0.6852E+00
  -4.635  0.3395E+00  0.6886E+00
  -4.625  0.3404E+00  0.6920E+00
  -4.615  0.3414E+00  0.6954E+00
  -4.605  0.3423E+00  0.6988E+00
  -4.595  0.3433E+00  0.7023E+00
  -4.585  0.3443E+00  0.7057E+00
  -4.575  0.3453E+00  0.7092E+00
  -4.565  0.3463E+00  0.7126E+00
  -4.555  0.3473E+00  0.7161E+00
  -4.545  0.3484E+00  0.7196E+00
  -4.535  0.3494E+00  0.7231E+00
  -4.525  0.3505E+00  0.7266E+00
  -4.515  0.3516E+00  0.7301E+00
  -4.505  0.3527E+00  0.7336E+00
  -4.495  0.3538E+00  0.7372E+00
  -4.485  0.3549E+00  0.7407E+00
  -4.475  0.3560E+00  0.7443E+00
  -4.465  0.3571E+00  0.7478E+00
  -4.455  0.3582E+00  0.7514E+00
  -4.445  0.3593E+00  0.7550E+00
  -4.435  0.3605E+00  0.7586E+00
  -4.425  0.3616E+00  0.7622E+00
  -4.415  0.3628E+00  0.7659E+00
  -4.405  0.3639E+00  0.7695E+00
  -4.395  0.3651E+00  0.7732E+00
  -4.385  0.3662E+00  0.7768E+00
  -4.375  0.3674E+00  0.7805E+00
  -4.365  0.3685E+00  0.7842E+00
  -4.355  0.3697E+00  0.7879E+00
  -4.345  0.3708E+00  0.7916E+00
  -4.335  0.3719E+00  0.7953E+00
  -4.325  0.3731E+00  0.7990E+00
  -4.315  0.3742E+00  0.8028E+00
  -4.305  0.3753E+00  0.8065E+00
  -4.295  0.3765E+00  0.8103E+00
  -4.285  0.3776E+00  0.8141E+00
  -4.275  0.3787E+00  0.8179E+00
  -4.265  0.3798E+00  0.8217E+00
  -4.255  0.3808E+00  0.8255E+00
  -4.245  0.3819E+00  0.8293E+00
  -4.235  0.3829E+00  0.8331E+00
  -4.225  0.3840E+00  0.8369E+00
  -4.215  0.3850E+00  0.8408E+00
  -4.205  0.3860E+00  0.8447E+00
  -4.195  0.3870E+00  0.8485E+00
  -4.185  0.3880E+00  0.8524E+00
  -4.175  0.3889E+00  0.8563E+00
  -4.165  0.3898E+00  0.8602E+00
  -4.155  0.3908E+00  0.8641E+00
  -4.145  0.3916E+00  0.8680E+00
  -4.135  0.3925E+00  0.8719E+00
  -4.125  0.3934E+00  0.8759E+00
  -4.115  0.3942E+00  0.8798E+00
  -4.105  0.3950E+00  0.8838E+00
  -4.095  0.3957E+00  0.8877E+00
  -4.085  0.3965E+00  0.8917E+00
  -4.075  0.3972E+00  0.8957E+00
  -4.065  0.3979E+00  0.8996E+00
  -4.055  0.3986E+00  0.9036E+00
  -4.045  0.3992E+00  0.9076E+00
  -4.035  0.3998E+00  0.9116E+00
  -4.025  0.4004E+00  0.9156E+00
  -4.015  0.4010E+00  0.9196E+00
  -4.005  0.4015E+00  0.9236E+00
  -3.995  0.4020E+00  0.9277E+00
  -3.985  0.4024E+00  0.9317E+00
  -3.975  0.4029E+00  0.9357E+00
  -3.965  0.4033E+00  0.9398E+00
  -3.955  0.4036E+00  0.9438E+00
  -3.945  0.4040E+00  0.9478E+00
  -3.935  0.4043E+00  0.9519E+00
  -3.925  0.4046E+00  0.9559E+00
  -3.915  0.4048E+00  0.9600E+00
  -3.905  0.4051E+00  0.9640E+00
  -3.895  0.4053E+00  0.9681E+00
  -3.885  0.4054E+00  0.9721E+00
  -3.875  0.4056E+00  0.9762E+00
  -3.865  0.4057E+00  0.9802E+00
  -3.855  0.4057E+00  0.9843E+00
  -3.845  0.4058E+00  0.9884E+00
  -3.835  0.4058E+00  0.9924E+00
  -3.825  0.4058E+00  0.9965E+00
  -3.815  0.4058E+00  0.1001E+01
  -3.805  0.4057E+00  0.1005E+01
  -3.795  0.4056E+00  0.1009E+01
  -3.785  0.4055E+00  0.1013E+01
  -3.775  0.4054E+00  0.1017E+01
  -3.765  0.4053E+00  0.1021E+01
  -3.755  0.4051E+00  0.1025E+01
  -3.745  0.4049E+00  0.1029E+01
  -3.735  0.4047E+00  0.1033E+01
  -3.725  0.4044E+00  0.1037E+01
  -3.715  0.4042E+00  0.1041E+01
  -3.705  0.4039E+00  0.1045E+01
  -3.695  0.4036E+00  0.1049E+01
  -3.685  0.4033E+00  0.1053E+01
  -3.675  0.4030E+00  0.1057E+01
  -3.665  0.4027E+00  0.1061E+01
  -3.655  0.4023E+00  0.1065E+01
  -3.645  0.4020E+00  0.1069E+01
  -3.635  0.4016E+00  0.1073E+01
  -3.625  0.4013E+00  0.1077E+01
  -3.615  0.4009E+00  0.1081E+01
  -3.605  0.4005E+00  0.1085E+01
  -3.595  0.4001E+00  0.1089E+01
  -3.585  0.3998E+00  0.1093E+01
  -3.575  0.3994E+00  0.1097E+01
  -3.565  0.3990E+00  0.1101E+01
  -3.555  0.3986E+00  0.1105E+01
  -3.545  0.3982E+00  0.1109E+01
  -3.535  0.3979E+00  0.1113E+01
  -3.525  0.3975E+00  0.1117E+01
  -3.515  0.3971E+00  0.1121E+01
  -3.505  0.3968E+00  0.1125E+01
  -3.495  0.3965E+00  0.1129E+01
  -3.485  0.3961E+00  0.1133E+01
  -3.475  0.3958E+00  0.1137E+01
  -3.465  0.3955E+00  0.1141E+01
  -3.455  0.3952E+00  0.1145E+01
  -3.445  0.3950E+00  0.1149E+01
  -3.435  0.3947E+00  0.1153E+01
  -3.425  0.3945E+00  0.1157E+01
  -3.415  0.3943E+00  0.1161E+01
  -3.405  0.3942E+00  0.1165E+01
  -3.395  0.3940E+00  0.1169E+01
  -3.385  0.3939E+00  0.1173E+01
  -3.375  0.3938E+00  0.1176E+01
  -3.365  0.3937E+00  0.1180E+01
  -3.355  0.3937E+00  0.1184E+01
  -3.345  0.3937E+00  0.1188E+01
  -3.335  0.3937E+00  0.1192E+01
  -3.325  0.3938E+00  0.1196E+01
  -3.315  0.3939E+00  0.1200E+01
  -3.305  0.3940E+00  0.1204E+01
  -3.295  0.3942E+00  0.1208E+01
  -3.285  0.3944E+00  0.1212E+01
  -3.275  0.3946E+00  0.1216E+01
  -3.265  0.3949E+00  0.1220E+01
  -3.255  0.3952E+00  0.1224E+01
  -3.245  0.3956E+00  0.1228E+01
  -3.235  0.3960E+00  0.1232E+01
  -3.225  0.3964E+00  0.1236E+01
  -3.215  0.3969E+00  0.1240E+01
  -3.205  0.3974E+00  0.1244E+01
  -3.195  0.3980E+00  0.1248E+01
  -3.185  0.3986E+00  0.1252E+01
  -3.175  0.3992E+00  0.1256E+01
  -3.165  0.3999E+00  0.1260E+01
  -3.155  0.4007E+00  0.1264E+01
  -3.145  0.4014E+00  0.1268E+01
  -3.135  0.4023E+00  0.1272E+01
  -3.125  0.4031E+00  0.1276E+01
  -3.115  0.4040E+00  0.1280E+01
  -3.105  0.4050E+00  0.1284E+01
  -3.095  0.4059E+00  0.1288E+01
  -3.085  0.4070E+00  0.1292E+01
  -3.075  0.4080E+00  0.1296E+01
  -3.065  0.4091E+00  0.1300E+01
  -3.055  0.4103E+00  0.1304E+01
  -3.045  0.4114E+00  0.1308E+01
  -3.035  0.4127E+00  0.1312E+01
  -3.025  0.4139E+00  0.1316E+01
  -3.015  0.4152E+00  0.1321E+01
  -3.005  0.4165E+00  0.1325E+01
  -2.995  0.4179E+00  0.1329E+01
  -2.985  0.4192E+00  0.1333E+01
  -2.975  0.4206E+00  0.1337E+01
  -2.965  0.4221E+00  0.1342E+01
  -2.955  0.4236E+00  0.1346E+01
  -2.945  0.4251E+00  0.1350E+01
  -2.935  0.4266E+00  0.1354E+01
  -2.925  0.4281E+00  0.1359E+01
  -2.915  0.4297E+00  0.1363E+01
  -2.905  0.4313E+00  0.1367E+01
  -2.895  0.4329E+00  0.1372E+01
  -2.885  0.4345E+00  0.1376E+01
  -2.875  0.4361E+00  0.1380E+01
  -2.865  0.4378E+00  0.1385E+01
  -2.855  0.4395E+00  0.1389E+01
  -2.845  0.4411E+00  0.1393E+01
  -2.835  0.4428E+00  0.1398E+01
  -2.825  0.4445E+00  0.1402E+01
  -2.815  0.4462E+00  0.1407E+01
  -2.805  0.4479E+00  0.1411E+01
  -2.795  0.4496E+00  0.1416E+01
  -2.785  0.4513E+00  0.1420E+01
  -2.775  0.4530E+00  0.1425E+01
  -2.765  0.4547E+00  0.1429E+01
  -2.755  0.4564E+00  0.1434E+01
  -2.745  0.4581E+00  0.1439E+01
  -2.735  0.4598E+00  0.1443E+01
  -2.725  0.4615E+00  0.1448E+01
  -2.715  0.4632E+00  0.1452E+01
  -2.705  0.4648E+00  0.1457E+01
  -2.695  0.4664E+00  0.1462E+01
  -2.685  0.4681E+00  0.1466E+01
  -2.675  0.4697E+00  0.1471E+01
  -2.665  0.4713E+00  0.1476E+01
  -2.655  0.4728E+00  0.1480E+01
  -2.645  0.4744E+00  0.1485E+01
  -2.635  0.4759E+00  0.1490E+01
  -2.625  0.4774E+00  0.1495E+01
  -2.615  0.4788E+00  0.1500E+01
  -2.605  0.4803E+00  0.1504E+01
  -2.595  0.4817E+00  0.1509E+01
  -2.585  0.4831E+00  0.1514E+01
  -2.575  0.4844E+00  0.1519E+01
  -2.565  0.4858E+00  0.1524E+01
  -2.555  0.4871E+00  0.1529E+01
  -2.545  0.4883E+00  0.1533E+01
  -2.535  0.4895E+00  0.1538E+01
  -2.525  0.4907E+00  0.1543E+01
  -2.515  0.4919E+00  0.1548E+01
  -2.505  0.4930E+00  0.1553E+01
  -2.495  0.4941E+00  0.1558E+01
  -2.485  0.4951E+00  0.1563E+01
  -2.475  0.4961E+00  0.1568E+01
  -2.465  0.4971E+00  0.1573E+01
  -2.455  0.4980E+00  0.1578E+01
  -2.445  0.4989E+00  0.1583E+01
  -2.435  0.4997E+00  0.1588E+01
  -2.425  0.5005E+00  0.1593E+01
  -2.415  0.5013E+00  0.1598E+01
  -2.405  0.5020E+00  0.1603E+01
  -2.395  0.5026E+00  0.1608E+01
  -2.385  0.5033E+00  0.1613E+01
  -2.375  0.5039E+00  0.1618E+01
  -2.365  0.5044E+00  0.1623E+01
  -2.355  0.5049E+00  0.1628E+01
  -2.345  0.5054E+00  0.1633E+01
  -2.335  0.5058E+00  0.1638E+01
  -2.325  0.5062E+00  0.1643E+01
  -2.315  0.5065E+00  0.1648E+01
  -2.305  0.5068E+00  0.1653E+01
  -2.295  0.5071E+00  0.1659E+01
  -2.285  0.5073E+00  0.1664E+01
  -2.275  0.5075E+00  0.1669E+01
  -2.265  0.5077E+00  0.1674E+01
  -2.255  0.5078E+00  0.1679E+01
  -2.245  0.5078E+00  0.1684E+01
  -2.235  0.5079E+00  0.1689E+01
  -2.225  0.5079E+00  0.1694E+01
  -2.215  0.5078E+00  0.1699E+01
  -2.205  0.5077E+00  0.1704E+01
  -2.195  0.5076E+00  0.1709E+01
  -2.185  0.5075E+00  0.1714E+01
  -2.175  0.5073E+00  0.1719E+01
  -2.165  0.5071E+00  0.1724E+01
  -2.155  0.5069E+00  0.1730E+01
  -2.145  0.5066E+00  0.1735E+01
  -2.135  0.5063E+00  0.1740E+01
  -2.125  0.5060E+00  0.1745E+01
  -2.115  0.5056E+00  0.1750E+01
  -2.105  0.5053E+00  0.1755E+01
  -2.095  0.5049E+00  0.1760E+01
  -2.085  0.5044E+00  0.1765E+01
  -2.075  0.5040E+00  0.1770E+01
  -2.065  0.5035E+00  0.1775E+01
  -2.055  0.5030E+00  0.1780E+01
  -2.045  0.5025E+00  0.1785E+01
  -2.035  0.5020E+00  0.1790E+01
  -2.025  0.5015E+00  0.1795E+01
  -2.015  0.5009E+00  0.1800E+01
  -2.005  0.5004E+00  0.1805E+01
  -1.995  0.4998E+00  0.1810E+01
  -1.985  0.4992E+00  0.1815E+01
  -1.975  0.4986E+00  0.1820E+01
  -1.965  0.4980E+00  0.1825E+01
  -1.955  0.4974E+00  0.1830E+01
  -1.945  0.4968E+00  0.1835E+01
  -1.935  0.4962E+00  0.1840E+01
  -1.925  0.4956E+00  0.1845E+01
  -1.915  0.4950E+00  0.1850E+01
  -1.905  0.4943E+00  0.1855E+01
  -1.895  0.4937E+00  0.1860E+01
  -1.885  0.4931E+00  0.1865E+01
  -1.875  0.4925E+00  0.1870E+01
  -1.865  0.4919E+00  0.1875E+01
  -1.855  0.4913E+00  0.1879E+01
  -1.845  0.4908E+00  0.1884E+01
  -1.835  0.4902E+00  0.1889E+01
  -1.825  0.4897E+00  0.1894E+01
  -1.815  0.4891E+00  0.1899E+01
  -1.805  0.4886E+00  0.1904E+01
  -1.795  0.4881E+00  0.1909E+01
  -1.785  0.4876E+00  0.1914E+01
  -1.775  0.4872E+00  0.1919E+01
  -1.765  0.4867E+00  0.1923E+01
  -1.755  0.4863E+00  0.1928E+01
  -1.745  0.4859E+00  0.1933E+01
  -1.735  0.4855E+00  0.1938E+01
  -1.725  0.4852E+00  0.1943E+01
  -1.715  0.4849E+00  0.1948E+01
  -1.705  0.4846E+00  0.1953E+01
  -1.695  0.4843E+00  0.1957E+01
  -1.685  0.4841E+00  0.1962E+01
  -1.675  0.4839E+00  0.1967E+01
  -1.665  0.4837E+00  0.1972E+01
  -1.655  0.4836E+00  0.1977E+01
  -1.645  0.4835E+00  0.1982E+01
  -1.635  0.4834E+00  0.1986E+01
  -1.625  0.4834E+00  0.1991E+01
  -1.615  0.4834E+00  0.1996E+01
  -1.605  0.4834E+00  0.2001E+01
  -1.595  0.4835E+00  0.2006E+01
  -1.585  0.4836E+00  0.2011E+01
  -1.575  0.4837E+00  0.2015E+01
  -1.565  0.4839E+00  0.2020E+01
  -1.555  0.4841E+00  0.2025E+01
  -1.545  0.4844E+00  0.2030E+01
  -1.535  0.4847E+00  0.2035E+01
  -1.525  0.4851E+00  0.2040E+01
  -1.515  0.4854E+00  0.2045E+01
  -1.505  0.4859E+00  0.2049E+01
  -1.495  0.4863E+00  0.2054E+01
  -1.485  0.4868E+00  0.2059E+01
  -1.475  0.4873E+00  0.2064E+01
  -1.465  0.4879E+00  0.2069E+01
  -1.455  0.4885E+00  0.2074E+01
  -1.445  0.4892E+00  0.2079E+01
  -1.435  0.4899E+00  0.2084E+01
  -1.425  0.4906E+00  0.2088E+01
  -1.415  0.4913E+00  0.2093E+01
  -1.405  0.4921E+00  0.2098E+01
  -1.395  0.4929E+00  0.2103E+01
  -1.385  0.4938E+00  0.2108E+01
  -1.375  0.4947E+00  0.2113E+01
  -1.365  0.4956E+00  0.2118E+01
  -1.355  0.4965E+00  0.2123E+01
  -1.345  0.4975E+00  0.2128E+01
  -1.335  0.4985E+00  0.2133E+01
  -1.325  0.4996E+00  0.2138E+01
  -1.315  0.5006E+00  0.2143E+01
  -1.305  0.5017E+00  0.2148E+01
  -1.295  0.5028E+00  0.2153E+01
  -1.285  0.5040E+00  0.2158E+01
  -1.275  0.5051E+00  0.2163E+01
  -1.265  0.5063E+00  0.2168E+01
  -1.255  0.5075E+00  0.2173E+01
  -1.245  0.5087E+00  0.2178E+01
  -1.235  0.5099E+00  0.2183E+01
  -1.225  0.5112E+00  0.2189E+01
  -1.215  0.5124E+00  0.2194E+01
  -1.205  0.5137E+00  0.2199E+01
  -1.195  0.5150E+00  0.2204E+01
  -1.185  0.5163E+00  0.2209E+01
  -1.175  0.5176E+00  0.2214E+01
  -1.165  0.5189E+00  0.2219E+01
  -1.155  0.5202E+00  0.2225E+01
  -1.145  0.5215E+00  0.2230E+01
  -1.135  0.5229E+00  0.2235E+01
  -1.125  0.5242E+00  0.2240E+01
  -1.115  0.5255E+00  0.2246E+01
  -1.105  0.5269E+00  0.2251E+01
  -1.095  0.5282E+00  0.2256E+01
  -1.085  0.5295E+00  0.2261E+01
  -1.075  0.5309E+00  0.2267E+01
  -1.065  0.5322E+00  0.2272E+01
  -1.055  0.5335E+00  0.2277E+01
  -1.045  0.5348E+00  0.2283E+01
  -1.035  0.5361E+00  0.2288E+01
  -1.025  0.5374E+00  0.2294E+01
  -1.015  0.5387E+00  0.2299E+01
  -1.005  0.5400E+00  0.2304E+01
  -0.995  0.5413E+00  0.2310E+01
  -0.985  0.5425E+00  0.2315E+01
  -0.975  0.5438E+00  0.2321E+01
  -0.965  0.5450E+00  0.2326E+01
  -0.955  0.5462E+00  0.2332E+01
  -0.945  0.5474E+00  0.2337E+01
  -0.935  0.5486E+00  0.2342E+01
  -0.925  0.5498E+00  0.2348E+01
  -0.915  0.5510E+00  0.2353E+01
  -0.905  0.5521E+00  0.2359E+01
  -0.895  0.5533E+00  0.2365E+01
  -0.885  0.5544E+00  0.2370E+01
  -0.875  0.5555E+00  0.2376E+01
  -0.865  0.5566E+00  0.2381E+01
  -0.855  0.5577E+00  0.2387E+01
  -0.845  0.5587E+00  0.2392E+01
  -0.835  0.5598E+00  0.2398E+01
  -0.825  0.5608E+00  0.2404E+01
  -0.815  0.5618E+00  0.2409E+01
  -0.805  0.5628E+00  0.2415E+01
  -0.795  0.5638E+00  0.2420E+01
  -0.785  0.5647E+00  0.2426E+01
  -0.775  0.5657E+00  0.2432E+01
  -0.765  0.5666E+00  0.2437E+01
  -0.755  0.5675E+00  0.2443E+01
  -0.745  0.5684E+00  0.2449E+01
  -0.735  0.5693E+00  0.2454E+01
  -0.725  0.5701E+00  0.2460E+01
  -0.715  0.5710E+00  0.2466E+01
  -0.705  0.5718E+00  0.2472E+01
  -0.695  0.5726E+00  0.2477E+01
  -0.685  0.5734E+00  0.2483E+01
  -0.675  0.5742E+00  0.2489E+01
  -0.665  0.5750E+00  0.2495E+01
  -0.655  0.5758E+00  0.2500E+01
  -0.645  0.5765E+00  0.2506E+01
  -0.635  0.5773E+00  0.2512E+01
  -0.625  0.5780E+00  0.2518E+01
  -0.615  0.5787E+00  0.2523E+01
  -0.605  0.5794E+00  0.2529E+01
  -0.595  0.5801E+00  0.2535E+01
  -0.585  0.5808E+00  0.2541E+01
  -0.575  0.5815E+00  0.2547E+01
  -0.565  0.5822E+00  0.2552E+01
  -0.555  0.5829E+00  0.2558E+01
  -0.545  0.5835E+00  0.2564E+01
  -0.535  0.5842E+00  0.2570E+01
  -0.525  0.5848E+00  0.2576E+01
  -0.515  0.5854E+00  0.2582E+01
  -0.505  0.5860E+00  0.2588E+01
  -0.495  0.5867E+00  0.2593E+01
  -0.485  0.5873E+00  0.2599E+01
  -0.475  0.5879E+00  0.2605E+01
  -0.465  0.5885E+00  0.2611E+01
  -0.455  0.5891E+00  0.2617E+01
  -0.445  0.5897E+00  0.2623E+01
  -0.435  0.5903E+00  0.2629E+01
  -0.425  0.5908E+00  0.2635E+01
  -0.415  0.5914E+00  0.2641E+01
  -0.405  0.5920E+00  0.2646E+01
  -0.395  0.5925E+00  0.2652E+01
  -0.385  0.5931E+00  0.2658E+01
  -0.375  0.5937E+00  0.2664E+01
  -0.365  0.5942E+00  0.2670E+01
  -0.355  0.5947E+00  0.2676E+01
  -0.345  0.5953E+00  0.2682E+01
  -0.335  0.5958E+00  0.2688E+01
  -0.325  0.5964E+00  0.2694E+01
  -0.315  0.5969E+00  0.2700E+01
  -0.305  0.5974E+00  0.2706E+01
  -0.295  0.5979E+00  0.2712E+01
  -0.285  0.5984E+00  0.2718E+01
  -0.275  0.5989E+00  0.2724E+01
  -0.265  0.5994E+00  0.2730E+01
  -0.255  0.5999E+00  0.2736E+01
  -0.245  0.6004E+00  0.2742E+01
  -0.235  0.6009E+00  0.2748E+01
  -0.225  0.6014E+00  0.2754E+01
  -0.215  0.6019E+00  0.2760E+01
  -0.205  0.6023E+00  0.2766E+01
  -0.195  0.6028E+00  0.2772E+01
  -0.185  0.6032E+00  0.2778E+01
  -0.175  0.6037E+00  0.2784E+01
  -0.165  0.6041E+00  0.2790E+01
  -0.155  0.6045E+00  0.2796E+01
  -0.145  0.6050E+00  0.2802E+01
  -0.135  0.6054E+00  0.2808E+01
  -0.125  0.6058E+00  0.2814E+01
  -0.115  0.6061E+00  0.2820E+01
  -0.105  0.6065E+00  0.2826E+01
  -0.095  0.6069E+00  0.2833E+01
  -0.085  0.6072E+00  0.2839E+01
  -0.075  0.6076E+00  0.2845E+01
  -0.065  0.6079E+00  0.2851E+01
  -0.055  0.6082E+00  0.2857E+01
  -0.045  0.6085E+00  0.2863E+01
  -0.035  0.6088E+00  0.2869E+01
  -0.025  0.6090E+00  0.2875E+01
  -0.015  0.6093E+00  0.2881E+01
  -0.005  0.6095E+00  0.2887E+01
   0.005  0.6097E+00  0.2893E+01
   0.015  0.6099E+00  0.2899E+01
   0.025  0.6101E+00  0.2906E+01
   0.035  0.6103E+00  0.2912E+01
   0.045  0.6104E+00  0.2918E+01
   0.055  0.6106E+00  0.2924E+01
   0.065  0.6107E+00  0.2930E+01
   0.075  0.6107E+00  0.2936E+01
   0.085  0.6108E+00  0.2942E+01
   0.095  0.6108E+00  0.2948E+01
   0.105  0.6109E+00  0.2954E+01
   0.115  0.6109E+00  0.2961E+01
   0.125  0.6108E+00  0.2967E+01
   0.135  0.6108E+00  0.2973E+01
   0.145  0.6107E+00  0.2979E+01
   0.155  0.6106E+00  0.2985E+01
   0.165  0.6105E+00  0.2991E+01
   0.175  0.6103E+00  0.2997E+01
   0.185  0.6102E+00  0.3003E+01
   0.195  0.6100E+00  0.3009E+01
   0.205  0.6097E+00  0.3015E+01
   0.215  0.6095E+00  0.3022E+01
   0.225  0.6092E+00  0.3028E+01
   0.235  0.6089E+00  0.3034E+01
   0.245  0.6085E+00  0.3040E+01
   0.255  0.6082E+00  0.3046E+01
   0.265  0.6078E+00  0.3052E+01
   0.275  0.6073E+00  0.3058E+01
   0.285  0.6069E+00  0.3064E+01
   0.295  0.6064E+00  0.3070E+01
   0.305  0.6059E+00  0.3076E+01
   0.315  0.6053E+00  0.3082E+01
   0.325  0.6047E+00  0.3088E+01
   0.335  0.6041E+00  0.3094E+01
   0.345  0.6035E+00  0.3100E+01
   0.355  0.6028E+00  0.3106E+01
   0.365  0.6021E+00  0.3112E+01
   0.375  0.6014E+00  0.3118E+01
   0.385  0.6006E+00  0.3124E+01
   0.395  0.5998E+00  0.3130E+01
   0.405  0.5990E+00  0.3136E+01
   0.415  0.5981E+00  0.3142E+01
   0.425  0.5972E+00  0.3148E+01
   0.435  0.5963E+00  0.3154E+01
   0.445  0.5954E+00  0.3160E+01
   0.455  0.5944E+00  0.3166E+01
   0.465  0.5934E+00  0.3172E+01
   0.475  0.5924E+00  0.3178E+01
   0.485  0.5913E+00  0.3184E+01
   0.495  0.5902E+00  0.3190E+01
   0.505  0.5891E+00  0.3196E+01
   0.515  0.5879E+00  0.3202E+01
   0.525  0.5868E+00  0.3208E+01
   0.535  0.5856E+00  0.3213E+01
   0.545  0.5844E+00  0.3219E+01
   0.555  0.5831E+00  0.3225E+01
   0.565  0.5819E+00  0.3231E+01
   0.575  0.5806E+00  0.3237E+01
   0.585  0.5793E+00  0.3243E+01
   0.595  0.5779E+00  0.3248E+01
   0.605  0.5766E+00  0.3254E+01
   0.615  0.5752E+00  0.3260E+01
   0.625  0.5738E+00  0.3266E+01
   0.635  0.5724E+00  0.3271E+01
   0.645  0.5710E+00  0.3277E+01
   0.655  0.5696E+00  0.3283E+01
   0.665  0.5682E+00  0.3288E+01
   0.675  0.5667E+00  0.3294E+01
   0.685  0.5653E+00  0.3300E+01
   0.695  0.5638E+00  0.3305E+01
   0.705  0.5624E+00  0.3311E+01
   0.715  0.5609E+00  0.3317E+01
   0.725  0.5594E+00  0.3322E+01
   0.735  0.5579E+00  0.3328E+01
   0.745  0.5565E+00  0.3333E+01
   0.755  0.5550E+00  0.3339E+01
   0.765  0.5535E+00  0.3344E+01
   0.775  0.5521E+00  0.3350E+01
   0.785  0.5506E+00  0.3355E+01
   0.795  0.5492E+00  0.3361E+01
   0.805  0.5478E+00  0.3366E+01
   0.815  0.5463E+00  0.3372E+01
   0.825  0.5449E+00  0.3377E+01
   0.835  0.5436E+00  0.3383E+01
   0.845  0.5422E+00  0.3388E+01
   0.855  0.5408E+00  0.3394E+01
   0.865  0.5395E+00  0.3399E+01
   0.875  0.5382E+00  0.3404E+01
   0.885  0.5370E+00  0.3410E+01
   0.895  0.5357E+00  0.3415E+01
   0.905  0.5345E+00  0.3420E+01
   0.915  0.5333E+00  0.3426E+01
   0.925  0.5322E+00  0.3431E+01
   0.935  0.5311E+00  0.3436E+01
   0.945  0.5300E+00  0.3442E+01
   0.955  0.5290E+00  0.3447E+01
   0.965  0.5280E+00  0.3452E+01
   0.975  0.5271E+00  0.3458E+01
   0.985  0.5262E+00  0.3463E+01
   0.995  0.5253E+00  0.3468E+01
   1.005  0.5245E+00  0.3473E+01
   1.015  0.5237E+00  0.3479E+01
   1.025  0.5230E+00  0.3484E+01
   1.035  0.5224E+00  0.3489E+01
   1.045  0.5218E+00  0.3494E+01
   1.055  0.5212E+00  0.3499E+01
   1.065  0.5207E+00  0.3505E+01
   1.075  0.5203E+00  0.3510E+01
   1.085  0.5199E+00  0.3515E+01
   1.095  0.5196E+00  0.3520E+01
   1.105  0.5194E+00  0.3525E+01
   1.115  0.5192E+00  0.3531E+01
   1.125  0.5191E+00  0.3536E+01
   1.135  0.5190E+00  0.3541E+01
   1.145  0.5190E+00  0.3546E+01
   1.155  0.5190E+00  0.3551E+01
   1.165  0.5192E+00  0.3557E+01
   1.175  0.5194E+00  0.3562E+01
   1.185  0.5196E+00  0.3567E+01
   1.195  0.5200E+00  0.3572E+01
   1.205  0.5203E+00  0.3577E+01
   1.215  0.5208E+00  0.3583E+01
   1.225  0.5213E+00  0.3588E+01
   1.235  0.5219E+00  0.3593E+01
   1.245  0.5226E+00  0.3598E+01
   1.255  0.5233E+00  0.3603E+01
   1.265  0.5241E+00  0.3609E+01
   1.275  0.5250E+00  0.3614E+01
   1.285  0.5259E+00  0.3619E+01
   1.295  0.5269E+00  0.3624E+01
   1.305  0.5279E+00  0.3630E+01
   1.315  0.5290E+00  0.3635E+01
   1.325  0.5302E+00  0.3640E+01
   1.335  0.5314E+00  0.3646E+01
   1.345  0.5327E+00  0.3651E+01
   1.355  0.5341E+00  0.3656E+01
   1.365  0.5355E+00  0.3662E+01
   1.375  0.5369E+00  0.3667E+01
   1.385  0.5385E+00  0.3672E+01
   1.395  0.5400E+00  0.3678E+01
   1.405  0.5417E+00  0.3683E+01
   1.415  0.5433E+00  0.3689E+01
   1.425  0.5451E+00  0.3694E+01
   1.435  0.5468E+00  0.3700E+01
   1.445  0.5487E+00  0.3705E+01
   1.455  0.5505E+00  0.3711E+01
   1.465  0.5524E+00  0.3716E+01
   1.475  0.5544E+00  0.3722E+01
   1.485  0.5564E+00  0.3727E+01
   1.495  0.5584E+00  0.3733E+01
   1.505  0.5605E+00  0.3738E+01
   1.515  0.5626E+00  0.3744E+01
   1.525  0.5647E+00  0.3750E+01
   1.535  0.5668E+00  0.3755E+01
   1.545  0.5690E+00  0.3761E+01
   1.555  0.5712E+00  0.3767E+01
   1.565  0.5735E+00  0.3773E+01
   1.575  0.5757E+00  0.3778E+01
   1.585  0.5780E+00  0.3784E+01
   1.595  0.5803E+00  0.3790E+01
   1.605  0.5826E+00  0.3796E+01
   1.615  0.5849E+00  0.3802E+01
   1.625  0.5872E+00  0.3807E+01
   1.635  0.5895E+00  0.3813E+01
   1.645  0.5919E+00  0.3819E+01
   1.655  0.5942E+00  0.3825E+01
   1.665  0.5966E+00  0.3831E+01
   1.675  0.5989E+00  0.3837E+01
   1.685  0.6013E+00  0.3843E+01
   1.695  0.6036E+00  0.3849E+01
   1.705  0.6059E+00  0.3855E+01
   1.715  0.6083E+00  0.3861E+01
   1.725  0.6106E+00  0.3867E+01
   1.735  0.6129E+00  0.3874E+01
   1.745  0.6152E+00  0.3880E+01
   1.755  0.6174E+00  0.3886E+01
   1.765  0.6197E+00  0.3892E+01
   1.775  0.6219E+00  0.3898E+01
   1.785  0.6241E+00  0.3905E+01
   1.795  0.6263E+00  0.3911E+01
   1.805  0.6285E+00  0.3917E+01
   1.815  0.6306E+00  0.3923E+01
   1.825  0.6327E+00  0.3930E+01
   1.835  0.6348E+00  0.3936E+01
   1.845  0.6368E+00  0.3942E+01
   1.855  0.6388E+00  0.3949E+01
   1.865  0.6408E+00  0.3955E+01
   1.875  0.6427E+00  0.3962E+01
   1.885  0.6446E+00  0.3968E+01
   1.895  0.6465E+00  0.3975E+01
   1.905  0.6483E+00  0.3981E+01
   1.915  0.6501E+00  0.3988E+01
   1.925  0.6518E+00  0.3994E+01
   1.935  0.6535E+00  0.4001E+01
   1.945  0.6551E+00  0.4007E+01
   1.955  0.6567E+00  0.4014E+01
   1.965  0.6583E+00  0.4020E+01
   1.975  0.6598E+00  0.4027E+01
   1.985  0.6612E+00  0.4033E+01
   1.995  0.6626E+00  0.4040E+01
   2.005  0.6640E+00  0.4047E+01
   2.015  0.6652E+00  0.4053E+01
   2.025  0.6665E+00  0.4060E+01
   2.035  0.6677E+00  0.4067E+01
   2.045  0.6688E+00  0.4073E+01
   2.055  0.6699E+00  0.4080E+01
   2.065  0.6709E+00  0.4087E+01
   2.075  0.6719E+00  0.4094E+01
   2.085  0.6728E+00  0.4100E+01
   2.095  0.6736E+00  0.4107E+01
   2.105  0.6744E+00  0.4114E+01
   2.115  0.6751E+00  0.4121E+01
   2.125  0.6758E+00  0.4127E+01
   2.135  0.6764E+00  0.4134E+01
   2.145  0.6770E+00  0.4141E+01
   2.155  0.6775E+00  0.4148E+01
   2.165  0.6779E+00  0.4154E+01
   2.175  0.6783E+00  0.4161E+01
   2.185  0.6787E+00  0.4168E+01
   2.195  0.6789E+00  0.4175E+01
   2.205  0.6792E+00  0.4182E+01
   2.215  0.6793E+00  0.4188E+01
   2.225  0.6794E+00  0.4195E+01
   2.235  0.6795E+00  0.4202E+01
   2.245  0.6795E+00  0.4209E+01
   2.255  0.6794E+00  0.4215E+01
   2.265  0.6793E+00  0.4222E+01
   2.275  0.6791E+00  0.4229E+01
   2.285  0.6789E+00  0.4236E+01
   2.295  0.6786E+00  0.4243E+01
   2.305  0.6783E+00  0.4249E+01
   2.315  0.6779E+00  0.4256E+01
   2.325  0.6775E+00  0.4263E+01
   2.335  0.6770E+00  0.4270E+01
   2.345  0.6765E+00  0.4277E+01
   2.355  0.6759E+00  0.4283E+01
   2.365  0.6753E+00  0.4290E+01
   2.375  0.6747E+00  0.4297E+01
   2.385  0.6740E+00  0.4304E+01
   2.395  0.6733E+00  0.4310E+01
   2.405  0.6725E+00  0.4317E+01
   2.415  0.6717E+00  0.4324E+01
   2.425  0.6708E+00  0.4330E+01
   2.435  0.6700E+00  0.4337E+01
   2.445  0.6690E+00  0.4344E+01
   2.455  0.6681E+00  0.4350E+01
   2.465  0.6671E+00  0.4357E+01
   2.475  0.6661E+00  0.4364E+01
   2.485  0.6651E+00  0.4370E+01
   2.495  0.6641E+00  0.4377E+01
   2.505  0.6630E+00  0.4384E+01
   2.515  0.6619E+00  0.4390E+01
   2.525  0.6608E+00  0.4397E+01
   2.535  0.6597E+00  0.4404E+01
   2.545  0.6586E+00  0.4410E+01
   2.555  0.6574E+00  0.4417E+01
   2.565  0.6563E+00  0.4423E+01
   2.575  0.6551E+00  0.4430E+01
   2.585  0.6539E+00  0.4436E+01
   2.595  0.6528E+00  0.4443E+01
   2.605  0.6516E+00  0.4449E+01
   2.615  0.6504E+00  0.4456E+01
   2.625  0.6493E+00  0.4462E+01
   2.635  0.6481E+00  0.4469E+01
   2.645  0.6470E+00  0.4475E+01
   2.655  0.6458E+00  0.4482E+01
   2.665  0.6447E+00  0.4488E+01
   2.675  0.6436E+00  0.4495E+01
   2.685  0.6425E+00  0.4501E+01
   2.695  0.6414E+00  0.4508E+01
   2.705  0.6404E+00  0.4514E+01
   2.715  0.6393E+00  0.4520E+01
   2.725  0.6383E+00  0.4527E+01
   2.735  0.6374E+00  0.4533E+01
   2.745  0.6364E+00  0.4539E+01
   2.755  0.6355E+00  0.4546E+01
   2.765  0.6346E+00  0.4552E+01
   2.775  0.6338E+00  0.4558E+01
   2.785  0.6330E+00  0.4565E+01
   2.795  0.6323E+00  0.4571E+01
   2.805  0.6315E+00  0.4577E+01
   2.815  0.6309E+00  0.4584E+01
   2.825  0.6302E+00  0.4590E+01
   2.835  0.6297E+00  0.4596E+01
   2.845  0.6291E+00  0.4603E+01
   2.855  0.6286E+00  0.4609E+01
   2.865  0.6282E+00  0.4615E+01
   2.875  0.6278E+00  0.4622E+01
   2.885  0.6275E+00  0.4628E+01
   2.895  0.6272E+00  0.4634E+01
   2.905  0.6270E+00  0.4640E+01
   2.915  0.6269E+00  0.4647E+01
   2.925  0.6268E+00  0.4653E+01
   2.935  0.6268E+00  0.4659E+01
   2.945  0.6268E+00  0.4665E+01
   2.955  0.6269E+00  0.4672E+01
   2.965  0.6270E+00  0.4678E+01
   2.975  0.6272E+00  0.4684E+01
   2.985  0.6275E+00  0.4690E+01
   2.995  0.6279E+00  0.4697E+01
   3.005  0.6283E+00  0.4703E+01
   3.015  0.6287E+00  0.4709E+01
   3.025  0.6293E+00  0.4716E+01
   3.035  0.6299E+00  0.4722E+01
   3.045  0.6305E+00  0.4728E+01
   3.055  0.6312E+00  0.4735E+01
   3.065  0.6320E+00  0.4741E+01
   3.075  0.6329E+00  0.4747E+01
   3.085  0.6338E+00  0.4754E+01
   3.095  0.6347E+00  0.4760E+01
   3.105  0.6357E+00  0.4766E+01
   3.115  0.6368E+00  0.4773E+01
   3.125  0.6380E+00  0.4779E+01
   3.135  0.6392E+00  0.4785E+01
   3.145  0.6404E+00  0.4792E+01
   3.155  0.6417E+00  0.4798E+01
   3.165  0.6431E+00  0.4805E+01
   3.175  0.6445E+00  0.4811E+01
   3.185  0.6459E+00  0.4818E+01
   3.195  0.6475E+00  0.4824E+01
   3.205  0.6490E+00  0.4830E+01
   3.215  0.6506E+00  0.4837E+01
   3.225  0.6522E+00  0.4844E+01
   3.235  0.6539E+00  0.4850E+01
   3.245  0.6556E+00  0.4857E+01
   3.255  0.6574E+00  0.4863E+01
   3.265  0.6592E+00  0.4870E+01
   3.275  0.6610E+00  0.4876E+01
   3.285  0.6628E+00  0.4883E+01
   3.295  0.6647E+00  0.4890E+01
   3.305  0.6666E+00  0.4896E+01
   3.315  0.6685E+00  0.4903E+01
   3.325  0.6704E+00  0.4910E+01
   3.335  0.6724E+00  0.4916E+01
   3.345  0.6743E+00  0.4923E+01
   3.355  0.6763E+00  0.4930E+01
   3.365  0.6783E+00  0.4937E+01
   3.375  0.6803E+00  0.4944E+01
   3.385  0.6823E+00  0.4950E+01
   3.395  0.6843E+00  0.4957E+01
   3.405  0.6862E+00  0.4964E+01
   3.415  0.6882E+00  0.4971E+01
   3.425  0.6902E+00  0.4978E+01
   3.435  0.6921E+00  0.4985E+01
   3.445  0.6941E+00  0.4992E+01
   3.455  0.6960E+00  0.4999E+01
   3.465  0.6979E+00  0.5006E+01
   3.475  0.6998E+00  0.5013E+01
   3.485  0.7016E+00  0.5020E+01
   3.495  0.7035E+00  0.5027E+01
   3.505  0.7053E+00  0.5034E+01
   3.515  0.7070E+00  0.5041E+01
   3.525  0.7088E+00  0.5048E+01
   3.535  0.7105E+00  0.5055E+01
   3.545  0.7121E+00  0.5062E+01
   3.555  0.7137E+00  0.5069E+01
   3.565  0.7153E+00  0.5076E+01
   3.575  0.7168E+00  0.5084E+01
   3.585  0.7183E+00  0.5091E+01
   3.595  0.7197E+00  0.5098E+01
   3.605  0.7211E+00  0.5105E+01
   3.615  0.7224E+00  0.5112E+01
   3.625  0.7236E+00  0.5120E+01
   3.635  0.7248E+00  0.5127E+01
   3.645  0.7260E+00  0.5134E+01
   3.655  0.7271E+00  0.5141E+01
   3.665  0.7281E+00  0.5149E+01
   3.675  0.7290E+00  0.5156E+01
   3.685  0.7299E+00  0.5163E+01
   3.695  0.7308E+00  0.5171E+01
   3.705  0.7315E+00  0.5178E+01
   3.715  0.7323E+00  0.5185E+01
   3.725  0.7329E+00  0.5193E+01
   3.735  0.7335E+00  0.5200E+01
   3.745  0.7340E+00  0.5207E+01
   3.755  0.7344E+00  0.5215E+01
   3.765  0.7348E+00  0.5222E+01
   3.775  0.7351E+00  0.5229E+01
   3.785  0.7354E+00  0.5237E+01
   3.795  0.7356E+00  0.5244E+01
   3.805  0.7357E+00  0.5251E+01
   3.815  0.7358E+00  0.5259E+01
   3.825  0.7358E+00  0.5266E+01
   3.835  0.7357E+00  0.5273E+01
   3.845  0.7356E+00  0.5281E+01
   3.855  0.7354E+00  0.5288E+01
   3.865  0.7352E+00  0.5295E+01
   3.875  0.7349E+00  0.5303E+01
   3.885  0.7345E+00  0.5310E+01
   3.895  0.7341E+00  0.5318E+01
   3.905  0.7337E+00  0.5325E+01
   3.915  0.7332E+00  0.5332E+01
   3.925  0.7327E+00  0.5340E+01
   3.935  0.7321E+00  0.5347E+01
   3.945  0.7315E+00  0.5354E+01
   3.955  0.7308E+00  0.5361E+01
   3.965  0.7301E+00  0.5369E+01
   3.975  0.7294E+00  0.5376E+01
   3.985  0.7287E+00  0.5383E+01
   3.995  0.7279E+00  0.5391E+01
   4.005  0.7271E+00  0.5398E+01
   4.015  0.7262E+00  0.5405E+01
   4.025  0.7254E+00  0.5412E+01
   4.035  0.7245E+00  0.5420E+01
   4.045  0.7237E+00  0.5427E+01
   4.055  0.7228E+00  0.5434E+01
   4.065  0.7219E+00  0.5441E+01
   4.075  0.7210E+00  0.5449E+01
   4.085  0.7201E+00  0.5456E+01
   4.095  0.7192E+00  0.5463E+01
   4.105  0.7183E+00  0.5470E+01
   4.115  0.7174E+00  0.5477E+01
   4.125  0.7165E+00  0.5484E+01
   4.135  0.7157E+00  0.5492E+01
   4.145  0.7148E+00  0.5499E+01
   4.155  0.7140E+00  0.5506E+01
   4.165  0.7132E+00  0.5513E+01
   4.175  0.7124E+00  0.5520E+01
   4.185  0.7117E+00  0.5527E+01
   4.195  0.7109E+00  0.5534E+01
   4.205  0.7103E+00  0.5541E+01
   4.215  0.7096E+00  0.5549E+01
   4.225  0.7090E+00  0.5556E+01
   4.235  0.7084E+00  0.5563E+01
   4.245  0.7079E+00  0.5570E+01
   4.255  0.7074E+00  0.5577E+01
   4.265  0.7070E+00  0.5584E+01
   4.275  0.7066E+00  0.5591E+01
   4.285  0.7063E+00  0.5598E+01
   4.295  0.7060E+00  0.5605E+01
   4.305  0.7058E+00  0.5612E+01
   4.315  0.7056E+00  0.5619E+01
   4.325  0.7055E+00  0.5626E+01
   4.335  0.7055E+00  0.5633E+01
   4.345  0.7055E+00  0.5640E+01
   4.355  0.7056E+00  0.5648E+01
   4.365  0.7057E+00  0.5655E+01
   4.375  0.7059E+00  0.5662E+01
   4.385  0.7062E+00  0.5669E+01
   4.395  0.7065E+00  0.5676E+01
   4.405  0.7069E+00  0.5683E+01
   4.415  0.7074E+00  0.5690E+01
   4.425  0.7079E+00  0.5697E+01
   4.435  0.7085E+00  0.5704E+01
   4.445  0.7092E+00  0.5711E+01
   4.455  0.7099E+00  0.5718E+01
   4.465  0.7107E+00  0.5725E+01
   4.475  0.7115E+00  0.5732E+01
   4.485  0.7124E+00  0.5740E+01
   4.495  0.7134E+00  0.5747E+01
   4.505  0.7144E+00  0.5754E+01
   4.515  0.7155E+00  0.5761E+01
   4.525  0.7167E+00  0.5768E+01
   4.535  0.7179E+00  0.5775E+01
   4.545  0.7191E+00  0.5783E+01
   4.555  0.7204E+00  0.5790E+01
   4.565  0.7218E+00  0.5797E+01
   4.575  0.7232E+00  0.5804E+01
   4.585  0.7246E+00  0.5811E+01
   4.595  0.7261E+00  0.5819E+01
   4.605  0.7276E+00  0.5826E+01
   4.615  0.7292E+00  0.5833E+01
   4.625  0.7308E+00  0.5841E+01
   4.635  0.7325E+00  0.5848E+01
   4.645  0.7341E+00  0.5855E+01
   4.655  0.7358E+00  0.5863E+01
   4.665  0.7376E+00  0.5870E+01
   4.675  0.7393E+00  0.5877E+01
   4.685  0.7411E+00  0.5885E+01
   4.695  0.7429E+00  0.5892E+01
   4.705  0.7447E+00  0.5900E+01
   4.715  0.7465E+00  0.5907E+01
   4.725  0.7483E+00  0.5915E+01
   4.735  0.7501E+00  0.5922E+01
   4.745  0.7519E+00  0.5930E+01
   4.755  0.7537E+00  0.5937E+01
   4.765  0.7555E+00  0.5945E+01
   4.775  0.7573E+00  0.5952E+01
   4.785  0.7591E+00  0.5960E+01
   4.795  0.7609E+00  0.5968E+01
   4.805  0.7627E+00  0.5975E+01
   4.815  0.7644E+00  0.5983E+01
   4.825  0.7661E+00  0.5990E+01
   4.835  0.7678E+00  0.5998E+01
   4.845  0.7694E+00  0.6006E+01
   4.855  0.7711E+00  0.6014E+01
   4.865  0.7726E+00  0.6021E+01
   4.875  0.7742E+00  0.6029E+01
   4.885  0.7757E+00  0.6037E+01
   4.895  0.7771E+00  0.6045E+01
   4.905  0.7786E+00  0.6052E+01
   4.915  0.7799E+00  0.6060E+01
   4.925  0.7812E+00  0.6068E+01
   4.935  0.7825E+00  0.6076E+01
   4.945  0.7837E+00  0.6084E+01
   4.955  0.7848E+00  0.6091E+01
   4.965  0.7859E+00  0.6099E+01
   4.975  0.7869E+00  0.6107E+01
   4.985  0.7879E+00  0.6115E+01
   4.995  0.7888E+00  0.6123E+01
   5.005  0.7896E+00  0.6131E+01
   5.015  0.7904E+00  0.6139E+01
   5.025  0.7911E+00  0.6147E+01
   5.035  0.7917E+00  0.6155E+01
   5.045  0.7923E+00  0.6162E+01
   5.055  0.7927E+00  0.6170E+01
   5.065  0.7932E+00  0.6178E+01
   5.075  0.7935E+00  0.6186E+01
   5.085  0.7938E+00  0.6194E+01
   5.095  0.7940E+00  0.6202E+01
   5.105  0.7941E+00  0.6210E+01
   5.115  0.7942E+00  0.6218E+01
   5.125  0.7941E+00  0.6226E+01
   5.135  0.7941E+00  0.6234E+01
   5.145  0.7939E+00  0.6242E+01
   5.155  0.7937E+00  0.6250E+01
   5.165  0.7934E+00  0.6258E+01
   5.175  0.7930E+00  0.6266E+01
   5.185  0.7926E+00  0.6274E+01
   5.195  0.7921E+00  0.6282E+01
   5.205  0.7915E+00  0.6289E+01
   5.215  0.7909E+00  0.6297E+01
   5.225  0.7903E+00  0.6305E+01
   5.235  0.7895E+00  0.6313E+01
   5.245  0.7887E+00  0.6321E+01
   5.255  0.7879E+00  0.6329E+01
   5.265  0.7870E+00  0.6337E+01
   5.275  0.7861E+00  0.6345E+01
   5.285  0.7851E+00  0.6352E+01
   5.295  0.7841E+00  0.6360E+01
   5.305  0.7830E+00  0.6368E+01
   5.315  0.7819E+00  0.6376E+01
   5.325  0.7807E+00  0.6384E+01
   5.335  0.7796E+00  0.6392E+01
   5.345  0.7784E+00  0.6399E+01
   5.355  0.7771E+00  0.6407E+01
   5.365  0.7759E+00  0.6415E+01
   5.375  0.7746E+00  0.6423E+01
   5.385  0.7733E+00  0.6430E+01
   5.395  0.7720E+00  0.6438E+01
   5.405  0.7707E+00  0.6446E+01
   5.415  0.7694E+00  0.6453E+01
   5.425  0.7681E+00  0.6461E+01
   5.435  0.7667E+00  0.6469E+01
   5.445  0.7654E+00  0.6476E+01
   5.455  0.7641E+00  0.6484E+01
   5.465  0.7628E+00  0.6492E+01
   5.475  0.7615E+00  0.6499E+01
   5.485  0.7603E+00  0.6507E+01
   5.495  0.7590E+00  0.6515E+01
   5.505  0.7578E+00  0.6522E+01
   5.515  0.7566E+00  0.6530E+01
   5.525  0.7554E+00  0.6537E+01
   5.535  0.7543E+00  0.6545E+01
   5.545  0.7532E+00  0.6552E+01
   5.555  0.7521E+00  0.6560E+01
   5.565  0.7511E+00  0.6567E+01
   5.575  0.7502E+00  0.6575E+01
   5.585  0.7493E+00  0.6582E+01
   5.595  0.7484E+00  0.6590E+01
   5.605  0.7476E+00  0.6597E+01
   5.615  0.7468E+00  0.6605E+01
   5.625  0.7462E+00  0.6612E+01
   5.635  0.7455E+00  0.6620E+01
   5.645  0.7450E+00  0.6627E+01
   5.655  0.7445E+00  0.6635E+01
   5.665  0.7440E+00  0.6642E+01
   5.675  0.7437E+00  0.6649E+01
   5.685  0.7434E+00  0.6657E+01
   5.695  0.7432E+00  0.6664E+01
   5.705  0.7431E+00  0.6672E+01
   5.715  0.7430E+00  0.6679E+01
   5.725  0.7430E+00  0.6687E+01
   5.735  0.7431E+00  0.6694E+01
   5.745  0.7433E+00  0.6702E+01
   5.755  0.7436E+00  0.6709E+01
   5.765  0.7439E+00  0.6716E+01
   5.775  0.7444E+00  0.6724E+01
   5.785  0.7449E+00  0.6731E+01
   5.795  0.7455E+00  0.6739E+01
   5.805  0.7462E+00  0.6746E+01
   5.815  0.7469E+00  0.6754E+01
   5.825  0.7478E+00  0.6761E+01
   5.835  0.7487E+00  0.6769E+01
   5.845  0.7498E+00  0.6776E+01
   5.855  0.7509E+00  0.6784E+01
   5.865  0.7521E+00  0.6791E+01
   5.875  0.7533E+00  0.6799E+01
   5.885  0.7547E+00  0.6806E+01
   5.895  0.7561E+00  0.6814E+01
   5.905  0.7576E+00  0.6821E+01
   5.915  0.7592E+00  0.6829E+01
   5.925  0.7609E+00  0.6837E+01
   5.935  0.7627E+00  0.6844E+01
   5.945  0.7645E+00  0.6852E+01
   5.955  0.7664E+00  0.6860E+01
   5.965  0.7683E+00  0.6867E+01
   5.975  0.7704E+00  0.6875E+01
   5.985  0.7724E+00  0.6883E+01
   5.995  0.7746E+00  0.6890E+01
   6.005  0.7768E+00  0.6898E+01
   6.015  0.7791E+00  0.6906E+01
   6.025  0.7814E+00  0.6914E+01
   6.035  0.7838E+00  0.6922E+01
   6.045  0.7863E+00  0.6929E+01
   6.055  0.7888E+00  0.6937E+01
   6.065  0.7913E+00  0.6945E+01
   6.075  0.7939E+00  0.6953E+01
   6.085  0.7965E+00  0.6961E+01
   6.095  0.7992E+00  0.6969E+01
   6.105  0.8019E+00  0.6977E+01
   6.115  0.8046E+00  0.6985E+01
   6.125  0.8074E+00  0.6993E+01
   6.135  0.8102E+00  0.7001E+01
   6.145  0.8130E+00  0.7010E+01
   6.155  0.8158E+00  0.7018E+01
   6.165  0.8187E+00  0.7026E+01
   6.175  0.8215E+00  0.7034E+01
   6.185  0.8244E+00  0.7042E+01
   6.195  0.8273E+00  0.7051E+01
   6.205  0.8302E+00  0.7059E+01
   6.215  0.8331E+00  0.7067E+01
   6.225  0.8360E+00  0.7076E+01
   6.235  0.8389E+00  0.7084E+01
   6.245  0.8417E+00  0.7092E+01
   6.255  0.8446E+00  0.7101E+01
   6.265  0.8475E+00  0.7109E+01
   6.275  0.8503E+00  0.7118E+01
   6.285  0.8531E+00  0.7126E+01
   6.295  0.8559E+00  0.7135E+01
   6.305  0.8587E+00  0.7143E+01
   6.315  0.8614E+00  0.7152E+01
   6.325  0.8641E+00  0.7161E+01
   6.335  0.8668E+00  0.7169E+01
   6.345  0.8695E+00  0.7178E+01
   6.355  0.8721E+00  0.7187E+01
   6.365  0.8746E+00  0.7196E+01
   6.375  0.8771E+00  0.7204E+01
   6.385  0.8796E+00  0.7213E+01
   6.395  0.8820E+00  0.7222E+01
   6.405  0.8844E+00  0.7231E+01
   6.415  0.8867E+00  0.7240E+01
   6.425  0.8890E+00  0.7249E+01
   6.435  0.8912E+00  0.7257E+01
   6.445  0.8933E+00  0.7266E+01
   6.455  0.8954E+00  0.7275E+01
   6.465  0.8974E+00  0.7284E+01
   6.475  0.8993E+00  0.7293E+01
   6.485  0.9012E+00  0.7302E+01
   6.495  0.9030E+00  0.7311E+01
   6.505  0.9047E+00  0.7320E+01
   6.515  0.9063E+00  0.7329E+01
   6.525  0.9079E+00  0.7339E+01
   6.535  0.9094E+00  0.7348E+01
   6.545  0.9108E+00  0.7357E+01
   6.555  0.9121E+00  0.7366E+01
   6.565  0.9134E+00  0.7375E+01
   6.575  0.9146E+00  0.7384E+01
   6.585  0.9156E+00  0.7393E+01
   6.595  0.9166E+00  0.7402E+01
   6.605  0.9175E+00  0.7412E+01
   6.615  0.9183E+00  0.7421E+01
   6.625  0.9191E+00  0.7430E+01
   6.635  0.9197E+00  0.7439E+01
   6.645  0.9203E+00  0.7448E+01
   6.655  0.9207E+00  0.7458E+01
   6.665  0.9211E+00  0.7467E+01
   6.675  0.9214E+00  0.7476E+01
   6.685  0.9216E+00  0.7485E+01
   6.695  0.9216E+00  0.7494E+01
   6.705  0.9216E+00  0.7504E+01
   6.715  0.9215E+00  0.7513E+01
   6.725  0.9214E+00  0.7522E+01
   6.735  0.9211E+00  0.7531E+01
   6.745  0.9207E+00  0.7541E+01
   6.755  0.9202E+00  0.7550E+01
   6.765  0.9197E+00  0.7559E+01
   6.775  0.9190E+00  0.7568E+01
   6.785  0.9183E+00  0.7577E+01
   6.795  0.9175E+00  0.7586E+01
   6.805  0.9165E+00  0.7596E+01
   6.815  0.9155E+00  0.7605E+01
   6.825  0.9144E+00  0.7614E+01
   6.835  0.9132E+00  0.7623E+01
   6.845  0.9120E+00  0.7632E+01
   6.855  0.9106E+00  0.7641E+01
   6.865  0.9092E+00  0.7650E+01
   6.875  0.9077E+00  0.7659E+01
   6.885  0.9060E+00  0.7669E+01
   6.895  0.9044E+00  0.7678E+01
   6.905  0.9026E+00  0.7687E+01
   6.915  0.9008E+00  0.7696E+01
   6.925  0.8989E+00  0.7705E+01
   6.935  0.8969E+00  0.7714E+01
   6.945  0.8948E+00  0.7723E+01
   6.955  0.8927E+00  0.7731E+01
   6.965  0.8905E+00  0.7740E+01
   6.975  0.8882E+00  0.7749E+01
   6.985  0.8859E+00  0.7758E+01
   6.995  0.8835E+00  0.7767E+01
   7.005  0.8811E+00  0.7776E+01
   7.015  0.8786E+00  0.7785E+01
   7.025  0.8761E+00  0.7793E+01
   7.035  0.8735E+00  0.7802E+01
   7.045  0.8708E+00  0.7811E+01
   7.055  0.8681E+00  0.7819E+01
   7.065  0.8654E+00  0.7828E+01
   7.075  0.8626E+00  0.7837E+01
   7.085  0.8598E+00  0.7845E+01
   7.095  0.8570E+00  0.7854E+01
   7.105  0.8541E+00  0.7862E+01
   7.115  0.8512E+00  0.7871E+01
   7.125  0.8483E+00  0.7879E+01
   7.135  0.8453E+00  0.7888E+01
   7.145  0.8423E+00  0.7896E+01
   7.155  0.8394E+00  0.7905E+01
   7.165  0.8364E+00  0.7913E+01
   7.175  0.8334E+00  0.7921E+01
   7.185  0.8303E+00  0.7930E+01
   7.195  0.8273E+00  0.7938E+01
   7.205  0.8243E+00  0.7946E+01
   7.215  0.8213E+00  0.7954E+01
   7.225  0.8183E+00  0.7963E+01
   7.235  0.8153E+00  0.7971E+01
   7.245  0.8124E+00  0.7979E+01
   7.255  0.8094E+00  0.7987E+01
   7.265  0.8065E+00  0.7995E+01
   7.275  0.8036E+00  0.8003E+01
   7.285  0.8007E+00  0.8011E+01
   7.295  0.7978E+00  0.8019E+01
   7.305  0.7950E+00  0.8027E+01
   7.315  0.7923E+00  0.8035E+01
   7.325  0.7895E+00  0.8043E+01
   7.335  0.7868E+00  0.8051E+01
   7.345  0.7842E+00  0.8059E+01
   7.355  0.7816E+00  0.8066E+01
   7.365  0.7791E+00  0.8074E+01
   7.375  0.7766E+00  0.8082E+01
   7.385  0.7742E+00  0.8090E+01
   7.395  0.7718E+00  0.8097E+01
   7.405  0.7695E+00  0.8105E+01
   7.415  0.7673E+00  0.8113E+01
   7.425  0.7651E+00  0.8120E+01
   7.435  0.7631E+00  0.8128E+01
   7.445  0.7611E+00  0.8136E+01
   7.455  0.7591E+00  0.8143E+01
   7.465  0.7573E+00  0.8151E+01
   7.475  0.7555E+00  0.8158E+01
   7.485  0.7538E+00  0.8166E+01
   7.495  0.7523E+00  0.8173E+01
   7.505  0.7508E+00  0.8181E+01
   7.515  0.7494E+00  0.8188E+01
   7.525  0.7480E+00  0.8196E+01
   7.535  0.7468E+00  0.8203E+01
   7.545  0.7457E+00  0.8211E+01
   7.555  0.7447E+00  0.8218E+01
   7.565  0.7437E+00  0.8226E+01
   7.575  0.7429E+00  0.8233E+01
   7.585  0.7422E+00  0.8241E+01
   7.595  0.7416E+00  0.8248E+01
   7.605  0.7411E+00  0.8255E+01
   7.615  0.7406E+00  0.8263E+01
   7.625  0.7403E+00  0.8270E+01
   7.635  0.7401E+00  0.8278E+01
   7.645  0.7400E+00  0.8285E+01
   7.655  0.7400E+00  0.8292E+01
   7.665  0.7401E+00  0.8300E+01
   7.675  0.7404E+00  0.8307E+01
   7.685  0.7407E+00  0.8315E+01
   7.695  0.7411E+00  0.8322E+01
   7.705  0.7416E+00  0.8329E+01
   7.715  0.7423E+00  0.8337E+01
   7.725  0.7430E+00  0.8344E+01
   7.735  0.7439E+00  0.8352E+01
   7.745  0.7448E+00  0.8359E+01
   7.755  0.7459E+00  0.8367E+01
   7.765  0.7470E+00  0.8374E+01
   7.775  0.7483E+00  0.8382E+01
   7.785  0.7496E+00  0.8389E+01
   7.795  0.7511E+00  0.8397E+01
   7.805  0.7526E+00  0.8404E+01
   7.815  0.7542E+00  0.8412E+01
   7.825  0.7559E+00  0.8419E+01
   7.835  0.7577E+00  0.8427E+01
   7.845  0.7596E+00  0.8434E+01
   7.855  0.7616E+00  0.8442E+01
   7.865  0.7637E+00  0.8450E+01
   7.875  0.7658E+00  0.8457E+01
   7.885  0.7681E+00  0.8465E+01
   7.895  0.7704E+00  0.8473E+01
   7.905  0.7727E+00  0.8480E+01
   7.915  0.7752E+00  0.8488E+01
   7.925  0.7777E+00  0.8496E+01
   7.935  0.7803E+00  0.8504E+01
   7.945  0.7829E+00  0.8512E+01
   7.955  0.7856E+00  0.8519E+01
   7.965  0.7884E+00  0.8527E+01
   7.975  0.7912E+00  0.8535E+01
   7.985  0.7940E+00  0.8543E+01
   7.995  0.7969E+00  0.8551E+01
   8.005  0.7999E+00  0.8559E+01
   8.015  0.8029E+00  0.8567E+01
   8.025  0.8059E+00  0.8575E+01
   8.035  0.8090E+00  0.8583E+01
   8.045  0.8121E+00  0.8591E+01
   8.055  0.8152E+00  0.8600E+01
   8.065  0.8184E+00  0.8608E+01
   8.075  0.8216E+00  0.8616E+01
   8.085  0.8248E+00  0.8624E+01
   8.095  0.8280E+00  0.8632E+01
   8.105  0.8312E+00  0.8641E+01
   8.115  0.8345E+00  0.8649E+01
   8.125  0.8377E+00  0.8658E+01
   8.135  0.8410E+00  0.8666E+01
   8.145  0.8442E+00  0.8674E+01
   8.155  0.8475E+00  0.8683E+01
   8.165  0.8507E+00  0.8691E+01
   8.175  0.8539E+00  0.8700E+01
   8.185  0.8572E+00  0.8708E+01
   8.195  0.8604E+00  0.8717E+01
   8.205  0.8635E+00  0.8726E+01
   8.215  0.8667E+00  0.8734E+01
   8.225  0.8698E+00  0.8743E+01
   8.235  0.8729E+00  0.8752E+01
   8.245  0.8760E+00  0.8761E+01
   8.255  0.8791E+00  0.8769E+01
   8.265  0.8821E+00  0.8778E+01
   8.275  0.8850E+00  0.8787E+01
   8.285  0.8880E+00  0.8796E+01
   8.295  0.8908E+00  0.8805E+01
   8.305  0.8937E+00  0.8814E+01
   8.315  0.8965E+00  0.8823E+01
   8.325  0.8992E+00  0.8832E+01
   8.335  0.9019E+00  0.8841E+01
   8.345  0.9045E+00  0.8850E+01
   8.355  0.9070E+00  0.8859E+01
   8.365  0.9095E+00  0.8868E+01
   8.375  0.9120E+00  0.8877E+01
   8.385  0.9143E+00  0.8886E+01
   8.395  0.9166E+00  0.8895E+01
   8.405  0.9189E+00  0.8905E+01
   8.415  0.9210E+00  0.8914E+01
   8.425  0.9231E+00  0.8923E+01
   8.435  0.9251E+00  0.8932E+01
   8.445  0.9271E+00  0.8942E+01
   8.455  0.9289E+00  0.8951E+01
   8.465  0.9307E+00  0.8960E+01
   8.475  0.9324E+00  0.8969E+01
   8.485  0.9341E+00  0.8979E+01
   8.495  0.9356E+00  0.8988E+01
   8.505  0.9371E+00  0.8998E+01
   8.515  0.9384E+00  0.9007E+01
   8.525  0.9397E+00  0.9016E+01
   8.535  0.9409E+00  0.9026E+01
   8.545  0.9420E+00  0.9035E+01
   8.555  0.9431E+00  0.9045E+01
   8.565  0.9440E+00  0.9054E+01
   8.575  0.9449E+00  0.9063E+01
   8.585  0.9456E+00  0.9073E+01
   8.595  0.9463E+00  0.9082E+01
   8.605  0.9469E+00  0.9092E+01
   8.615  0.9474E+00  0.9101E+01
   8.625  0.9478E+00  0.9111E+01
   8.635  0.9482E+00  0.9120E+01
   8.645  0.9484E+00  0.9130E+01
   8.655  0.9486E+00  0.9139E+01
   8.665  0.9486E+00  0.9149E+01
   8.675  0.9486E+00  0.9158E+01
   8.685  0.9485E+00  0.9168E+01
   8.695  0.9483E+00  0.9177E+01
   8.705  0.9481E+00  0.9187E+01
   8.715  0.9477E+00  0.9196E+01
   8.725  0.9473E+00  0.9206E+01
   8.735  0.9468E+00  0.9215E+01
   8.745  0.9462E+00  0.9225E+01
   8.755  0.9455E+00  0.9234E+01
   8.765  0.9448E+00  0.9243E+01
   8.775  0.9439E+00  0.9253E+01
   8.785  0.9430E+00  0.9262E+01
   8.795  0.9421E+00  0.9272E+01
   8.805  0.9410E+00  0.9281E+01
   8.815  0.9399E+00  0.9291E+01
   8.825  0.9387E+00  0.9300E+01
   8.835  0.9375E+00  0.9309E+01
   8.845  0.9362E+00  0.9319E+01
   8.855  0.9348E+00  0.9328E+01
   8.865  0.9334E+00  0.9337E+01
   8.875  0.9319E+00  0.9347E+01
   8.885  0.9304E+00  0.9356E+01
   8.895  0.9288E+00  0.9365E+01
   8.905  0.9271E+00  0.9375E+01
   8.915  0.9254E+00  0.9384E+01
   8.925  0.9237E+00  0.9393E+01
   8.935  0.9219E+00  0.9402E+01
   8.945  0.9201E+00  0.9411E+01
   8.955  0.9182E+00  0.9421E+01
   8.965  0.9163E+00  0.9430E+01
   8.975  0.9144E+00  0.9439E+01
   8.985  0.9124E+00  0.9448E+01
   8.995  0.9104E+00  0.9457E+01
   9.005  0.9084E+00  0.9466E+01
   9.015  0.9063E+00  0.9475E+01
   9.025  0.9043E+00  0.9484E+01
   9.035  0.9022E+00  0.9493E+01
   9.045  0.9001E+00  0.9502E+01
   9.055  0.8980E+00  0.9511E+01
   9.065  0.8958E+00  0.9520E+01
   9.075  0.8937E+00  0.9529E+01
   9.085  0.8916E+00  0.9538E+01
   9.095  0.8894E+00  0.9547E+01
   9.105  0.8873E+00  0.9556E+01
   9.115  0.8852E+00  0.9565E+01
   9.125  0.8830E+00  0.9574E+01
   9.135  0.8809E+00  0.9582E+01
   9.145  0.8788E+00  0.9591E+01
   9.155  0.8767E+00  0.9600E+01
   9.165  0.8746E+00  0.9609E+01
   9.175  0.8726E+00  0.9617E+01
   9.185  0.8705E+00  0.9626E+01
   9.195  0.8685E+00  0.9635E+01
   9.205  0.8666E+00  0.9644E+01
   9.215  0.8646E+00  0.9652E+01
   9.225  0.8627E+00  0.9661E+01
   9.235  0.8608E+00  0.9669E+01
   9.245  0.8589E+00  0.9678E+01
   9.255  0.8571E+00  0.9687E+01
   9.265  0.8553E+00  0.9695E+01
   9.275  0.8536E+00  0.9704E+01
   9.285  0.8519E+00  0.9712E+01
   9.295  0.8502E+00  0.9721E+01
   9.305  0.8486E+00  0.9729E+01
   9.315  0.8471E+00  0.9738E+01
   9.325  0.8456E+00  0.9746E+01
   9.335  0.8442E+00  0.9755E+01
   9.345  0.8428E+00  0.9763E+01
   9.355  0.8414E+00  0.9771E+01
   9.365  0.8402E+00  0.9780E+01
   9.375  0.8389E+00  0.9788E+01
   9.385  0.8378E+00  0.9797E+01
   9.395  0.8367E+00  0.9805E+01
   9.405  0.8356E+00  0.9813E+01
   9.415  0.8347E+00  0.9822E+01
   9.425  0.8337E+00  0.9830E+01
   9.435  0.8329E+00  0.9838E+01
   9.445  0.8321E+00  0.9847E+01
   9.455  0.8314E+00  0.9855E+01
   9.465  0.8307E+00  0.9863E+01
   9.475  0.8302E+00  0.9872E+01
   9.485  0.8296E+00  0.9880E+01
   9.495  0.8292E+00  0.9888E+01
   9.505  0.8288E+00  0.9896E+01
   9.515  0.8285E+00  0.9905E+01
   9.525  0.8282E+00  0.9913E+01
   9.535  0.8280E+00  0.9921E+01
   9.545  0.8279E+00  0.9930E+01
   9.555  0.8278E+00  0.9938E+01
   9.565  0.8278E+00  0.9946E+01
   9.575  0.8279E+00  0.9954E+01
   9.585  0.8280E+00  0.9963E+01
   9.595  0.8282E+00  0.9971E+01
   9.605  0.8285E+00  0.9979E+01
   9.615  0.8288E+00  0.9987E+01
   9.625  0.8292E+00  0.9996E+01
   9.635  0.8296E+00  0.1000E+02
   9.645  0.8301E+00  0.1001E+02
   9.655  0.8307E+00  0.1002E+02
   9.665  0.8313E+00  0.1003E+02
   9.675  0.8320E+00  0.1004E+02
   9.685  0.8327E+00  0.1005E+02
   9.695  0.8334E+00  0.1005E+02
   9.705  0.8343E+00  0.1006E+02
   9.715  0.8351E+00  0.1007E+02
   9.725  0.8360E+00  0.1008E+02
   9.735  0.8370E+00  0.1009E+02
   9.745  0.8380E+00  0.1010E+02
   9.755  0.8391E+00  0.1010E+02
   9.765  0.8401E+00  0.1011E+02
   9.775  0.8413E+00  0.1012E+02
   9.785  0.8424E+00  0.1013E+02
   9.795  0.8436E+00  0.1014E+02
   9.805  0.8449E+00  0.1015E+02
   9.815  0.8462E+00  0.1015E+02
   9.825  0.8475E+00  0.1016E+02
   9.835  0.8488E+00  0.1017E+02
   9.845  0.8502E+00  0.1018E+02
   9.855  0.8516E+00  0.1019E+02
   9.865  0.8530E+00  0.1020E+02
   9.875  0.8544E+00  0.1021E+02
   9.885  0.8559E+00  0.1021E+02
   9.895  0.8574E+00  0.1022E+02
   9.905  0.8589E+00  0.1023E+02
   9.915  0.8604E+00  0.1024E+02
   9.925  0.8619E+00  0.1025E+02
   9.935  0.8635E+00  0.1026E+02
   9.945  0.8650E+00  0.1027E+02
   9.955  0.8666E+00  0.1027E+02
   9.965  0.8682E+00  0.1028E+02
   9.975  0.8698E+00  0.1029E+02
   9.985  0.8714E+00  0.1030E+02
   9.995  0.8730E+00  0.1031E+02
  10.005  0.8746E+00  0.1032E+02
  10.015  0.8763E+00  0.1033E+02
  10.025  0.8779E+00  0.1034E+02
  10.035  0.8795E+00  0.1034E+02
  10.045  0.8812E+00  0.1035E+02
  10.055  0.8828E+00  0.1036E+02
  10.065  0.8844E+00  0.1037E+02
  10.075  0.8861E+00  0.1038E+02
  10.085  0.8877E+00  0.1039E+02
  10.095  0.8893E+00  0.1040E+02
  10.105  0.8909E+00  0.1041E+02
  10.115  0.8926E+00  0.1042E+02
  10.125  0.8942E+00  0.1042E+02
  10.135  0.8958E+00  0.1043E+02
  10.145  0.8974E+00  0.1044E+02
  10.155  0.8990E+00  0.1045E+02
  10.165  0.9006E+00  0.1046E+02
  10.175  0.9021E+00  0.1047E+02
  10.185  0.9037E+00  0.1048E+02
  10.195  0.9053E+00  0.1049E+02
  10.205  0.9068E+00  0.1050E+02
  10.215  0.9084E+00  0.1051E+02
  10.225  0.9099E+00  0.1051E+02
  10.235  0.9114E+00  0.1052E+02
  10.245  0.9129E+00  0.1053E+02
  10.255  0.9144E+00  0.1054E+02
  10.265  0.9159E+00  0.1055E+02
  10.275  0.9174E+00  0.1056E+02
  10.285  0.9188E+00  0.1057E+02
  10.295  0.9203E+00  0.1058E+02
  10.305  0.9217E+00  0.1059E+02
  10.315  0.9231E+00  0.1060E+02
  10.325  0.9245E+00  0.1061E+02
  10.335  0.9259E+00  0.1062E+02
  10.345  0.9273E+00  0.1063E+02
  10.355  0.9287E+00  0.1063E+02
  10.365  0.9300E+00  0.1064E+02
  10.375  0.9313E+00  0.1065E+02
  10.385  0.9326E+00  0.1066E+02
  10.395  0.9339E+00  0.1067E+02
  10.405  0.9352E+00  0.1068E+02
  10.415  0.9364E+00  0.1069E+02
  10.425  0.9376E+00  0.1070E+02
  10.435  0.9389E+00  0.1071E+02
  10.445  0.9400E+00  0.1072E+02
  10.455  0.9412E+00  0.1073E+02
  10.465  0.9424E+00  0.1074E+02
  10.475  0.9435E+00  0.1075E+02
  10.485  0.9446E+00  0.1076E+02
  10.495  0.9457E+00  0.1077E+02
  10.505  0.9467E+00  0.1078E+02
  10.515  0.9478E+00  0.1078E+02
  10.525  0.9488E+00  0.1079E+02
  10.535  0.9497E+00  0.1080E+02
  10.545  0.9507E+00  0.1081E+02
  10.555  0.9516E+00  0.1082E+02
  10.565  0.9525E+00  0.1083E+02
  10.575  0.9534E+00  0.1084E+02
  10.585  0.9543E+00  0.1085E+02
  10.595  0.9551E+00  0.1086E+02
  10.605  0.9559E+00  0.1087E+02
  10.615  0.9566E+00  0.1088E+02
  10.625  0.9574E+00  0.1089E+02
  10.635  0.9581E+00  0.1090E+02
  10.645  0.9587E+00  0.1091E+02
  10.655  0.9594E+00  0.1092E+02
  10.665  0.9600E+00  0.1093E+02
  10.675  0.9606E+00  0.1094E+02
  10.685  0.9611E+00  0.1095E+02
  10.695  0.9617E+00  0.1096E+02
  10.705  0.9622E+00  0.1097E+02
  10.715  0.9626E+00  0.1098E+02
  10.725  0.9630E+00  0.1099E+02
  10.735  0.9634E+00  0.1100E+02
  10.745  0.9638E+00  0.1100E+02
  10.755  0.9641E+00  0.1101E+02
  10.765  0.9644E+00  0.1102E+02
  10.775  0.9647E+00  0.1103E+02
  10.785  0.9650E+00  0.1104E+02
  10.795  0.9652E+00  0.1105E+02
  10.805  0.9653E+00  0.1106E+02
  10.815  0.9655E+00  0.1107E+02
  10.825  0.9656E+00  0.1108E+02
  10.835  0.9657E+00  0.1109E+02
  10.845  0.9658E+00  0.1110E+02
  10.855  0.9659E+00  0.1111E+02
  10.865  0.9659E+00  0.1112E+02
  10.875  0.9659E+00  0.1113E+02
  10.885  0.9659E+00  0.1114E+02
  10.895  0.9658E+00  0.1115E+02
  10.905  0.9658E+00  0.1116E+02
  10.915  0.9657E+00  0.1117E+02
  10.925  0.9656E+00  0.1118E+02
  10.935  0.9655E+00  0.1119E+02
  10.945  0.9653E+00  0.1120E+02
  10.955  0.9652E+00  0.1121E+02
  10.965  0.9650E+00  0.1122E+02
  10.975  0.9649E+00  0.1123E+02
  10.985  0.9647E+00  0.1124E+02
  10.995  0.9645E+00  0.1125E+02
  11.005  0.9643E+00  0.1126E+02
  11.015  0.9641E+00  0.1127E+02
  11.025  0.9639E+00  0.1128E+02
  11.035  0.9638E+00  0.1128E+02
  11.045  0.9636E+00  0.1129E+02
  11.055  0.9634E+00  0.1130E+02
  11.065  0.9632E+00  0.1131E+02
  11.075  0.9630E+00  0.1132E+02
  11.085  0.9629E+00  0.1133E+02
  11.095  0.9627E+00  0.1134E+02
  11.105  0.9626E+00  0.1135E+02
  11.115  0.9625E+00  0.1136E+02
  11.125  0.9624E+00  0.1137E+02
  11.135  0.9623E+00  0.1138E+02
  11.145  0.9623E+00  0.1139E+02
  11.155  0.9622E+00  0.1140E+02
  11.165  0.9622E+00  0.1141E+02
  11.175  0.9622E+00  0.1142E+02
  11.185  0.9623E+00  0.1143E+02
  11.195  0.9624E+00  0.1144E+02
  11.205  0.9625E+00  0.1145E+02
  11.215  0.9627E+00  0.1146E+02
  11.225  0.9628E+00  0.1147E+02
  11.235  0.9631E+00  0.1148E+02
  11.245  0.9633E+00  0.1149E+02
  11.255  0.9636E+00  0.1150E+02
  11.265  0.9640E+00  0.1151E+02
  11.275  0.9644E+00  0.1152E+02
  11.285  0.9648E+00  0.1153E+02
  11.295  0.9653E+00  0.1154E+02
  11.305  0.9659E+00  0.1154E+02
  11.315  0.9664E+00  0.1155E+02
  11.325  0.9671E+00  0.1156E+02
  11.335  0.9678E+00  0.1157E+02
  11.345  0.9685E+00  0.1158E+02
  11.355  0.9693E+00  0.1159E+02
  11.365  0.9701E+00  0.1160E+02
  11.375  0.9710E+00  0.1161E+02
  11.385  0.9720E+00  0.1162E+02
  11.395  0.9730E+00  0.1163E+02
  11.405  0.9740E+00  0.1164E+02
  11.415  0.9751E+00  0.1165E+02
  11.425  0.9763E+00  0.1166E+02
  11.435  0.9775E+00  0.1167E+02
  11.445  0.9788E+00  0.1168E+02
  11.455  0.9801E+00  0.1169E+02
  11.465  0.9815E+00  0.1170E+02
  11.475  0.9829E+00  0.1171E+02
  11.485  0.9844E+00  0.1172E+02
  11.495  0.9859E+00  0.1173E+02
  11.505  0.9875E+00  0.1174E+02
  11.515  0.9891E+00  0.1175E+02
  11.525  0.9908E+00  0.1176E+02
  11.535  0.9925E+00  0.1177E+02
  11.545  0.9943E+00  0.1178E+02
  11.555  0.9962E+00  0.1179E+02
  11.565  0.9980E+00  0.1180E+02
  11.575  0.9999E+00  0.1181E+02
  11.585  0.1002E+01  0.1182E+02
  11.595  0.1004E+01  0.1183E+02
  11.605  0.1006E+01  0.1184E+02
  11.615  0.1008E+01  0.1185E+02
  11.625  0.1010E+01  0.1186E+02
  11.635  0.1012E+01  0.1187E+02
  11.645  0.1014E+01  0.1188E+02
  11.655  0.1017E+01  0.1189E+02
  11.665  0.1019E+01  0.1190E+02
  11.675  0.1021E+01  0.1191E+02
  11.685  0.1023E+01  0.1192E+02
  11.695  0.1026E+01  0.1193E+02
  11.705  0.1028E+01  0.1194E+02
  11.715  0.1031E+01  0.1195E+02
  11.725  0.1033E+01  0.1196E+02
  11.735  0.1035E+01  0.1197E+02
  11.745  0.1038E+01  0.1198E+02
  11.755  0.1040E+01  0.1199E+02
  11.765  0.1043E+01  0.1200E+02
  11.775  0.1045E+01  0.1201E+02
  11.785  0.1048E+01  0.1202E+02
  11.795  0.1050E+01  0.1204E+02
  11.805  0.1053E+01  0.1205E+02
  11.815  0.1055E+01  0.1206E+02
  11.825  0.1058E+01  0.1207E+02
  11.835  0.1060E+01  0.1208E+02
  11.845  0.1062E+01  0.1209E+02
  11.855  0.1065E+01  0.1210E+02
  11.865  0.1067E+01  0.1211E+02
  11.875  0.1070E+01  0.1212E+02
  11.885  0.1072E+01  0.1213E+02
  11.895  0.1075E+01  0.1214E+02
  11.905  0.1077E+01  0.1215E+02
  11.915  0.1080E+01  0.1216E+02
  11.925  0.1082E+01  0.1217E+02
  11.935  0.1085E+01  0.1218E+02
  11.945  0.1087E+01  0.1220E+02
  11.955  0.1089E+01  0.1221E+02
  11.965  0.1092E+01  0.1222E+02
  11.975  0.1094E+01  0.1223E+02
  11.985  0.1096E+01  0.1224E+02
  11.995  0.1099E+01  0.1225E+02
  12.005  0.1101E+01  0.1226E+02
  12.015  0.1103E+01  0.1227E+02
  12.025  0.1105E+01  0.1228E+02
  12.035  0.1108E+01  0.1229E+02
  12.045  0.1110E+01  0.1231E+02
  12.055  0.1112E+01  0.1232E+02
  12.065  0.1114E+01  0.1233E+02
  12.075  0.1116E+01  0.1234E+02
  12.085  0.1118E+01  0.1235E+02
  12.095  0.1120E+01  0.1236E+02
  12.105  0.1122E+01  0.1237E+02
  12.115  0.1124E+01  0.1238E+02
  12.125  0.1126E+01  0.1240E+02
  12.135  0.1128E+01  0.1241E+02
  12.145  0.1130E+01  0.1242E+02
  12.155  0.1132E+01  0.1243E+02
  12.165  0.1134E+01  0.1244E+02
  12.175  0.1135E+01  0.1245E+02
  12.185  0.1137E+01  0.1246E+02
  12.195  0.1139E+01  0.1247E+02
  12.205  0.1141E+01  0.1249E+02
  12.215  0.1142E+01  0.1250E+02
  12.225  0.1144E+01  0.1251E+02
  12.235  0.1146E+01  0.1252E+02
  12.245  0.1147E+01  0.1253E+02
  12.255  0.1149E+01  0.1254E+02
  12.265  0.1150E+01  0.1255E+02
  12.275  0.1152E+01  0.1257E+02
  12.285  0.1153E+01  0.1258E+02
  12.295  0.1155E+01  0.1259E+02
  12.305  0.1156E+01  0.1260E+02
  12.315  0.1158E+01  0.1261E+02
  12.325  0.1159E+01  0.1262E+02
  12.335  0.1161E+01  0.1264E+02
  12.345  0.1162E+01  0.1265E+02
  12.355  0.1163E+01  0.1266E+02
  12.365  0.1165E+01  0.1267E+02
  12.375  0.1166E+01  0.1268E+02
  12.385  0.1167E+01  0.1269E+02
  12.395  0.1169E+01  0.1271E+02
  12.405  0.1170E+01  0.1272E+02
  12.415  0.1171E+01  0.1273E+02
  12.425  0.1172E+01  0.1274E+02
  12.435  0.1174E+01  0.1275E+02
  12.445  0.1175E+01  0.1276E+02
  12.455  0.1176E+01  0.1278E+02
  12.465  0.1177E+01  0.1279E+02
  12.475  0.1179E+01  0.1280E+02
  12.485  0.1180E+01  0.1281E+02
  12.495  0.1181E+01  0.1282E+02
  12.505  0.1182E+01  0.1283E+02
  12.515  0.1184E+01  0.1285E+02
  12.525  0.1185E+01  0.1286E+02
  12.535  0.1186E+01  0.1287E+02
  12.545  0.1187E+01  0.1288E+02
  12.555  0.1189E+01  0.1289E+02
  12.565  0.1190E+01  0.1291E+02
  12.575  0.1191E+01  0.1292E+02
  12.585  0.1193E+01  0.1293E+02
  12.595  0.1194E+01  0.1294E+02
  12.605  0.1195E+01  0.1295E+02
  12.615  0.1197E+01  0.1297E+02
  12.625  0.1198E+01  0.1298E+02
  12.635  0.1199E+01  0.1299E+02
  12.645  0.1201E+01  0.1300E+02
  12.655  0.1202E+01  0.1301E+02
  12.665  0.1204E+01  0.1303E+02
  12.675  0.1205E+01  0.1304E+02
  12.685  0.1207E+01  0.1305E+02
  12.695  0.1208E+01  0.1306E+02
  12.705  0.1210E+01  0.1307E+02
  12.715  0.1211E+01  0.1309E+02
  12.725  0.1213E+01  0.1310E+02
  12.735  0.1215E+01  0.1311E+02
  12.745  0.1216E+01  0.1312E+02
  12.755  0.1218E+01  0.1313E+02
  12.765  0.1220E+01  0.1315E+02
  12.775  0.1222E+01  0.1316E+02
  12.785  0.1224E+01  0.1317E+02
  12.795  0.1226E+01  0.1318E+02
  12.805  0.1227E+01  0.1320E+02
  12.815  0.1229E+01  0.1321E+02
  12.825  0.1231E+01  0.1322E+02
  12.835  0.1233E+01  0.1323E+02
  12.845  0.1235E+01  0.1325E+02
  12.855  0.1238E+01  0.1326E+02
  12.865  0.1240E+01  0.1327E+02
  12.875  0.1242E+01  0.1328E+02
  12.885  0.1244E+01  0.1329E+02
  12.895  0.1246E+01  0.1331E+02
  12.905  0.1249E+01  0.1332E+02
  12.915  0.1251E+01  0.1333E+02
  12.925  0.1254E+01  0.1334E+02
  12.935  0.1256E+01  0.1336E+02
  12.945  0.1258E+01  0.1337E+02
  12.955  0.1261E+01  0.1338E+02
  12.965  0.1264E+01  0.1340E+02
  12.975  0.1266E+01  0.1341E+02
  12.985  0.1269E+01  0.1342E+02
  12.995  0.1271E+01  0.1343E+02
  13.005  0.1274E+01  0.1345E+02
  13.015  0.1277E+01  0.1346E+02
  13.025  0.1280E+01  0.1347E+02
  13.035  0.1282E+01  0.1348E+02
  13.045  0.1285E+01  0.1350E+02
  13.055  0.1288E+01  0.1351E+02
  13.065  0.1291E+01  0.1352E+02
  13.075  0.1294E+01  0.1354E+02
  13.085  0.1297E+01  0.1355E+02
  13.095  0.1300E+01  0.1356E+02
  13.105  0.1303E+01  0.1358E+02
  13.115  0.1306E+01  0.1359E+02
  13.125  0.1309E+01  0.1360E+02
  13.135  0.1312E+01  0.1361E+02
  13.145  0.1315E+01  0.1363E+02
  13.155  0.1318E+01  0.1364E+02
  13.165  0.1321E+01  0.1365E+02
  13.175  0.1324E+01  0.1367E+02
  13.185  0.1327E+01  0.1368E+02
  13.195  0.1330E+01  0.1369E+02
  13.205  0.1333E+01  0.1371E+02
  13.215  0.1336E+01  0.1372E+02
  13.225  0.1340E+01  0.1373E+02
  13.235  0.1343E+01  0.1375E+02
  13.245  0.1346E+01  0.1376E+02
  13.255  0.1349E+01  0.1377E+02
  13.265  0.1352E+01  0.1379E+02
  13.275  0.1355E+01  0.1380E+02
  13.285  0.1358E+01  0.1381E+02
  13.295  0.1361E+01  0.1383E+02
  13.305  0.1364E+01  0.1384E+02
  13.315  0.1367E+01  0.1386E+02
  13.325  0.1370E+01  0.1387E+02
  13.335  0.1373E+01  0.1388E+02
  13.345  0.1376E+01  0.1390E+02
  13.355  0.1379E+01  0.1391E+02
  13.365  0.1382E+01  0.1392E+02
  13.375  0.1385E+01  0.1394E+02
  13.385  0.1388E+01  0.1395E+02
  13.395  0.1390E+01  0.1397E+02
  13.405  0.1393E+01  0.1398E+02
  13.415  0.1396E+01  0.1399E+02
  13.425  0.1398E+01  0.1401E+02
  13.435  0.1401E+01  0.1402E+02
  13.445  0.1403E+01  0.1404E+02
  13.455  0.1406E+01  0.1405E+02
  13.465  0.1408E+01  0.1406E+02
  13.475  0.1411E+01  0.1408E+02
  13.485  0.1413E+01  0.1409E+02
  13.495  0.1415E+01  0.1411E+02
  13.505  0.1417E+01  0.1412E+02
  13.515  0.1419E+01  0.1413E+02
  13.525  0.1421E+01  0.1415E+02
  13.535  0.1423E+01  0.1416E+02
  13.545  0.1425E+01  0.1418E+02
  13.555  0.1427E+01  0.1419E+02
  13.565  0.1429E+01  0.1421E+02
  13.575  0.1430E+01  0.1422E+02
  13.585  0.1432E+01  0.1423E+02
  13.595  0.1433E+01  0.1425E+02
  13.605  0.1435E+01  0.1426E+02
  13.615  0.1436E+01  0.1428E+02
  13.625  0.1437E+01  0.1429E+02
  13.635  0.1438E+01  0.1431E+02
  13.645  0.1439E+01  0.1432E+02
  13.655  0.1440E+01  0.1434E+02
  13.665  0.1441E+01  0.1435E+02
  13.675  0.1441E+01  0.1436E+02
  13.685  0.1442E+01  0.1438E+02
  13.695  0.1442E+01  0.1439E+02
  13.705  0.1443E+01  0.1441E+02
  13.715  0.1443E+01  0.1442E+02
  13.725  0.1443E+01  0.1444E+02
  13.735  0.1443E+01  0.1445E+02
  13.745  0.1443E+01  0.1447E+02
  13.755  0.1443E+01  0.1448E+02
  13.765  0.1442E+01  0.1449E+02
  13.775  0.1442E+01  0.1451E+02
  13.785  0.1441E+01  0.1452E+02
  13.795  0.1440E+01  0.1454E+02
  13.805  0.1439E+01  0.1455E+02
  13.815  0.1438E+01  0.1457E+02
  13.825  0.1437E+01  0.1458E+02
  13.835  0.1436E+01  0.1459E+02
  13.845  0.1434E+01  0.1461E+02
  13.855  0.1433E+01  0.1462E+02
  13.865  0.1431E+01  0.1464E+02
  13.875  0.1429E+01  0.1465E+02
  13.885  0.1427E+01  0.1467E+02
  13.895  0.1425E+01  0.1468E+02
  13.905  0.1422E+01  0.1469E+02
  13.915  0.1420E+01  0.1471E+02
  13.925  0.1417E+01  0.1472E+02
  13.935  0.1415E+01  0.1474E+02
  13.945  0.1412E+01  0.1475E+02
  13.955  0.1409E+01  0.1477E+02
  13.965  0.1405E+01  0.1478E+02
  13.975  0.1402E+01  0.1479E+02
  13.985  0.1399E+01  0.1481E+02
  13.995  0.1395E+01  0.1482E+02
  14.005  0.1391E+01  0.1484E+02
  14.015  0.1387E+01  0.1485E+02
  14.025  0.1383E+01  0.1486E+02
  14.035  0.1379E+01  0.1488E+02
  14.045  0.1375E+01  0.1489E+02
  14.055  0.1370E+01  0.1490E+02
  14.065  0.1365E+01  0.1492E+02
  14.075  0.1361E+01  0.1493E+02
  14.085  0.1356E+01  0.1495E+02
  14.095  0.1351E+01  0.1496E+02
  14.105  0.1345E+01  0.1497E+02
  14.115  0.1340E+01  0.1499E+02
  14.125  0.1335E+01  0.1500E+02
  14.135  0.1329E+01  0.1501E+02
  14.145  0.1323E+01  0.1503E+02
  14.155  0.1317E+01  0.1504E+02
  14.165  0.1311E+01  0.1505E+02
  14.175  0.1305E+01  0.1506E+02
  14.185  0.1299E+01  0.1508E+02
  14.195  0.1293E+01  0.1509E+02
  14.205  0.1286E+01  0.1510E+02
  14.215  0.1280E+01  0.1512E+02
  14.225  0.1273E+01  0.1513E+02
  14.235  0.1267E+01  0.1514E+02
  14.245  0.1260E+01  0.1515E+02
  14.255  0.1253E+01  0.1517E+02
  14.265  0.1246E+01  0.1518E+02
  14.275  0.1239E+01  0.1519E+02
  14.285  0.1232E+01  0.1520E+02
  14.295  0.1224E+01  0.1522E+02
  14.305  0.1217E+01  0.1523E+02
  14.315  0.1210E+01  0.1524E+02
  14.325  0.1202E+01  0.1525E+02
  14.335  0.1195E+01  0.1526E+02
  14.345  0.1187E+01  0.1528E+02
  14.355  0.1180E+01  0.1529E+02
  14.365  0.1172E+01  0.1530E+02
  14.375  0.1165E+01  0.1531E+02
  14.385  0.1157E+01  0.1532E+02
  14.395  0.1149E+01  0.1533E+02
  14.405  0.1141E+01  0.1535E+02
  14.415  0.1134E+01  0.1536E+02
  14.425  0.1126E+01  0.1537E+02
  14.435  0.1118E+01  0.1538E+02
  14.445  0.1110E+01  0.1539E+02
  14.455  0.1103E+01  0.1540E+02
  14.465  0.1095E+01  0.1541E+02
  14.475  0.1087E+01  0.1542E+02
  14.485  0.1080E+01  0.1543E+02
  14.495  0.1072E+01  0.1545E+02
  14.505  0.1064E+01  0.1546E+02
  14.515  0.1057E+01  0.1547E+02
  14.525  0.1049E+01  0.1548E+02
  14.535  0.1042E+01  0.1549E+02
  14.545  0.1034E+01  0.1550E+02
  14.555  0.1027E+01  0.1551E+02
  14.565  0.1020E+01  0.1552E+02
  14.575  0.1012E+01  0.1553E+02
  14.585  0.1005E+01  0.1554E+02
  14.595  0.9982E+00  0.1555E+02
  14.605  0.9911E+00  0.1556E+02
  14.615  0.9842E+00  0.1557E+02
  14.625  0.9774E+00  0.1558E+02
  14.635  0.9706E+00  0.1559E+02
  14.645  0.9640E+00  0.1560E+02
  14.655  0.9574E+00  0.1561E+02
  14.665  0.9510E+00  0.1562E+02
  14.675  0.9446E+00  0.1563E+02
  14.685  0.9384E+00  0.1564E+02
  14.695  0.9323E+00  0.1564E+02
  14.705  0.9262E+00  0.1565E+02
  14.715  0.9204E+00  0.1566E+02
  14.725  0.9146E+00  0.1567E+02
  14.735  0.9089E+00  0.1568E+02
  14.745  0.9034E+00  0.1569E+02
  14.755  0.8980E+00  0.1570E+02
  14.765  0.8928E+00  0.1571E+02
  14.775  0.8876E+00  0.1572E+02
  14.785  0.8826E+00  0.1573E+02
  14.795  0.8777E+00  0.1573E+02
  14.805  0.8730E+00  0.1574E+02
  14.815  0.8684E+00  0.1575E+02
  14.825  0.8639E+00  0.1576E+02
  14.835  0.8595E+00  0.1577E+02
  14.845  0.8553E+00  0.1578E+02
  14.855  0.8512E+00  0.1579E+02
  14.865  0.8473E+00  0.1579E+02
  14.875  0.8435E+00  0.1580E+02
  14.885  0.8398E+00  0.1581E+02
  14.895  0.8362E+00  0.1582E+02
  14.905  0.8328E+00  0.1583E+02
  14.915  0.8295E+00  0.1584E+02
  14.925  0.8263E+00  0.1584E+02
  14.935  0.8233E+00  0.1585E+02
  14.945  0.8203E+00  0.1586E+02
  14.955  0.8175E+00  0.1587E+02
  14.965  0.8148E+00  0.1588E+02
  14.975  0.8122E+00  0.1589E+02
  14.985  0.8098E+00  0.1589E+02
  14.995  0.8074E+00  0.1590E+02
  15.005  0.8052E+00  0.1591E+02
  15.015  0.8030E+00  0.1592E+02
  15.025  0.8010E+00  0.1593E+02
  15.035  0.7990E+00  0.1593E+02
  15.045  0.7972E+00  0.1594E+02
  15.055  0.7954E+00  0.1595E+02
  15.065  0.7937E+00  0.1596E+02
  15.075  0.7922E+00  0.1597E+02
  15.085  0.7906E+00  0.1597E+02
  15.095  0.7892E+00  0.1598E+02
  15.105  0.7879E+00  0.1599E+02
  15.115  0.7866E+00  0.1600E+02
  15.125  0.7854E+00  0.1601E+02
  15.135  0.7842E+00  0.1601E+02
  15.145  0.7831E+00  0.1602E+02
  15.155  0.7821E+00  0.1603E+02
  15.165  0.7811E+00  0.1604E+02
  15.175  0.7802E+00  0.1604E+02
  15.185  0.7793E+00  0.1605E+02
  15.195  0.7784E+00  0.1606E+02
  15.205  0.7776E+00  0.1607E+02
  15.215  0.7768E+00  0.1608E+02
  15.225  0.7761E+00  0.1608E+02
  15.235  0.7754E+00  0.1609E+02
  15.245  0.7747E+00  0.1610E+02
  15.255  0.7740E+00  0.1611E+02
  15.265  0.7733E+00  0.1611E+02
  15.275  0.7727E+00  0.1612E+02
  15.285  0.7720E+00  0.1613E+02
  15.295  0.7714E+00  0.1614E+02
  15.305  0.7708E+00  0.1615E+02
  15.315  0.7701E+00  0.1615E+02
  15.325  0.7695E+00  0.1616E+02
  15.335  0.7689E+00  0.1617E+02
  15.345  0.7683E+00  0.1618E+02
  15.355  0.7676E+00  0.1618E+02
  15.365  0.7670E+00  0.1619E+02
  15.375  0.7663E+00  0.1620E+02
  15.385  0.7656E+00  0.1621E+02
  15.395  0.7649E+00  0.1621E+02
  15.405  0.7642E+00  0.1622E+02
  15.415  0.7635E+00  0.1623E+02
  15.425  0.7628E+00  0.1624E+02
  15.435  0.7620E+00  0.1624E+02
  15.445  0.7612E+00  0.1625E+02
  15.455  0.7604E+00  0.1626E+02
  15.465  0.7596E+00  0.1627E+02
  15.475  0.7587E+00  0.1628E+02
  15.485  0.7578E+00  0.1628E+02
  15.495  0.7569E+00  0.1629E+02
  15.505  0.7560E+00  0.1630E+02
  15.515  0.7551E+00  0.1631E+02
  15.525  0.7541E+00  0.1631E+02
  15.535  0.7531E+00  0.1632E+02
  15.545  0.7521E+00  0.1633E+02
  15.555  0.7510E+00  0.1634E+02
  15.565  0.7500E+00  0.1634E+02
  15.575  0.7489E+00  0.1635E+02
  15.585  0.7478E+00  0.1636E+02
  15.595  0.7466E+00  0.1637E+02
  15.605  0.7455E+00  0.1637E+02
  15.615  0.7444E+00  0.1638E+02
  15.625  0.7432E+00  0.1639E+02
  15.635  0.7420E+00  0.1640E+02
  15.645  0.7408E+00  0.1640E+02
  15.655  0.7396E+00  0.1641E+02
  15.665  0.7384E+00  0.1642E+02
  15.675  0.7372E+00  0.1642E+02
  15.685  0.7360E+00  0.1643E+02
  15.695  0.7348E+00  0.1644E+02
  15.705  0.7336E+00  0.1645E+02
  15.715  0.7323E+00  0.1645E+02
  15.725  0.7311E+00  0.1646E+02
  15.735  0.7299E+00  0.1647E+02
  15.745  0.7287E+00  0.1648E+02
  15.755  0.7276E+00  0.1648E+02
  15.765  0.7264E+00  0.1649E+02
  15.775  0.7253E+00  0.1650E+02
  15.785  0.7241E+00  0.1650E+02
  15.795  0.7230E+00  0.1651E+02
  15.805  0.7219E+00  0.1652E+02
  15.815  0.7209E+00  0.1653E+02
  15.825  0.7198E+00  0.1653E+02
  15.835  0.7188E+00  0.1654E+02
  15.845  0.7179E+00  0.1655E+02
  15.855  0.7169E+00  0.1656E+02
  15.865  0.7160E+00  0.1656E+02
  15.875  0.7152E+00  0.1657E+02
  15.885  0.7144E+00  0.1658E+02
  15.895  0.7136E+00  0.1658E+02
  15.905  0.7129E+00  0.1659E+02
  15.915  0.7122E+00  0.1660E+02
  15.925  0.7115E+00  0.1661E+02
  15.935  0.7110E+00  0.1661E+02
  15.945  0.7104E+00  0.1662E+02
  15.955  0.7100E+00  0.1663E+02
  15.965  0.7095E+00  0.1663E+02
  15.975  0.7092E+00  0.1664E+02
  15.985  0.7088E+00  0.1665E+02
  15.995  0.7086E+00  0.1665E+02
  16.005  0.7084E+00  0.1666E+02
  16.015  0.7082E+00  0.1667E+02
  16.025  0.7082E+00  0.1668E+02
  16.035  0.7082E+00  0.1668E+02
  16.045  0.7082E+00  0.1669E+02
  16.055  0.7083E+00  0.1670E+02
  16.065  0.7085E+00  0.1670E+02
  16.075  0.7087E+00  0.1671E+02
  16.085  0.7090E+00  0.1672E+02
  16.095  0.7094E+00  0.1673E+02
  16.105  0.7098E+00  0.1673E+02
  16.115  0.7103E+00  0.1674E+02
  16.125  0.7108E+00  0.1675E+02
  16.135  0.7114E+00  0.1675E+02
  16.145  0.7121E+00  0.1676E+02
  16.155  0.7128E+00  0.1677E+02
  16.165  0.7136E+00  0.1678E+02
  16.175  0.7144E+00  0.1678E+02
  16.185  0.7153E+00  0.1679E+02
  16.195  0.7163E+00  0.1680E+02
  16.205  0.7173E+00  0.1680E+02
  16.215  0.7184E+00  0.1681E+02
  16.225  0.7195E+00  0.1682E+02
  16.235  0.7207E+00  0.1683E+02
  16.245  0.7219E+00  0.1683E+02
  16.255  0.7232E+00  0.1684E+02
  16.265  0.7245E+00  0.1685E+02
  16.275  0.7259E+00  0.1685E+02
  16.285  0.7273E+00  0.1686E+02
  16.295  0.7288E+00  0.1687E+02
  16.305  0.7303E+00  0.1688E+02
  16.315  0.7318E+00  0.1688E+02
  16.325  0.7334E+00  0.1689E+02
  16.335  0.7350E+00  0.1690E+02
  16.345  0.7366E+00  0.1691E+02
  16.355  0.7383E+00  0.1691E+02
  16.365  0.7400E+00  0.1692E+02
  16.375  0.7417E+00  0.1693E+02
  16.385  0.7435E+00  0.1694E+02
  16.395  0.7453E+00  0.1694E+02
  16.405  0.7471E+00  0.1695E+02
  16.415  0.7489E+00  0.1696E+02
  16.425  0.7507E+00  0.1697E+02
  16.435  0.7526E+00  0.1697E+02
  16.445  0.7545E+00  0.1698E+02
  16.455  0.7563E+00  0.1699E+02
  16.465  0.7582E+00  0.1700E+02
  16.475  0.7601E+00  0.1700E+02
  16.485  0.7620E+00  0.1701E+02
  16.495  0.7639E+00  0.1702E+02
  16.505  0.7658E+00  0.1703E+02
  16.515  0.7677E+00  0.1703E+02
  16.525  0.7696E+00  0.1704E+02
  16.535  0.7715E+00  0.1705E+02
  16.545  0.7734E+00  0.1706E+02
  16.555  0.7753E+00  0.1706E+02
  16.565  0.7772E+00  0.1707E+02
  16.575  0.7790E+00  0.1708E+02
  16.585  0.7809E+00  0.1709E+02
  16.595  0.7827E+00  0.1710E+02
  16.605  0.7846E+00  0.1710E+02
  16.615  0.7864E+00  0.1711E+02
  16.625  0.7882E+00  0.1712E+02
  16.635  0.7900E+00  0.1713E+02
  16.645  0.7917E+00  0.1714E+02
  16.655  0.7935E+00  0.1714E+02
  16.665  0.7952E+00  0.1715E+02
  16.675  0.7969E+00  0.1716E+02
  16.685  0.7986E+00  0.1717E+02
  16.695  0.8002E+00  0.1718E+02
  16.705  0.8018E+00  0.1718E+02
  16.715  0.8034E+00  0.1719E+02
  16.725  0.8050E+00  0.1720E+02
  16.735  0.8066E+00  0.1721E+02
  16.745  0.8081E+00  0.1722E+02
  16.755  0.8096E+00  0.1722E+02
  16.765  0.8110E+00  0.1723E+02
  16.775  0.8125E+00  0.1724E+02
  16.785  0.8139E+00  0.1725E+02
  16.795  0.8153E+00  0.1726E+02
  16.805  0.8166E+00  0.1726E+02
  16.815  0.8180E+00  0.1727E+02
  16.825  0.8192E+00  0.1728E+02
  16.835  0.8205E+00  0.1729E+02
  16.845  0.8217E+00  0.1730E+02
  16.855  0.8230E+00  0.1731E+02
  16.865  0.8241E+00  0.1731E+02
  16.875  0.8253E+00  0.1732E+02
  16.885  0.8264E+00  0.1733E+02
  16.895  0.8275E+00  0.1734E+02
  16.905  0.8286E+00  0.1735E+02
  16.915  0.8296E+00  0.1736E+02
  16.925  0.8306E+00  0.1736E+02
  16.935  0.8316E+00  0.1737E+02
  16.945  0.8325E+00  0.1738E+02
  16.955  0.8335E+00  0.1739E+02
  16.965  0.8344E+00  0.1740E+02
  16.975  0.8352E+00  0.1741E+02
  16.985  0.8361E+00  0.1741E+02
  16.995  0.8369E+00  0.1742E+02
  17.005  0.8377E+00  0.1743E+02
  17.015  0.8385E+00  0.1744E+02
  17.025  0.8392E+00  0.1745E+02
  17.035  0.8399E+00  0.1746E+02
  17.045  0.8406E+00  0.1746E+02
  17.055  0.8413E+00  0.1747E+02
  17.065  0.8420E+00  0.1748E+02
  17.075  0.8426E+00  0.1749E+02
  17.085  0.8432E+00  0.1750E+02
  17.095  0.8438E+00  0.1751E+02
  17.105  0.8444E+00  0.1751E+02
  17.115  0.8450E+00  0.1752E+02
  17.125  0.8455E+00  0.1753E+02
  17.135  0.8460E+00  0.1754E+02
  17.145  0.8465E+00  0.1755E+02
  17.155  0.8470E+00  0.1756E+02
  17.165  0.8475E+00  0.1757E+02
  17.175  0.8479E+00  0.1757E+02
  17.185  0.8484E+00  0.1758E+02
  17.195  0.8488E+00  0.1759E+02
  17.205  0.8492E+00  0.1760E+02
  17.215  0.8496E+00  0.1761E+02
  17.225  0.8500E+00  0.1762E+02
  17.235  0.8504E+00  0.1762E+02
  17.245  0.8507E+00  0.1763E+02
  17.255  0.8510E+00  0.1764E+02
  17.265  0.8514E+00  0.1765E+02
  17.275  0.8517E+00  0.1766E+02
  17.285  0.8520E+00  0.1767E+02
  17.295  0.8523E+00  0.1768E+02
  17.305  0.8526E+00  0.1768E+02
  17.315  0.8528E+00  0.1769E+02
  17.325  0.8531E+00  0.1770E+02
  17.335  0.8534E+00  0.1771E+02
  17.345  0.8536E+00  0.1772E+02
  17.355  0.8538E+00  0.1773E+02
  17.365  0.8540E+00  0.1774E+02
  17.375  0.8543E+00  0.1774E+02
  17.385  0.8545E+00  0.1775E+02
  17.395  0.8547E+00  0.1776E+02
  17.405  0.8548E+00  0.1777E+02
  17.415  0.8550E+00  0.1778E+02
  17.425  0.8552E+00  0.1779E+02
  17.435  0.8553E+00  0.1780E+02
  17.445  0.8555E+00  0.1780E+02
  17.455  0.8556E+00  0.1781E+02
  17.465  0.8557E+00  0.1782E+02
  17.475  0.8558E+00  0.1783E+02
  17.485  0.8560E+00  0.1784E+02
  17.495  0.8560E+00  0.1785E+02
  17.505  0.8561E+00  0.1786E+02
  17.515  0.8562E+00  0.1786E+02
  17.525  0.8563E+00  0.1787E+02
  17.535  0.8563E+00  0.1788E+02
  17.545  0.8563E+00  0.1789E+02
  17.555  0.8564E+00  0.1790E+02
  17.565  0.8564E+00  0.1791E+02
  17.575  0.8564E+00  0.1792E+02
  17.585  0.8563E+00  0.1792E+02
  17.595  0.8563E+00  0.1793E+02
  17.605  0.8562E+00  0.1794E+02
  17.615  0.8562E+00  0.1795E+02
  17.625  0.8561E+00  0.1796E+02
  17.635  0.8560E+00  0.1797E+02
  17.645  0.8558E+00  0.1797E+02
  17.655  0.8557E+00  0.1798E+02
  17.665  0.8555E+00  0.1799E+02
  17.675  0.8553E+00  0.1800E+02
  17.685  0.8551E+00  0.1801E+02
  17.695  0.8548E+00  0.1802E+02
  17.705  0.8546E+00  0.1803E+02
  17.715  0.8543E+00  0.1803E+02
  17.725  0.8539E+00  0.1804E+02
  17.735  0.8536E+00  0.1805E+02
  17.745  0.8532E+00  0.1806E+02
  17.755  0.8528E+00  0.1807E+02
  17.765  0.8523E+00  0.1808E+02
  17.775  0.8518E+00  0.1809E+02
  17.785  0.8513E+00  0.1809E+02
  17.795  0.8508E+00  0.1810E+02
  17.805  0.8502E+00  0.1811E+02
  17.815  0.8495E+00  0.1812E+02
  17.825  0.8488E+00  0.1813E+02
  17.835  0.8481E+00  0.1814E+02
  17.845  0.8474E+00  0.1815E+02
  17.855  0.8466E+00  0.1815E+02
  17.865  0.8457E+00  0.1816E+02
  17.875  0.8448E+00  0.1817E+02
  17.885  0.8439E+00  0.1818E+02
  17.895  0.8429E+00  0.1819E+02
  17.905  0.8418E+00  0.1820E+02
  17.915  0.8407E+00  0.1820E+02
  17.925  0.8395E+00  0.1821E+02
  17.935  0.8383E+00  0.1822E+02
  17.945  0.8371E+00  0.1823E+02
  17.955  0.8357E+00  0.1824E+02
  17.965  0.8344E+00  0.1825E+02
  17.975  0.8329E+00  0.1825E+02
  17.985  0.8314E+00  0.1826E+02
  17.995  0.8299E+00  0.1827E+02
  18.005  0.8282E+00  0.1828E+02
  18.015  0.8266E+00  0.1829E+02
  18.025  0.8248E+00  0.1830E+02
  18.035  0.8230E+00  0.1830E+02
  18.045  0.8211E+00  0.1831E+02
  18.055  0.8192E+00  0.1832E+02
  18.065  0.8172E+00  0.1833E+02
  18.075  0.8151E+00  0.1834E+02
  18.085  0.8130E+00  0.1835E+02
  18.095  0.8108E+00  0.1835E+02
  18.105  0.8085E+00  0.1836E+02
  18.115  0.8062E+00  0.1837E+02
  18.125  0.8038E+00  0.1838E+02
  18.135  0.8013E+00  0.1839E+02
  18.145  0.7988E+00  0.1839E+02
  18.155  0.7962E+00  0.1840E+02
  18.165  0.7936E+00  0.1841E+02
  18.175  0.7909E+00  0.1842E+02
  18.185  0.7881E+00  0.1843E+02
  18.195  0.7852E+00  0.1843E+02
  18.205  0.7823E+00  0.1844E+02
  18.215  0.7794E+00  0.1845E+02
  18.225  0.7763E+00  0.1846E+02
  18.235  0.7732E+00  0.1846E+02
  18.245  0.7701E+00  0.1847E+02
  18.255  0.7669E+00  0.1848E+02
  18.265  0.7637E+00  0.1849E+02
  18.275  0.7604E+00  0.1849E+02
  18.285  0.7570E+00  0.1850E+02
  18.295  0.7536E+00  0.1851E+02
  18.305  0.7501E+00  0.1852E+02
  18.315  0.7467E+00  0.1852E+02
  18.325  0.7431E+00  0.1853E+02
  18.335  0.7395E+00  0.1854E+02
  18.345  0.7359E+00  0.1855E+02
  18.355  0.7323E+00  0.1855E+02
  18.365  0.7286E+00  0.1856E+02
  18.375  0.7248E+00  0.1857E+02
  18.385  0.7211E+00  0.1858E+02
  18.395  0.7173E+00  0.1858E+02
  18.405  0.7135E+00  0.1859E+02
  18.415  0.7097E+00  0.1860E+02
  18.425  0.7058E+00  0.1860E+02
  18.435  0.7020E+00  0.1861E+02
  18.445  0.6981E+00  0.1862E+02
  18.455  0.6942E+00  0.1863E+02
  18.465  0.6904E+00  0.1863E+02
  18.475  0.6865E+00  0.1864E+02
  18.485  0.6826E+00  0.1865E+02
  18.495  0.6787E+00  0.1865E+02
  18.505  0.6748E+00  0.1866E+02
  18.515  0.6709E+00  0.1867E+02
  18.525  0.6670E+00  0.1867E+02
  18.535  0.6632E+00  0.1868E+02
  18.545  0.6594E+00  0.1869E+02
  18.555  0.6555E+00  0.1869E+02
  18.565  0.6517E+00  0.1870E+02
  18.575  0.6480E+00  0.1871E+02
  18.585  0.6442E+00  0.1871E+02
  18.595  0.6405E+00  0.1872E+02
  18.605  0.6369E+00  0.1872E+02
  18.615  0.6332E+00  0.1873E+02
  18.625  0.6296E+00  0.1874E+02
  18.635  0.6261E+00  0.1874E+02
  18.645  0.6226E+00  0.1875E+02
  18.655  0.6191E+00  0.1876E+02
  18.665  0.6157E+00  0.1876E+02
  18.675  0.6124E+00  0.1877E+02
  18.685  0.6091E+00  0.1877E+02
  18.695  0.6059E+00  0.1878E+02
  18.705  0.6027E+00  0.1879E+02
  18.715  0.5996E+00  0.1879E+02
  18.725  0.5966E+00  0.1880E+02
  18.735  0.5936E+00  0.1880E+02
  18.745  0.5907E+00  0.1881E+02
  18.755  0.5879E+00  0.1882E+02
  18.765  0.5851E+00  0.1882E+02
  18.775  0.5824E+00  0.1883E+02
  18.785  0.5798E+00  0.1883E+02
  18.795  0.5773E+00  0.1884E+02
  18.805  0.5749E+00  0.1885E+02
  18.815  0.5725E+00  0.1885E+02
  18.825  0.5702E+00  0.1886E+02
  18.835  0.5680E+00  0.1886E+02
  18.845  0.5659E+00  0.1887E+02
  18.855  0.5638E+00  0.1887E+02
  18.865  0.5619E+00  0.1888E+02
  18.875  0.5600E+00  0.1889E+02
  18.885  0.5582E+00  0.1889E+02
  18.895  0.5565E+00  0.1890E+02
  18.905  0.5549E+00  0.1890E+02
  18.915  0.5534E+00  0.1891E+02
  18.925  0.5520E+00  0.1891E+02
  18.935  0.5506E+00  0.1892E+02
  18.945  0.5493E+00  0.1892E+02
  18.955  0.5481E+00  0.1893E+02
  18.965  0.5470E+00  0.1893E+02
  18.975  0.5460E+00  0.1894E+02
  18.985  0.5451E+00  0.1895E+02
  18.995  0.5442E+00  0.1895E+02
  19.005  0.5434E+00  0.1896E+02
  19.015  0.5427E+00  0.1896E+02
  19.025  0.5421E+00  0.1897E+02
  19.035  0.5416E+00  0.1897E+02
  19.045  0.5411E+00  0.1898E+02
  19.055  0.5407E+00  0.1898E+02
  19.065  0.5404E+00  0.1899E+02
  19.075  0.5401E+00  0.1899E+02
  19.085  0.5399E+00  0.1900E+02
  19.095  0.5398E+00  0.1901E+02
  19.105  0.5398E+00  0.1901E+02
  19.115  0.5398E+00  0.1902E+02
  19.125  0.5399E+00  0.1902E+02
  19.135  0.5400E+00  0.1903E+02
  19.145  0.5402E+00  0.1903E+02
  19.155  0.5404E+00  0.1904E+02
  19.165  0.5407E+00  0.1904E+02
  19.175  0.5411E+00  0.1905E+02
  19.185  0.5415E+00  0.1905E+02
  19.195  0.5419E+00  0.1906E+02
  19.205  0.5424E+00  0.1906E+02
  19.215  0.5429E+00  0.1907E+02
  19.225  0.5435E+00  0.1908E+02
  19.235  0.5441E+00  0.1908E+02
  19.245  0.5448E+00  0.1909E+02
  19.255  0.5454E+00  0.1909E+02
  19.265  0.5461E+00  0.1910E+02
  19.275  0.5469E+00  0.1910E+02
  19.285  0.5477E+00  0.1911E+02
  19.295  0.5484E+00  0.1911E+02
  19.305  0.5493E+00  0.1912E+02
  19.315  0.5501E+00  0.1912E+02
  19.325  0.5509E+00  0.1913E+02
  19.335  0.5518E+00  0.1914E+02
  19.345  0.5527E+00  0.1914E+02
  19.355  0.5536E+00  0.1915E+02
  19.365  0.5545E+00  0.1915E+02
  19.375  0.5554E+00  0.1916E+02
  19.385  0.5563E+00  0.1916E+02
  19.395  0.5572E+00  0.1917E+02
  19.405  0.5581E+00  0.1917E+02
  19.415  0.5591E+00  0.1918E+02
  19.425  0.5600E+00  0.1919E+02
  19.435  0.5609E+00  0.1919E+02
  19.445  0.5618E+00  0.1920E+02
  19.455  0.5627E+00  0.1920E+02
  19.465  0.5636E+00  0.1921E+02
  19.475  0.5645E+00  0.1921E+02
  19.485  0.5654E+00  0.1922E+02
  19.495  0.5662E+00  0.1923E+02
  19.505  0.5671E+00  0.1923E+02
  19.515  0.5679E+00  0.1924E+02
  19.525  0.5688E+00  0.1924E+02
  19.535  0.5696E+00  0.1925E+02
  19.545  0.5704E+00  0.1925E+02
  19.555  0.5711E+00  0.1926E+02
  19.565  0.5719E+00  0.1927E+02
  19.575  0.5726E+00  0.1927E+02
  19.585  0.5733E+00  0.1928E+02
  19.595  0.5740E+00  0.1928E+02
  19.605  0.5747E+00  0.1929E+02
  19.615  0.5753E+00  0.1929E+02
  19.625  0.5759E+00  0.1930E+02
  19.635  0.5765E+00  0.1931E+02
  19.645  0.5771E+00  0.1931E+02
  19.655  0.5776E+00  0.1932E+02
  19.665  0.5781E+00  0.1932E+02
  19.675  0.5786E+00  0.1933E+02
  19.685  0.5791E+00  0.1933E+02
  19.695  0.5795E+00  0.1934E+02
  19.705  0.5799E+00  0.1935E+02
  19.715  0.5803E+00  0.1935E+02
  19.725  0.5806E+00  0.1936E+02
  19.735  0.5810E+00  0.1936E+02
  19.745  0.5813E+00  0.1937E+02
  19.755  0.5816E+00  0.1937E+02
  19.765  0.5818E+00  0.1938E+02
  19.775  0.5820E+00  0.1939E+02
  19.785  0.5822E+00  0.1939E+02
  19.795  0.5824E+00  0.1940E+02
  19.805  0.5826E+00  0.1940E+02
  19.815  0.5827E+00  0.1941E+02
  19.825  0.5828E+00  0.1942E+02
  19.835  0.5829E+00  0.1942E+02
  19.845  0.5829E+00  0.1943E+02
  19.855  0.5830E+00  0.1943E+02
  19.865  0.5830E+00  0.1944E+02
  19.875  0.5830E+00  0.1944E+02
  19.885  0.5830E+00  0.1945E+02
  19.895  0.5829E+00  0.1946E+02
  19.905  0.5829E+00  0.1946E+02
  19.915  0.5828E+00  0.1947E+02
  19.925  0.5827E+00  0.1947E+02
  19.935  0.5826E+00  0.1948E+02
  19.945  0.5825E+00  0.1949E+02
  19.955  0.5824E+00  0.1949E+02
  19.965  0.5822E+00  0.1950E+02
  19.975  0.5821E+00  0.1950E+02
  19.985  0.5819E+00  0.1951E+02
  19.995  0.5817E+00  0.1951E+02
  20.005  0.5815E+00  0.1952E+02
  20.015  0.5813E+00  0.1953E+02
  20.025  0.5812E+00  0.1953E+02
  20.035  0.5810E+00  0.1954E+02
  20.045  0.5808E+00  0.1954E+02
  20.055  0.5806E+00  0.1955E+02
  20.065  0.5804E+00  0.1956E+02
  20.075  0.5802E+00  0.1956E+02
  20.085  0.5800E+00  0.1957E+02
  20.095  0.5798E+00  0.1957E+02
  20.105  0.5796E+00  0.1958E+02
  20.115  0.5794E+00  0.1958E+02
  20.125  0.5793E+00  0.1959E+02
  20.135  0.5791E+00  0.1960E+02
  20.145  0.5790E+00  0.1960E+02
  20.155  0.5788E+00  0.1961E+02
  20.165  0.5787E+00  0.1961E+02
  20.175  0.5786E+00  0.1962E+02
  20.185  0.5785E+00  0.1962E+02
  20.195  0.5785E+00  0.1963E+02
  20.205  0.5784E+00  0.1964E+02
  20.215  0.5784E+00  0.1964E+02
  20.225  0.5784E+00  0.1965E+02
  20.235  0.5785E+00  0.1965E+02
  20.245  0.5785E+00  0.1966E+02
  20.255  0.5786E+00  0.1967E+02
  20.265  0.5787E+00  0.1967E+02
  20.275  0.5789E+00  0.1968E+02
  20.285  0.5791E+00  0.1968E+02
  20.295  0.5793E+00  0.1969E+02
  20.305  0.5796E+00  0.1969E+02
  20.315  0.5799E+00  0.1970E+02
  20.325  0.5802E+00  0.1971E+02
  20.335  0.5806E+00  0.1971E+02
  20.345  0.5810E+00  0.1972E+02
  20.355  0.5815E+00  0.1972E+02
  20.365  0.5820E+00  0.1973E+02
  20.375  0.5826E+00  0.1974E+02
  20.385  0.5832E+00  0.1974E+02
  20.395  0.5839E+00  0.1975E+02
  20.405  0.5846E+00  0.1975E+02
  20.415  0.5854E+00  0.1976E+02
  20.425  0.5862E+00  0.1976E+02
  20.435  0.5871E+00  0.1977E+02
  20.445  0.5881E+00  0.1978E+02
  20.455  0.5891E+00  0.1978E+02
  20.465  0.5902E+00  0.1979E+02
  20.475  0.5913E+00  0.1979E+02
  20.485  0.5926E+00  0.1980E+02
  20.495  0.5939E+00  0.1981E+02
  20.505  0.5952E+00  0.1981E+02
  20.515  0.5966E+00  0.1982E+02
  20.525  0.5981E+00  0.1982E+02
  20.535  0.5997E+00  0.1983E+02
  20.545  0.6014E+00  0.1984E+02
  20.555  0.6031E+00  0.1984E+02
  20.565  0.6049E+00  0.1985E+02
  20.575  0.6068E+00  0.1985E+02
  20.585  0.6088E+00  0.1986E+02
  20.595  0.6108E+00  0.1987E+02
  20.605  0.6130E+00  0.1987E+02
  20.615  0.6152E+00  0.1988E+02
  20.625  0.6175E+00  0.1988E+02
  20.635  0.6199E+00  0.1989E+02
  20.645  0.6224E+00  0.1990E+02
  20.655  0.6250E+00  0.1990E+02
  20.665  0.6276E+00  0.1991E+02
  20.675  0.6304E+00  0.1992E+02
  20.685  0.6332E+00  0.1992E+02
  20.695  0.6362E+00  0.1993E+02
  20.705  0.6392E+00  0.1993E+02
  20.715  0.6424E+00  0.1994E+02
  20.725  0.6456E+00  0.1995E+02
  20.735  0.6490E+00  0.1995E+02
  20.745  0.6524E+00  0.1996E+02
  20.755  0.6559E+00  0.1997E+02
  20.765  0.6596E+00  0.1997E+02
  20.775  0.6633E+00  0.1998E+02
  20.785  0.6671E+00  0.1999E+02
  20.795  0.6711E+00  0.1999E+02
  20.805  0.6751E+00  0.2000E+02
  20.815  0.6793E+00  0.2001E+02
  20.825  0.6835E+00  0.2001E+02
  20.835  0.6879E+00  0.2002E+02
  20.845  0.6923E+00  0.2003E+02
  20.855  0.6969E+00  0.2003E+02
  20.865  0.7016E+00  0.2004E+02
  20.875  0.7063E+00  0.2005E+02
  20.885  0.7112E+00  0.2006E+02
  20.895  0.7162E+00  0.2006E+02
  20.905  0.7212E+00  0.2007E+02
  20.915  0.7264E+00  0.2008E+02
  20.925  0.7317E+00  0.2009E+02
  20.935  0.7371E+00  0.2009E+02
  20.945  0.7426E+00  0.2010E+02
  20.955  0.7482E+00  0.2011E+02
  20.965  0.7539E+00  0.2011E+02
  20.975  0.7597E+00  0.2012E+02
  20.985  0.7655E+00  0.2013E+02
  20.995  0.7715E+00  0.2014E+02
  21.005  0.7776E+00  0.2015E+02
  21.015  0.7838E+00  0.2015E+02
  21.025  0.7901E+00  0.2016E+02
  21.035  0.7964E+00  0.2017E+02
  21.045  0.8029E+00  0.2018E+02
  21.055  0.8094E+00  0.2019E+02
  21.065  0.8161E+00  0.2019E+02
  21.075  0.8228E+00  0.2020E+02
  21.085  0.8296E+00  0.2021E+02
  21.095  0.8365E+00  0.2022E+02
  21.105  0.8434E+00  0.2023E+02
  21.115  0.8505E+00  0.2024E+02
  21.125  0.8576E+00  0.2024E+02
  21.135  0.8648E+00  0.2025E+02
  21.145  0.8720E+00  0.2026E+02
  21.155  0.8794E+00  0.2027E+02
  21.165  0.8868E+00  0.2028E+02
  21.175  0.8942E+00  0.2029E+02
  21.185  0.9017E+00  0.2030E+02
  21.195  0.9093E+00  0.2031E+02
  21.205  0.9169E+00  0.2032E+02
  21.215  0.9246E+00  0.2032E+02
  21.225  0.9324E+00  0.2033E+02
  21.235  0.9401E+00  0.2034E+02
  21.245  0.9480E+00  0.2035E+02
  21.255  0.9558E+00  0.2036E+02
  21.265  0.9637E+00  0.2037E+02
  21.275  0.9716E+00  0.2038E+02
  21.285  0.9796E+00  0.2039E+02
  21.295  0.9876E+00  0.2040E+02
  21.305  0.9956E+00  0.2041E+02
  21.315  0.1004E+01  0.2042E+02
  21.325  0.1012E+01  0.2043E+02
  21.335  0.1020E+01  0.2044E+02
  21.345  0.1028E+01  0.2045E+02
  21.355  0.1036E+01  0.2046E+02
  21.365  0.1044E+01  0.2047E+02
  21.375  0.1052E+01  0.2048E+02
  21.385  0.1060E+01  0.2049E+02
  21.395  0.1068E+01  0.2050E+02
  21.405  0.1076E+01  0.2052E+02
  21.415  0.1084E+01  0.2053E+02
  21.425  0.1092E+01  0.2054E+02
  21.435  0.1100E+01  0.2055E+02
  21.445  0.1108E+01  0.2056E+02
  21.455  0.1116E+01  0.2057E+02
  21.465  0.1124E+01  0.2058E+02
  21.475  0.1131E+01  0.2059E+02
  21.485  0.1139E+01  0.2060E+02
  21.495  0.1147E+01  0.2062E+02
  21.505  0.1155E+01  0.2063E+02
  21.515  0.1162E+01  0.2064E+02
  21.525  0.1170E+01  0.2065E+02
  21.535  0.1177E+01  0.2066E+02
  21.545  0.1185E+01  0.2067E+02
  21.555  0.1192E+01  0.2069E+02
  21.565  0.1199E+01  0.2070E+02
  21.575  0.1207E+01  0.2071E+02
  21.585  0.1214E+01  0.2072E+02
  21.595  0.1221E+01  0.2073E+02
  21.605  0.1228E+01  0.2075E+02
  21.615  0.1235E+01  0.2076E+02
  21.625  0.1242E+01  0.2077E+02
  21.635  0.1248E+01  0.2078E+02
  21.645  0.1255E+01  0.2080E+02
  21.655  0.1262E+01  0.2081E+02
  21.665  0.1268E+01  0.2082E+02
  21.675  0.1274E+01  0.2083E+02
  21.685  0.1281E+01  0.2085E+02
  21.695  0.1287E+01  0.2086E+02
  21.705  0.1293E+01  0.2087E+02
  21.715  0.1299E+01  0.2089E+02
  21.725  0.1305E+01  0.2090E+02
  21.735  0.1310E+01  0.2091E+02
  21.745  0.1316E+01  0.2093E+02
  21.755  0.1321E+01  0.2094E+02
  21.765  0.1327E+01  0.2095E+02
  21.775  0.1332E+01  0.2097E+02
  21.785  0.1337E+01  0.2098E+02
  21.795  0.1342E+01  0.2099E+02
  21.805  0.1347E+01  0.2101E+02
  21.815  0.1352E+01  0.2102E+02
  21.825  0.1357E+01  0.2103E+02
  21.835  0.1361E+01  0.2105E+02
  21.845  0.1366E+01  0.2106E+02
  21.855  0.1370E+01  0.2107E+02
  21.865  0.1374E+01  0.2109E+02
  21.875  0.1378E+01  0.2110E+02
  21.885  0.1382E+01  0.2111E+02
  21.895  0.1386E+01  0.2113E+02
  21.905  0.1390E+01  0.2114E+02
  21.915  0.1394E+01  0.2116E+02
  21.925  0.1397E+01  0.2117E+02
  21.935  0.1401E+01  0.2118E+02
  21.945  0.1404E+01  0.2120E+02
  21.955  0.1407E+01  0.2121E+02
  21.965  0.1410E+01  0.2123E+02
  21.975  0.1413E+01  0.2124E+02
  21.985  0.1416E+01  0.2126E+02
  21.995  0.1419E+01  0.2127E+02
  22.005  0.1421E+01  0.2128E+02
  22.015  0.1424E+01  0.2130E+02
  22.025  0.1426E+01  0.2131E+02
  22.035  0.1428E+01  0.2133E+02
  22.045  0.1430E+01  0.2134E+02
  22.055  0.1432E+01  0.2135E+02
  22.065  0.1434E+01  0.2137E+02
  22.075  0.1436E+01  0.2138E+02
  22.085  0.1438E+01  0.2140E+02
  22.095  0.1439E+01  0.2141E+02
  22.105  0.1441E+01  0.2143E+02
  22.115  0.1442E+01  0.2144E+02
  22.125  0.1443E+01  0.2146E+02
  22.135  0.1445E+01  0.2147E+02
  22.145  0.1446E+01  0.2148E+02
  22.155  0.1447E+01  0.2150E+02
  22.165  0.1447E+01  0.2151E+02
  22.175  0.1448E+01  0.2153E+02
  22.185  0.1449E+01  0.2154E+02
  22.195  0.1449E+01  0.2156E+02
  22.205  0.1450E+01  0.2157E+02
  22.215  0.1450E+01  0.2159E+02
  22.225  0.1450E+01  0.2160E+02
  22.235  0.1450E+01  0.2161E+02
  22.245  0.1450E+01  0.2163E+02
  22.255  0.1450E+01  0.2164E+02
  22.265  0.1450E+01  0.2166E+02
  22.275  0.1450E+01  0.2167E+02
  22.285  0.1449E+01  0.2169E+02
  22.295  0.1449E+01  0.2170E+02
  22.305  0.1448E+01  0.2172E+02
  22.315  0.1448E+01  0.2173E+02
  22.325  0.1447E+01  0.2175E+02
  22.335  0.1446E+01  0.2176E+02
  22.345  0.1445E+01  0.2177E+02
  22.355  0.1444E+01  0.2179E+02
  22.365  0.1443E+01  0.2180E+02
  22.375  0.1442E+01  0.2182E+02
  22.385  0.1440E+01  0.2183E+02
  22.395  0.1439E+01  0.2185E+02
  22.405  0.1437E+01  0.2186E+02
  22.415  0.1436E+01  0.2188E+02
  22.425  0.1434E+01  0.2189E+02
  22.435  0.1432E+01  0.2190E+02
  22.445  0.1430E+01  0.2192E+02
  22.455  0.1428E+01  0.2193E+02
  22.465  0.1426E+01  0.2195E+02
  22.475  0.1424E+01  0.2196E+02
  22.485  0.1421E+01  0.2198E+02
  22.495  0.1419E+01  0.2199E+02
  22.505  0.1416E+01  0.2200E+02
  22.515  0.1414E+01  0.2202E+02
  22.525  0.1411E+01  0.2203E+02
  22.535  0.1408E+01  0.2205E+02
  22.545  0.1405E+01  0.2206E+02
  22.555  0.1402E+01  0.2207E+02
  22.565  0.1399E+01  0.2209E+02
  22.575  0.1396E+01  0.2210E+02
  22.585  0.1392E+01  0.2212E+02
  22.595  0.1389E+01  0.2213E+02
  22.605  0.1385E+01  0.2214E+02
  22.615  0.1382E+01  0.2216E+02
  22.625  0.1378E+01  0.2217E+02
  22.635  0.1374E+01  0.2218E+02
  22.645  0.1371E+01  0.2220E+02
  22.655  0.1367E+01  0.2221E+02
  22.665  0.1363E+01  0.2223E+02
  22.675  0.1358E+01  0.2224E+02
  22.685  0.1354E+01  0.2225E+02
  22.695  0.1350E+01  0.2227E+02
  22.705  0.1345E+01  0.2228E+02
  22.715  0.1341E+01  0.2229E+02
  22.725  0.1336E+01  0.2231E+02
  22.735  0.1332E+01  0.2232E+02
  22.745  0.1327E+01  0.2233E+02
  22.755  0.1322E+01  0.2235E+02
  22.765  0.1317E+01  0.2236E+02
  22.775  0.1312E+01  0.2237E+02
  22.785  0.1307E+01  0.2239E+02
  22.795  0.1302E+01  0.2240E+02
  22.805  0.1297E+01  0.2241E+02
  22.815  0.1292E+01  0.2242E+02
  22.825  0.1286E+01  0.2244E+02
  22.835  0.1281E+01  0.2245E+02
  22.845  0.1275E+01  0.2246E+02
  22.855  0.1270E+01  0.2248E+02
  22.865  0.1264E+01  0.2249E+02
  22.875  0.1258E+01  0.2250E+02
  22.885  0.1253E+01  0.2251E+02
  22.895  0.1247E+01  0.2253E+02
  22.905  0.1241E+01  0.2254E+02
  22.915  0.1235E+01  0.2255E+02
  22.925  0.1229E+01  0.2256E+02
  22.935  0.1223E+01  0.2258E+02
  22.945  0.1217E+01  0.2259E+02
  22.955  0.1211E+01  0.2260E+02
  22.965  0.1205E+01  0.2261E+02
  22.975  0.1199E+01  0.2262E+02
  22.985  0.1192E+01  0.2264E+02
  22.995  0.1186E+01  0.2265E+02
  23.005  0.1180E+01  0.2266E+02
  23.015  0.1173E+01  0.2267E+02
  23.025  0.1167E+01  0.2268E+02
  23.035  0.1161E+01  0.2269E+02
  23.045  0.1154E+01  0.2271E+02
  23.055  0.1148E+01  0.2272E+02
  23.065  0.1141E+01  0.2273E+02
  23.075  0.1135E+01  0.2274E+02
  23.085  0.1129E+01  0.2275E+02
  23.095  0.1122E+01  0.2276E+02
  23.105  0.1116E+01  0.2277E+02
  23.115  0.1109E+01  0.2278E+02
  23.125  0.1103E+01  0.2280E+02
  23.135  0.1096E+01  0.2281E+02
  23.145  0.1090E+01  0.2282E+02
  23.155  0.1083E+01  0.2283E+02
  23.165  0.1077E+01  0.2284E+02
  23.175  0.1070E+01  0.2285E+02
  23.185  0.1064E+01  0.2286E+02
  23.195  0.1058E+01  0.2287E+02
  23.205  0.1051E+01  0.2288E+02
  23.215  0.1045E+01  0.2289E+02
  23.225  0.1039E+01  0.2290E+02
  23.235  0.1032E+01  0.2291E+02
  23.245  0.1026E+01  0.2292E+02
  23.255  0.1020E+01  0.2293E+02
  23.265  0.1014E+01  0.2294E+02
  23.275  0.1008E+01  0.2295E+02
  23.285  0.1002E+01  0.2296E+02
  23.295  0.9959E+00  0.2297E+02
  23.305  0.9899E+00  0.2298E+02
  23.315  0.9841E+00  0.2299E+02
  23.325  0.9783E+00  0.2300E+02
  23.335  0.9726E+00  0.2301E+02
  23.345  0.9669E+00  0.2302E+02
  23.355  0.9613E+00  0.2303E+02
  23.365  0.9558E+00  0.2304E+02
  23.375  0.9504E+00  0.2305E+02
  23.385  0.9450E+00  0.2306E+02
  23.395  0.9397E+00  0.2307E+02
  23.405  0.9345E+00  0.2308E+02
  23.415  0.9295E+00  0.2309E+02
  23.425  0.9245E+00  0.2310E+02
  23.435  0.9195E+00  0.2311E+02
  23.445  0.9147E+00  0.2312E+02
  23.455  0.9100E+00  0.2313E+02
  23.465  0.9054E+00  0.2313E+02
  23.475  0.9009E+00  0.2314E+02
  23.485  0.8966E+00  0.2315E+02
  23.495  0.8923E+00  0.2316E+02
  23.505  0.8881E+00  0.2317E+02
  23.515  0.8841E+00  0.2318E+02
  23.525  0.8801E+00  0.2319E+02
  23.535  0.8763E+00  0.2320E+02
  23.545  0.8727E+00  0.2321E+02
  23.555  0.8691E+00  0.2321E+02
  23.565  0.8656E+00  0.2322E+02
  23.575  0.8623E+00  0.2323E+02
  23.585  0.8592E+00  0.2324E+02
  23.595  0.8561E+00  0.2325E+02
  23.605  0.8532E+00  0.2326E+02
  23.615  0.8504E+00  0.2327E+02
  23.625  0.8477E+00  0.2327E+02
  23.635  0.8452E+00  0.2328E+02
  23.645  0.8428E+00  0.2329E+02
  23.655  0.8406E+00  0.2330E+02
  23.665  0.8385E+00  0.2331E+02
  23.675  0.8365E+00  0.2332E+02
  23.685  0.8347E+00  0.2332E+02
  23.695  0.8330E+00  0.2333E+02
  23.705  0.8314E+00  0.2334E+02
  23.715  0.8300E+00  0.2335E+02
  23.725  0.8287E+00  0.2336E+02
  23.735  0.8275E+00  0.2337E+02
  23.745  0.8265E+00  0.2337E+02
  23.755  0.8256E+00  0.2338E+02
  23.765  0.8249E+00  0.2339E+02
  23.775  0.8243E+00  0.2340E+02
  23.785  0.8238E+00  0.2341E+02
  23.795  0.8235E+00  0.2342E+02
  23.805  0.8233E+00  0.2342E+02
  23.815  0.8232E+00  0.2343E+02
  23.825  0.8232E+00  0.2344E+02
  23.835  0.8234E+00  0.2345E+02
  23.845  0.8237E+00  0.2346E+02
  23.855  0.8241E+00  0.2346E+02
  23.865  0.8246E+00  0.2347E+02
  23.875  0.8253E+00  0.2348E+02
  23.885  0.8260E+00  0.2349E+02
  23.895  0.8269E+00  0.2350E+02
  23.905  0.8279E+00  0.2351E+02
  23.915  0.8290E+00  0.2351E+02
  23.925  0.8302E+00  0.2352E+02
  23.935  0.8314E+00  0.2353E+02
  23.945  0.8328E+00  0.2354E+02
  23.955  0.8343E+00  0.2355E+02
  23.965  0.8359E+00  0.2356E+02
  23.975  0.8375E+00  0.2356E+02
  23.985  0.8392E+00  0.2357E+02
  23.995  0.8410E+00  0.2358E+02
  24.005  0.8429E+00  0.2359E+02
  24.015  0.8449E+00  0.2360E+02
  24.025  0.8469E+00  0.2361E+02
  24.035  0.8490E+00  0.2361E+02
  24.045  0.8511E+00  0.2362E+02
  24.055  0.8533E+00  0.2363E+02
  24.065  0.8555E+00  0.2364E+02
  24.075  0.8578E+00  0.2365E+02
  24.085  0.8601E+00  0.2366E+02
  24.095  0.8625E+00  0.2367E+02
  24.105  0.8649E+00  0.2367E+02
  24.115  0.8673E+00  0.2368E+02
  24.125  0.8698E+00  0.2369E+02
  24.135  0.8722E+00  0.2370E+02
  24.145  0.8747E+00  0.2371E+02
  24.155  0.8772E+00  0.2372E+02
  24.165  0.8797E+00  0.2373E+02
  24.175  0.8822E+00  0.2374E+02
  24.185  0.8847E+00  0.2375E+02
  24.195  0.8872E+00  0.2375E+02
  24.205  0.8896E+00  0.2376E+02
  24.215  0.8921E+00  0.2377E+02
  24.225  0.8945E+00  0.2378E+02
  24.235  0.8970E+00  0.2379E+02
  24.245  0.8993E+00  0.2380E+02
  24.255  0.9017E+00  0.2381E+02
  24.265  0.9040E+00  0.2382E+02
  24.275  0.9063E+00  0.2383E+02
  24.285  0.9086E+00  0.2383E+02
  24.295  0.9108E+00  0.2384E+02
  24.305  0.9129E+00  0.2385E+02
  24.315  0.9150E+00  0.2386E+02
  24.325  0.9171E+00  0.2387E+02
  24.335  0.9190E+00  0.2388E+02
  24.345  0.9210E+00  0.2389E+02
  24.355  0.9228E+00  0.2390E+02
  24.365  0.9246E+00  0.2391E+02
  24.375  0.9264E+00  0.2392E+02
  24.385  0.9280E+00  0.2393E+02
  24.395  0.9296E+00  0.2394E+02
  24.405  0.9311E+00  0.2395E+02
  24.415  0.9325E+00  0.2395E+02
  24.425  0.9339E+00  0.2396E+02
  24.435  0.9351E+00  0.2397E+02
  24.445  0.9363E+00  0.2398E+02
  24.455  0.9374E+00  0.2399E+02
  24.465  0.9384E+00  0.2400E+02
  24.475  0.9393E+00  0.2401E+02
  24.485  0.9402E+00  0.2402E+02
  24.495  0.9409E+00  0.2403E+02
  24.505  0.9416E+00  0.2404E+02
  24.515  0.9421E+00  0.2405E+02
  24.525  0.9426E+00  0.2406E+02
  24.535  0.9430E+00  0.2407E+02
  24.545  0.9433E+00  0.2408E+02
  24.555  0.9435E+00  0.2409E+02
  24.565  0.9436E+00  0.2410E+02
  24.575  0.9436E+00  0.2411E+02
  24.585  0.9435E+00  0.2411E+02
  24.595  0.9434E+00  0.2412E+02
  24.605  0.9431E+00  0.2413E+02
  24.615  0.9427E+00  0.2414E+02
  24.625  0.9423E+00  0.2415E+02
  24.635  0.9418E+00  0.2416E+02
  24.645  0.9412E+00  0.2417E+02
  24.655  0.9405E+00  0.2418E+02
  24.665  0.9397E+00  0.2419E+02
  24.675  0.9388E+00  0.2420E+02
  24.685  0.9378E+00  0.2421E+02
  24.695  0.9368E+00  0.2422E+02
  24.705  0.9357E+00  0.2423E+02
  24.715  0.9345E+00  0.2424E+02
  24.725  0.9332E+00  0.2425E+02
  24.735  0.9318E+00  0.2426E+02
  24.745  0.9304E+00  0.2426E+02
  24.755  0.9289E+00  0.2427E+02
  24.765  0.9273E+00  0.2428E+02
  24.775  0.9257E+00  0.2429E+02
  24.785  0.9240E+00  0.2430E+02
  24.795  0.9222E+00  0.2431E+02
  24.805  0.9204E+00  0.2432E+02
  24.815  0.9185E+00  0.2433E+02
  24.825  0.9165E+00  0.2434E+02
  24.835  0.9145E+00  0.2435E+02
  24.845  0.9124E+00  0.2436E+02
  24.855  0.9103E+00  0.2437E+02
  24.865  0.9081E+00  0.2438E+02
  24.875  0.9059E+00  0.2438E+02
  24.885  0.9036E+00  0.2439E+02
  24.895  0.9013E+00  0.2440E+02
  24.905  0.8990E+00  0.2441E+02
  24.915  0.8966E+00  0.2442E+02
  24.925  0.8941E+00  0.2443E+02
  24.935  0.8916E+00  0.2444E+02
  24.945  0.8891E+00  0.2445E+02
  24.955  0.8865E+00  0.2446E+02
  24.965  0.8839E+00  0.2446E+02
  24.975  0.8813E+00  0.2447E+02
  24.985  0.8787E+00  0.2448E+02
  24.995  0.8760E+00  0.2449E+02
  25.005  0.8733E+00  0.2450E+02
  25.015  0.8706E+00  0.2451E+02
  25.025  0.8678E+00  0.2452E+02
  25.035  0.8650E+00  0.2453E+02
  25.045  0.8622E+00  0.2453E+02
  25.055  0.8594E+00  0.2454E+02
  25.065  0.8566E+00  0.2455E+02
  25.075  0.8537E+00  0.2456E+02
  25.085  0.8508E+00  0.2457E+02
  25.095  0.8479E+00  0.2458E+02
  25.105  0.8450E+00  0.2459E+02
  25.115  0.8421E+00  0.2459E+02
  25.125  0.8392E+00  0.2460E+02
  25.135  0.8362E+00  0.2461E+02
  25.145  0.8333E+00  0.2462E+02
  25.155  0.8303E+00  0.2463E+02
  25.165  0.8273E+00  0.2464E+02
  25.175  0.8243E+00  0.2464E+02
  25.185  0.8213E+00  0.2465E+02
  25.195  0.8183E+00  0.2466E+02
  25.205  0.8153E+00  0.2467E+02
  25.215  0.8122E+00  0.2468E+02
  25.225  0.8092E+00  0.2468E+02
  25.235  0.8061E+00  0.2469E+02
  25.245  0.8031E+00  0.2470E+02
