#  E (eV)   dos(E)     Int dos(E) EFermi =  10.811 eV
 -11.821  0.2474E-03  0.2474E-05
 -11.811  0.2993E-03  0.5468E-05
 -11.801  0.3616E-03  0.9084E-05
 -11.791  0.4360E-03  0.1344E-04
 -11.781  0.5249E-03  0.1869E-04
 -11.771  0.6310E-03  0.2500E-04
 -11.761  0.7572E-03  0.3257E-04
 -11.751  0.9071E-03  0.4165E-04
 -11.741  0.1085E-02  0.5250E-04
 -11.731  0.1296E-02  0.6545E-04
 -11.721  0.1545E-02  0.8090E-04
 -11.711  0.1838E-02  0.9928E-04
 -11.701  0.2185E-02  0.1211E-03
 -11.691  0.2592E-02  0.1470E-03
 -11.681  0.3070E-02  0.1777E-03
 -11.671  0.3631E-02  0.2141E-03
 -11.661  0.4286E-02  0.2569E-03
 -11.651  0.5052E-02  0.3074E-03
 -11.641  0.5946E-02  0.3669E-03
 -11.631  0.6986E-02  0.4368E-03
 -11.621  0.8195E-02  0.5187E-03
 -11.611  0.9597E-02  0.6147E-03
 -11.601  0.1122E-01  0.7269E-03
 -11.591  0.1310E-01  0.8579E-03
 -11.581  0.1527E-01  0.1011E-02
 -11.571  0.1777E-01  0.1188E-02
 -11.561  0.2064E-01  0.1395E-02
 -11.551  0.2394E-01  0.1634E-02
 -11.541  0.2773E-01  0.1911E-02
 -11.531  0.3206E-01  0.2232E-02
 -11.521  0.3701E-01  0.2602E-02
 -11.511  0.4266E-01  0.3029E-02
 -11.501  0.4908E-01  0.3520E-02
 -11.491  0.5639E-01  0.4083E-02
 -11.481  0.6469E-01  0.4730E-02
 -11.471  0.7408E-01  0.5471E-02
 -11.461  0.8471E-01  0.6318E-02
 -11.451  0.9671E-01  0.7285E-02
 -11.441  0.1102E+00  0.8388E-02
 -11.431  0.1255E+00  0.9642E-02
 -11.421  0.1425E+00  0.1107E-01
 -11.411  0.1617E+00  0.1268E-01
 -11.401  0.1832E+00  0.1452E-01
 -11.391  0.2072E+00  0.1659E-01
 -11.381  0.2339E+00  0.1893E-01
 -11.371  0.2637E+00  0.2156E-01
 -11.361  0.2968E+00  0.2453E-01
 -11.351  0.3336E+00  0.2787E-01
 -11.341  0.3744E+00  0.3161E-01
 -11.331  0.4194E+00  0.3581E-01
 -11.321  0.4692E+00  0.4050E-01
 -11.311  0.5241E+00  0.4574E-01
 -11.301  0.5845E+00  0.5158E-01
 -11.291  0.6508E+00  0.5809E-01
 -11.281  0.7235E+00  0.6533E-01
 -11.271  0.8032E+00  0.7336E-01
 -11.261  0.8902E+00  0.8226E-01
 -11.251  0.9852E+00  0.9211E-01
 -11.241  0.1089E+01  0.1030E+00
 -11.231  0.1201E+01  0.1150E+00
 -11.221  0.1323E+01  0.1282E+00
 -11.211  0.1455E+01  0.1428E+00
 -11.201  0.1598E+01  0.1588E+00
 -11.191  0.1753E+01  0.1763E+00
 -11.181  0.1919E+01  0.1955E+00
 -11.171  0.2098E+01  0.2165E+00
 -11.161  0.2290E+01  0.2394E+00
 -11.151  0.2497E+01  0.2643E+00
 -11.141  0.2717E+01  0.2915E+00
 -11.131  0.2953E+01  0.3210E+00
 -11.121  0.3204E+01  0.3531E+00
 -11.111  0.3471E+01  0.3878E+00
 -11.101  0.3756E+01  0.4254E+00
 -11.091  0.4057E+01  0.4659E+00
 -11.081  0.4376E+01  0.5097E+00
 -11.071  0.4713E+01  0.5568E+00
 -11.061  0.5068E+01  0.6075E+00
 -11.051  0.5443E+01  0.6619E+00
 -11.041  0.5836E+01  0.7203E+00
 -11.031  0.6248E+01  0.7828E+00
 -11.021  0.6680E+01  0.8496E+00
 -11.011  0.7131E+01  0.9209E+00
 -11.001  0.7601E+01  0.9969E+00
 -10.991  0.8091E+01  0.1078E+01
 -10.981  0.8599E+01  0.1164E+01
 -10.971  0.9126E+01  0.1255E+01
 -10.961  0.9671E+01  0.1352E+01
 -10.951  0.1023E+02  0.1454E+01
 -10.941  0.1081E+02  0.1562E+01
 -10.931  0.1141E+02  0.1676E+01
 -10.921  0.1202E+02  0.1797E+01
 -10.911  0.1265E+02  0.1923E+01
 -10.901  0.1328E+02  0.2056E+01
 -10.891  0.1394E+02  0.2195E+01
 -10.881  0.1460E+02  0.2341E+01
 -10.871  0.1527E+02  0.2494E+01
 -10.861  0.1595E+02  0.2653E+01
 -10.851  0.1663E+02  0.2820E+01
 -10.841  0.1732E+02  0.2993E+01
 -10.831  0.1801E+02  0.3173E+01
 -10.821  0.1871E+02  0.3360E+01
 -10.811  0.1940E+02  0.3554E+01
 -10.801  0.2009E+02  0.3755E+01
 -10.791  0.2077E+02  0.3962E+01
 -10.781  0.2144E+02  0.4177E+01
 -10.771  0.2211E+02  0.4398E+01
 -10.761  0.2276E+02  0.4626E+01
 -10.751  0.2340E+02  0.4860E+01
 -10.741  0.2403E+02  0.5100E+01
 -10.731  0.2463E+02  0.5346E+01
 -10.721  0.2521E+02  0.5598E+01
 -10.711  0.2578E+02  0.5856E+01
 -10.701  0.2631E+02  0.6119E+01
 -10.691  0.2682E+02  0.6387E+01
 -10.681  0.2730E+02  0.6660E+01
 -10.671  0.2775E+02  0.6938E+01
 -10.661  0.2816E+02  0.7220E+01
 -10.651  0.2855E+02  0.7505E+01
 -10.641  0.2889E+02  0.7794E+01
 -10.631  0.2920E+02  0.8086E+01
 -10.621  0.2947E+02  0.8381E+01
 -10.611  0.2970E+02  0.8678E+01
 -10.601  0.2989E+02  0.8977E+01
 -10.591  0.3004E+02  0.9277E+01
 -10.581  0.3014E+02  0.9578E+01
 -10.571  0.3020E+02  0.9880E+01
 -10.561  0.3022E+02  0.1018E+02
 -10.551  0.3020E+02  0.1048E+02
 -10.541  0.3013E+02  0.1079E+02
 -10.531  0.3002E+02  0.1109E+02
 -10.521  0.2987E+02  0.1138E+02
 -10.511  0.2968E+02  0.1168E+02
 -10.501  0.2944E+02  0.1198E+02
 -10.491  0.2917E+02  0.1227E+02
 -10.481  0.2886E+02  0.1256E+02
 -10.471  0.2851E+02  0.1284E+02
 -10.461  0.2812E+02  0.1312E+02
 -10.451  0.2770E+02  0.1340E+02
 -10.441  0.2725E+02  0.1367E+02
 -10.431  0.2676E+02  0.1394E+02
 -10.421  0.2625E+02  0.1420E+02
 -10.411  0.2571E+02  0.1446E+02
 -10.401  0.2514E+02  0.1471E+02
 -10.391  0.2455E+02  0.1496E+02
 -10.381  0.2394E+02  0.1520E+02
 -10.371  0.2332E+02  0.1543E+02
 -10.361  0.2267E+02  0.1566E+02
 -10.351  0.2201E+02  0.1588E+02
 -10.341  0.2134E+02  0.1609E+02
 -10.331  0.2066E+02  0.1630E+02
 -10.321  0.1998E+02  0.1650E+02
 -10.311  0.1928E+02  0.1669E+02
 -10.301  0.1859E+02  0.1687E+02
 -10.291  0.1789E+02  0.1705E+02
 -10.281  0.1720E+02  0.1723E+02
 -10.271  0.1651E+02  0.1739E+02
 -10.261  0.1582E+02  0.1755E+02
 -10.251  0.1514E+02  0.1770E+02
 -10.241  0.1446E+02  0.1784E+02
 -10.231  0.1380E+02  0.1798E+02
 -10.221  0.1315E+02  0.1811E+02
 -10.211  0.1251E+02  0.1824E+02
 -10.201  0.1188E+02  0.1836E+02
 -10.191  0.1127E+02  0.1847E+02
 -10.181  0.1068E+02  0.1858E+02
 -10.171  0.1010E+02  0.1868E+02
 -10.161  0.9538E+01  0.1877E+02
 -10.151  0.8994E+01  0.1886E+02
 -10.141  0.8469E+01  0.1895E+02
 -10.131  0.7962E+01  0.1903E+02
 -10.121  0.7475E+01  0.1910E+02
 -10.111  0.7008E+01  0.1917E+02
 -10.101  0.6559E+01  0.1924E+02
 -10.091  0.6131E+01  0.1930E+02
 -10.081  0.5722E+01  0.1936E+02
 -10.071  0.5332E+01  0.1941E+02
 -10.061  0.4961E+01  0.1946E+02
 -10.051  0.4609E+01  0.1951E+02
 -10.041  0.4276E+01  0.1955E+02
 -10.031  0.3961E+01  0.1959E+02
 -10.021  0.3664E+01  0.1962E+02
 -10.011  0.3384E+01  0.1966E+02
 -10.001  0.3120E+01  0.1969E+02
  -9.991  0.2873E+01  0.1972E+02
  -9.981  0.2641E+01  0.1975E+02
  -9.971  0.2425E+01  0.1977E+02
  -9.961  0.2223E+01  0.1979E+02
  -9.951  0.2034E+01  0.1981E+02
  -9.941  0.1859E+01  0.1983E+02
  -9.931  0.1696E+01  0.1985E+02
  -9.921  0.1546E+01  0.1986E+02
  -9.911  0.1406E+01  0.1988E+02
  -9.901  0.1277E+01  0.1989E+02
  -9.891  0.1158E+01  0.1990E+02
  -9.881  0.1049E+01  0.1991E+02
  -9.871  0.9484E+00  0.1992E+02
  -9.861  0.8563E+00  0.1993E+02
  -9.851  0.7719E+00  0.1994E+02
  -9.841  0.6948E+00  0.1994E+02
  -9.831  0.6244E+00  0.1995E+02
  -9.821  0.5603E+00  0.1996E+02
  -9.811  0.5020E+00  0.1996E+02
  -9.801  0.4491E+00  0.1997E+02
  -9.791  0.4011E+00  0.1997E+02
  -9.781  0.3577E+00  0.1997E+02
  -9.771  0.3185E+00  0.1998E+02
  -9.761  0.2832E+00  0.1998E+02
  -9.751  0.2514E+00  0.1998E+02
  -9.741  0.2228E+00  0.1998E+02
  -9.731  0.1972E+00  0.1999E+02
  -9.721  0.1743E+00  0.1999E+02
  -9.711  0.1538E+00  0.1999E+02
  -9.701  0.1354E+00  0.1999E+02
  -9.691  0.1191E+00  0.1999E+02
  -9.681  0.1046E+00  0.1999E+02
  -9.671  0.9173E-01  0.1999E+02
  -9.661  0.8030E-01  0.1999E+02
  -9.651  0.7019E-01  0.2000E+02
  -9.641  0.6126E-01  0.2000E+02
  -9.631  0.5338E-01  0.2000E+02
  -9.621  0.4644E-01  0.2000E+02
  -9.611  0.4035E-01  0.2000E+02
  -9.601  0.3499E-01  0.2000E+02
  -9.591  0.3030E-01  0.2000E+02
  -9.581  0.2620E-01  0.2000E+02
  -9.571  0.2262E-01  0.2000E+02
  -9.561  0.1949E-01  0.2000E+02
  -9.551  0.1678E-01  0.2000E+02
  -9.541  0.1441E-01  0.2000E+02
  -9.531  0.1237E-01  0.2000E+02
  -9.521  0.1059E-01  0.2000E+02
  -9.511  0.9057E-02  0.2000E+02
  -9.501  0.7733E-02  0.2000E+02
  -9.491  0.6593E-02  0.2000E+02
  -9.481  0.5611E-02  0.2000E+02
  -9.471  0.4768E-02  0.2000E+02
  -9.461  0.4046E-02  0.2000E+02
  -9.451  0.3427E-02  0.2000E+02
  -9.441  0.2899E-02  0.2000E+02
  -9.431  0.2448E-02  0.2000E+02
  -9.421  0.2064E-02  0.2000E+02
  -9.411  0.1737E-02  0.2000E+02
  -9.401  0.1460E-02  0.2000E+02
  -9.391  0.1225E-02  0.2000E+02
  -9.381  0.1026E-02  0.2000E+02
  -9.371  0.8586E-03  0.2000E+02
  -9.361  0.7170E-03  0.2000E+02
  -9.351  0.5979E-03  0.2000E+02
  -9.341  0.4977E-03  0.2000E+02
  -9.331  0.4137E-03  0.2000E+02
  -9.321  0.3433E-03  0.2000E+02
  -9.311  0.2844E-03  0.2000E+02
  -9.301  0.2353E-03  0.2000E+02
  -9.291  0.1943E-03  0.2000E+02
  -9.281  0.1602E-03  0.2000E+02
  -9.271  0.1319E-03  0.2000E+02
  -9.261  0.1084E-03  0.2000E+02
  -9.251  0.8894E-04  0.2000E+02
  -9.241  0.7287E-04  0.2000E+02
  -9.231  0.5960E-04  0.2000E+02
  -9.221  0.4867E-04  0.2000E+02
  -9.211  0.3969E-04  0.2000E+02
  -9.201  0.3231E-04  0.2000E+02
  -9.191  0.2626E-04  0.2000E+02
  -9.181  0.2130E-04  0.2000E+02
  -9.171  0.1726E-04  0.2000E+02
  -9.161  0.1396E-04  0.2000E+02
  -9.151  0.1127E-04  0.2000E+02
  -9.141  0.9087E-05  0.2000E+02
  -9.131  0.7314E-05  0.2000E+02
  -9.121  0.5877E-05  0.2000E+02
  -9.111  0.4715E-05  0.2000E+02
  -9.101  0.3777E-05  0.2000E+02
  -9.091  0.3021E-05  0.2000E+02
  -9.081  0.2412E-05  0.2000E+02
  -9.071  0.1922E-05  0.2000E+02
  -9.061  0.1530E-05  0.2000E+02
  -9.051  0.1215E-05  0.2000E+02
  -9.041  0.9642E-06  0.2000E+02
  -9.031  0.7636E-06  0.2000E+02
  -9.021  0.6037E-06  0.2000E+02
  -9.011  0.4766E-06  0.2000E+02
  -9.001  0.3756E-06  0.2000E+02
  -8.991  0.2955E-06  0.2000E+02
  -8.981  0.2321E-06  0.2000E+02
  -8.971  0.1821E-06  0.2000E+02
  -8.961  0.1425E-06  0.2000E+02
  -8.951  0.1114E-06  0.2000E+02
  -8.941  0.8696E-07  0.2000E+02
  -8.931  0.6776E-07  0.2000E+02
  -8.921  0.5271E-07  0.2000E+02
  -8.911  0.4093E-07  0.2000E+02
  -8.901  0.3174E-07  0.2000E+02
  -8.891  0.2457E-07  0.2000E+02
  -8.881  0.1898E-07  0.2000E+02
  -8.871  0.1465E-07  0.2000E+02
  -8.861  0.1128E-07  0.2000E+02
  -8.851  0.8676E-08  0.2000E+02
  -8.841  0.6661E-08  0.2000E+02
  -8.831  0.5106E-08  0.2000E+02
  -8.821  0.3907E-08  0.2000E+02
  -8.811  0.2985E-08  0.2000E+02
  -8.801  0.2277E-08  0.2000E+02
  -8.791  0.1734E-08  0.2000E+02
  -8.781  0.1318E-08  0.2000E+02
  -8.771  0.1000E-08  0.2000E+02
  -8.761  0.7578E-09  0.2000E+02
  -8.751  0.5733E-09  0.2000E+02
  -8.741  0.4329E-09  0.2000E+02
  -8.731  0.3264E-09  0.2000E+02
  -8.721  0.2457E-09  0.2000E+02
  -8.711  0.1846E-09  0.2000E+02
  -8.701  0.1385E-09  0.2000E+02
  -8.691  0.1038E-09  0.2000E+02
  -8.681  0.7758E-10  0.2000E+02
  -8.671  0.5792E-10  0.2000E+02
  -8.661  0.4317E-10  0.2000E+02
  -8.651  0.3212E-10  0.2000E+02
  -8.641  0.2386E-10  0.2000E+02
  -8.631  0.1769E-10  0.2000E+02
  -8.621  0.1310E-10  0.2000E+02
  -8.611  0.9682E-11  0.2000E+02
  -8.601  0.7144E-11  0.2000E+02
  -8.591  0.5263E-11  0.2000E+02
  -8.581  0.3871E-11  0.2000E+02
  -8.571  0.2842E-11  0.2000E+02
  -8.561  0.2083E-11  0.2000E+02
  -8.551  0.1525E-11  0.2000E+02
  -8.541  0.1114E-11  0.2000E+02
  -8.531  0.8124E-12  0.2000E+02
  -8.521  0.5916E-12  0.2000E+02
  -8.511  0.4301E-12  0.2000E+02
  -8.501  0.3121E-12  0.2000E+02
  -8.491  0.2261E-12  0.2000E+02
  -8.481  0.1636E-12  0.2000E+02
  -8.471  0.1181E-12  0.2000E+02
  -8.461  0.8515E-13  0.2000E+02
  -8.451  0.6128E-13  0.2000E+02
  -8.441  0.4403E-13  0.2000E+02
  -8.431  0.3159E-13  0.2000E+02
  -8.421  0.2262E-13  0.2000E+02
  -8.411  0.1617E-13  0.2000E+02
  -8.401  0.1154E-13  0.2000E+02
  -8.391  0.8224E-14  0.2000E+02
  -8.381  0.5850E-14  0.2000E+02
  -8.371  0.4154E-14  0.2000E+02
  -8.361  0.2945E-14  0.2000E+02
  -8.351  0.2085E-14  0.2000E+02
  -8.341  0.1473E-14  0.2000E+02
  -8.331  0.1039E-14  0.2000E+02
  -8.321  0.7317E-15  0.2000E+02
  -8.311  0.5145E-15  0.2000E+02
  -8.301  0.3611E-15  0.2000E+02
  -8.291  0.2530E-15  0.2000E+02
  -8.281  0.1770E-15  0.2000E+02
  -8.271  0.1236E-15  0.2000E+02
  -8.261  0.8617E-16  0.2000E+02
  -8.251  0.5998E-16  0.2000E+02
  -8.241  0.4167E-16  0.2000E+02
  -8.231  0.2891E-16  0.2000E+02
  -8.221  0.2002E-16  0.2000E+02
  -8.211  0.1384E-16  0.2000E+02
  -8.201  0.9553E-17  0.2000E+02
  -8.191  0.6582E-17  0.2000E+02
  -8.181  0.4528E-17  0.2000E+02
  -8.171  0.3109E-17  0.2000E+02
  -8.161  0.2131E-17  0.2000E+02
  -8.151  0.1459E-17  0.2000E+02
  -8.141  0.9967E-18  0.2000E+02
  -8.131  0.6799E-18  0.2000E+02
  -8.121  0.4630E-18  0.2000E+02
  -8.111  0.3147E-18  0.2000E+02
  -8.101  0.2136E-18  0.2000E+02
  -8.091  0.1447E-18  0.2000E+02
  -8.081  0.9788E-19  0.2000E+02
  -8.071  0.6609E-19  0.2000E+02
  -8.061  0.4455E-19  0.2000E+02
  -8.051  0.2998E-19  0.2000E+02
  -8.041  0.2014E-19  0.2000E+02
  -8.031  0.1351E-19  0.2000E+02
  -8.021  0.9046E-20  0.2000E+02
  -8.011  0.6047E-20  0.2000E+02
  -8.001  0.4035E-20  0.2000E+02
  -7.991  0.2688E-20  0.2000E+02
  -7.981  0.1788E-20  0.2000E+02
  -7.971  0.1187E-20  0.2000E+02
  -7.961  0.7867E-21  0.2000E+02
  -7.951  0.5206E-21  0.2000E+02
  -7.941  0.3439E-21  0.2000E+02
  -7.931  0.2268E-21  0.2000E+02
  -7.921  0.1493E-21  0.2000E+02
  -7.911  0.9812E-22  0.2000E+02
  -7.901  0.6438E-22  0.2000E+02
  -7.891  0.4217E-22  0.2000E+02
  -7.881  0.2758E-22  0.2000E+02
  -7.871  0.1800E-22  0.2000E+02
  -7.861  0.1173E-22  0.2000E+02
  -7.851  0.7632E-23  0.2000E+02
  -7.841  0.4957E-23  0.2000E+02
  -7.831  0.3214E-23  0.2000E+02
  -7.821  0.2080E-23  0.2000E+02
  -7.811  0.1344E-23  0.2000E+02
  -7.801  0.8673E-24  0.2000E+02
  -7.791  0.5585E-24  0.2000E+02
  -7.781  0.3591E-24  0.2000E+02
  -7.771  0.2305E-24  0.2000E+02
  -7.761  0.1477E-24  0.2000E+02
  -7.751  0.9446E-25  0.2000E+02
  -7.741  0.6032E-25  0.2000E+02
  -7.731  0.3845E-25  0.2000E+02
  -7.721  0.2447E-25  0.2000E+02
  -7.711  0.1555E-25  0.2000E+02
  -7.701  0.9861E-26  0.2000E+02
  -7.691  0.6243E-26  0.2000E+02
  -7.681  0.3946E-26  0.2000E+02
  -7.671  0.2490E-26  0.2000E+02
  -7.661  0.1569E-26  0.2000E+02
  -7.651  0.9866E-27  0.2000E+02
  -7.641  0.6194E-27  0.2000E+02
  -7.631  0.3882E-27  0.2000E+02
  -7.621  0.2429E-27  0.2000E+02
  -7.611  0.1517E-27  0.2000E+02
  -7.601  0.9461E-28  0.2000E+02
  -7.591  0.5889E-28  0.2000E+02
  -7.581  0.3660E-28  0.2000E+02
  -7.571  0.2271E-28  0.2000E+02
  -7.561  0.1406E-28  0.2000E+02
  -7.551  0.8695E-29  0.2000E+02
  -7.541  0.5367E-29  0.2000E+02
  -7.531  0.3307E-29  0.2000E+02
  -7.521  0.2034E-29  0.2000E+02
  -7.511  0.1249E-29  0.2000E+02
  -7.501  0.7658E-30  0.2000E+02
  -7.491  0.4687E-30  0.2000E+02
  -7.481  0.2863E-30  0.2000E+02
  -7.471  0.1746E-30  0.2000E+02
  -7.461  0.1063E-30  0.2000E+02
  -7.451  0.6463E-31  0.2000E+02
  -7.441  0.3922E-31  0.2000E+02
  -7.431  0.2376E-31  0.2000E+02
  -7.421  0.1437E-31  0.2000E+02
  -7.411  0.8674E-32  0.2000E+02
  -7.401  0.5228E-32  0.2000E+02
  -7.391  0.3146E-32  0.2000E+02
  -7.381  0.1889E-32  0.2000E+02
  -7.371  0.1133E-32  0.2000E+02
  -7.361  0.6781E-33  0.2000E+02
  -7.351  0.4052E-33  0.2000E+02
  -7.341  0.2417E-33  0.2000E+02
  -7.331  0.1440E-33  0.2000E+02
  -7.321  0.8559E-34  0.2000E+02
  -7.311  0.5080E-34  0.2000E+02
  -7.301  0.3010E-34  0.2000E+02
  -7.291  0.1780E-34  0.2000E+02
  -7.281  0.1051E-34  0.2000E+02
  -7.271  0.6197E-35  0.2000E+02
  -7.261  0.3647E-35  0.2000E+02
  -7.251  0.2142E-35  0.2000E+02
  -7.241  0.1256E-35  0.2000E+02
  -7.231  0.7356E-36  0.2000E+02
  -7.221  0.4299E-36  0.2000E+02
  -7.211  0.2509E-36  0.2000E+02
  -7.201  0.1461E-36  0.2000E+02
  -7.191  0.8497E-37  0.2000E+02
  -7.181  0.4932E-37  0.2000E+02
  -7.171  0.2858E-37  0.2000E+02
  -7.161  0.1654E-37  0.2000E+02
  -7.151  0.9550E-38  0.2000E+02
  -7.141  0.5506E-38  0.2000E+02
  -7.131  0.3169E-38  0.2000E+02
  -7.121  0.1821E-38  0.2000E+02
  -7.111  0.1044E-38  0.2000E+02
  -7.101  0.5980E-39  0.2000E+02
  -7.091  0.3418E-39  0.2000E+02
  -7.081  0.1951E-39  0.2000E+02
  -7.071  0.1111E-39  0.2000E+02
  -7.061  0.6320E-40  0.2000E+02
  -7.051  0.3588E-40  0.2000E+02
  -7.041  0.2034E-40  0.2000E+02
  -7.031  0.1151E-40  0.2000E+02
  -7.021  0.6499E-41  0.2000E+02
  -7.011  0.3665E-41  0.2000E+02
  -7.001  0.2063E-41  0.2000E+02
  -6.991  0.1159E-41  0.2000E+02
  -6.981  0.6503E-42  0.2000E+02
  -6.971  0.3642E-42  0.2000E+02
  -6.961  0.2036E-42  0.2000E+02
  -6.951  0.1136E-42  0.2000E+02
  -6.941  0.6332E-43  0.2000E+02
  -6.931  0.3522E-43  0.2000E+02
  -6.921  0.1955E-43  0.2000E+02
  -6.911  0.1084E-43  0.2000E+02
  -6.901  0.5998E-44  0.2000E+02
  -6.891  0.3313E-44  0.2000E+02
  -6.881  0.1827E-44  0.2000E+02
  -6.871  0.1006E-44  0.2000E+02
  -6.861  0.5529E-45  0.2000E+02
  -6.851  0.3033E-45  0.2000E+02
  -6.841  0.1661E-45  0.2000E+02
  -6.831  0.9084E-46  0.2000E+02
  -6.821  0.4958E-46  0.2000E+02
  -6.811  0.2702E-46  0.2000E+02
  -6.801  0.1470E-46  0.2000E+02
  -6.791  0.7981E-47  0.2000E+02
  -6.781  0.4327E-47  0.2000E+02
  -6.771  0.2341E-47  0.2000E+02
  -6.761  0.1265E-47  0.2000E+02
  -6.751  0.6823E-48  0.2000E+02
  -6.741  0.3673E-48  0.2000E+02
  -6.731  0.1974E-48  0.2000E+02
  -6.721  0.1059E-48  0.2000E+02
  -6.711  0.5675E-49  0.2000E+02
  -6.701  0.3034E-49  0.2000E+02
  -6.691  0.1620E-49  0.2000E+02
  -6.681  0.8632E-50  0.2000E+02
  -6.671  0.4592E-50  0.2000E+02
  -6.661  0.2439E-50  0.2000E+02
  -6.651  0.1293E-50  0.2000E+02
  -6.641  0.6844E-51  0.2000E+02
  -6.631  0.3616E-51  0.2000E+02
  -6.621  0.1907E-51  0.2000E+02
  -6.611  0.1004E-51  0.2000E+02
  -6.601  0.5279E-52  0.2000E+02
  -6.591  0.2770E-52  0.2000E+02
  -6.581  0.1451E-52  0.2000E+02
  -6.571  0.7589E-53  0.2000E+02
  -6.561  0.3962E-53  0.2000E+02
  -6.551  0.2065E-53  0.2000E+02
  -6.541  0.1074E-53  0.2000E+02
  -6.531  0.5579E-54  0.2000E+02
  -6.521  0.2893E-54  0.2000E+02
  -6.511  0.1497E-54  0.2000E+02
  -6.501  0.7737E-55  0.2000E+02
  -6.491  0.3991E-55  0.2000E+02
  -6.481  0.2055E-55  0.2000E+02
  -6.471  0.1056E-55  0.2000E+02
  -6.461  0.5422E-56  0.2000E+02
  -6.451  0.2777E-56  0.2000E+02
  -6.441  0.1420E-56  0.2000E+02
  -6.431  0.7252E-57  0.2000E+02
  -6.421  0.3696E-57  0.2000E+02
  -6.411  0.1881E-57  0.2000E+02
  -6.401  0.9553E-58  0.2000E+02
  -6.391  0.4844E-58  0.2000E+02
  -6.381  0.2452E-58  0.2000E+02
  -6.371  0.1239E-58  0.2000E+02
  -6.361  0.6250E-59  0.2000E+02
  -6.351  0.3147E-59  0.2000E+02
  -6.341  0.1582E-59  0.2000E+02
  -6.331  0.7941E-60  0.2000E+02
  -6.321  0.3979E-60  0.2000E+02
  -6.311  0.1990E-60  0.2000E+02
  -6.301  0.9935E-61  0.2000E+02
  -6.291  0.4952E-61  0.2000E+02
  -6.281  0.2464E-61  0.2000E+02
  -6.271  0.1224E-61  0.2000E+02
  -6.261  0.6069E-62  0.2000E+02
  -6.251  0.3004E-62  0.2000E+02
  -6.241  0.1485E-62  0.2000E+02
  -6.231  0.7324E-63  0.2000E+02
  -6.221  0.3607E-63  0.2000E+02
  -6.211  0.1773E-63  0.2000E+02
  -6.201  0.8704E-64  0.2000E+02
  -6.191  0.4264E-64  0.2000E+02
  -6.181  0.2086E-64  0.2000E+02
  -6.171  0.1018E-64  0.2000E+02
  -6.161  0.4964E-65  0.2000E+02
  -6.151  0.2416E-65  0.2000E+02
  -6.141  0.1173E-65  0.2000E+02
  -6.131  0.5690E-66  0.2000E+02
  -6.121  0.2755E-66  0.2000E+02
  -6.111  0.1331E-66  0.2000E+02
  -6.101  0.6422E-67  0.2000E+02
  -6.091  0.3093E-67  0.2000E+02
  -6.081  0.1487E-67  0.2000E+02
  -6.071  0.7137E-68  0.2000E+02
  -6.061  0.3420E-68  0.2000E+02
  -6.051  0.1636E-68  0.2000E+02
  -6.041  0.7810E-69  0.2000E+02
  -6.031  0.3723E-69  0.2000E+02
  -6.021  0.1772E-69  0.2000E+02
  -6.011  0.8416E-70  0.2000E+02
  -6.001  0.3991E-70  0.2000E+02
  -5.991  0.1889E-70  0.2000E+02
  -5.981  0.8929E-71  0.2000E+02
  -5.971  0.4212E-71  0.2000E+02
  -5.961  0.1984E-71  0.2000E+02
  -5.951  0.9328E-72  0.2000E+02
  -5.941  0.4378E-72  0.2000E+02
  -5.931  0.2051E-72  0.2000E+02
  -5.921  0.9595E-73  0.2000E+02
  -5.911  0.4480E-73  0.2000E+02
  -5.901  0.2089E-73  0.2000E+02
  -5.891  0.9719E-74  0.2000E+02
  -5.881  0.4515E-74  0.2000E+02
  -5.871  0.2094E-74  0.2000E+02
  -5.861  0.9693E-75  0.2000E+02
  -5.851  0.4480E-75  0.2000E+02
  -5.841  0.2067E-75  0.2000E+02
  -5.831  0.9519E-76  0.2000E+02
  -5.821  0.4377E-76  0.2000E+02
  -5.811  0.2009E-76  0.2000E+02
  -5.801  0.9205E-77  0.2000E+02
  -5.791  0.4210E-77  0.2000E+02
  -5.781  0.1923E-77  0.2000E+02
  -5.771  0.8764E-78  0.2000E+02
  -5.761  0.3988E-78  0.2000E+02
  -5.751  0.1812E-78  0.2000E+02
  -5.741  0.8216E-79  0.2000E+02
  -5.731  0.3720E-79  0.2000E+02
  -5.721  0.1681E-79  0.2000E+02
  -5.711  0.7585E-80  0.2000E+02
  -5.701  0.3416E-80  0.2000E+02
  -5.691  0.1536E-80  0.2000E+02
  -5.681  0.6895E-81  0.2000E+02
  -5.671  0.3090E-81  0.2000E+02
  -5.661  0.1383E-81  0.2000E+02
  -5.651  0.6180E-82  0.2000E+02
  -5.641  0.2760E-82  0.2000E+02
  -5.631  0.1234E-82  0.2000E+02
  -5.621  0.5541E-83  0.2000E+02
  -5.611  0.2516E-83  0.2000E+02
  -5.601  0.1173E-83  0.2000E+02
  -5.591  0.5783E-84  0.2000E+02
  -5.581  0.3153E-84  0.2000E+02
  -5.571  0.1993E-84  0.2000E+02
  -5.561  0.1484E-84  0.2000E+02
  -5.551  0.1263E-84  0.2000E+02
  -5.541  0.1167E-84  0.2000E+02
  -5.531  0.1127E-84  0.2000E+02
  -5.521  0.1110E-84  0.2000E+02
  -5.511  0.1104E-84  0.2000E+02
  -5.501  0.1102E-84  0.2000E+02
  -5.491  0.1102E-84  0.2000E+02
  -5.481  0.1102E-84  0.2000E+02
  -5.471  0.1102E-84  0.2000E+02
  -5.461  0.1102E-84  0.2000E+02
  -5.451  0.1102E-84  0.2000E+02
  -5.441  0.1102E-84  0.2000E+02
  -5.431  0.1102E-84  0.2000E+02
  -5.421  0.1102E-84  0.2000E+02
  -5.411  0.1102E-84  0.2000E+02
  -5.401  0.1102E-84  0.2000E+02
  -5.391  0.1102E-84  0.2000E+02
  -5.381  0.1102E-84  0.2000E+02
  -5.371  0.1102E-84  0.2000E+02
  -5.361  0.1102E-84  0.2000E+02
  -5.351  0.1102E-84  0.2000E+02
  -5.341  0.1102E-84  0.2000E+02
  -5.331  0.1102E-84  0.2000E+02
  -5.321  0.1102E-84  0.2000E+02
  -5.311  0.1102E-84  0.2000E+02
  -5.301  0.1102E-84  0.2000E+02
  -5.291  0.1102E-84  0.2000E+02
  -5.281  0.1102E-84  0.2000E+02
  -5.271  0.1102E-84  0.2000E+02
  -5.261  0.1102E-84  0.2000E+02
  -5.251  0.1102E-84  0.2000E+02
  -5.241  0.1102E-84  0.2000E+02
  -5.231  0.1102E-84  0.2000E+02
  -5.221  0.1102E-84  0.2000E+02
  -5.211  0.1102E-84  0.2000E+02
  -5.201  0.1102E-84  0.2000E+02
  -5.191  0.1102E-84  0.2000E+02
  -5.181  0.1102E-84  0.2000E+02
  -5.171  0.1102E-84  0.2000E+02
  -5.161  0.1102E-84  0.2000E+02
  -5.151  0.1102E-84  0.2000E+02
  -5.141  0.1102E-84  0.2000E+02
  -5.131  0.1102E-84  0.2000E+02
  -5.121  0.1102E-84  0.2000E+02
  -5.111  0.1103E-84  0.2000E+02
  -5.101  0.1104E-84  0.2000E+02
  -5.091  0.1108E-84  0.2000E+02
  -5.081  0.1116E-84  0.2000E+02
  -5.071  0.1134E-84  0.2000E+02
  -5.061  0.1175E-84  0.2000E+02
  -5.051  0.1268E-84  0.2000E+02
  -5.041  0.1476E-84  0.2000E+02
  -5.031  0.1943E-84  0.2000E+02
  -5.021  0.2992E-84  0.2000E+02
  -5.011  0.5339E-84  0.2000E+02
  -5.001  0.1058E-83  0.2000E+02
  -4.991  0.2228E-83  0.2000E+02
  -4.981  0.4834E-83  0.2000E+02
  -4.971  0.1063E-82  0.2000E+02
  -4.961  0.2348E-82  0.2000E+02
  -4.951  0.5196E-82  0.2000E+02
  -4.941  0.1149E-81  0.2000E+02
  -4.931  0.2540E-81  0.2000E+02
  -4.921  0.5604E-81  0.2000E+02
  -4.911  0.1235E-80  0.2000E+02
  -4.901  0.2715E-80  0.2000E+02
  -4.891  0.5962E-80  0.2000E+02
  -4.881  0.1307E-79  0.2000E+02
  -4.871  0.2860E-79  0.2000E+02
  -4.861  0.6247E-79  0.2000E+02
  -4.851  0.1362E-78  0.2000E+02
  -4.841  0.2965E-78  0.2000E+02
  -4.831  0.6444E-78  0.2000E+02
  -4.821  0.1398E-77  0.2000E+02
  -4.811  0.3027E-77  0.2000E+02
  -4.801  0.6545E-77  0.2000E+02
  -4.791  0.1413E-76  0.2000E+02
  -4.781  0.3043E-76  0.2000E+02
  -4.771  0.6545E-76  0.2000E+02
  -4.761  0.1405E-75  0.2000E+02
  -4.751  0.3012E-75  0.2000E+02
  -4.741  0.6445E-75  0.2000E+02
  -4.731  0.1377E-74  0.2000E+02
  -4.721  0.2936E-74  0.2000E+02
  -4.711  0.6249E-74  0.2000E+02
  -4.701  0.1328E-73  0.2000E+02
  -4.691  0.2817E-73  0.2000E+02
  -4.681  0.5965E-73  0.2000E+02
  -4.671  0.1261E-72  0.2000E+02
  -4.661  0.2661E-72  0.2000E+02
  -4.651  0.5607E-72  0.2000E+02
  -4.641  0.1179E-71  0.2000E+02
  -4.631  0.2476E-71  0.2000E+02
  -4.621  0.5189E-71  0.2000E+02
  -4.611  0.1086E-70  0.2000E+02
  -4.601  0.2268E-70  0.2000E+02
  -4.591  0.4728E-70  0.2000E+02
  -4.581  0.9842E-70  0.2000E+02
  -4.571  0.2045E-69  0.2000E+02
  -4.561  0.4242E-69  0.2000E+02
  -4.551  0.8785E-69  0.2000E+02
  -4.541  0.1816E-68  0.2000E+02
  -4.531  0.3748E-68  0.2000E+02
  -4.521  0.7721E-68  0.2000E+02
  -4.511  0.1588E-67  0.2000E+02
  -4.501  0.3260E-67  0.2000E+02
  -4.491  0.6681E-67  0.2000E+02
  -4.481  0.1367E-66  0.2000E+02
  -4.471  0.2792E-66  0.2000E+02
  -4.461  0.5693E-66  0.2000E+02
  -4.451  0.1159E-65  0.2000E+02
  -4.441  0.2354E-65  0.2000E+02
  -4.431  0.4776E-65  0.2000E+02
  -4.421  0.9671E-65  0.2000E+02
  -4.411  0.1955E-64  0.2000E+02
  -4.401  0.3945E-64  0.2000E+02
  -4.391  0.7947E-64  0.2000E+02
  -4.381  0.1598E-63  0.2000E+02
  -4.371  0.3209E-63  0.2000E+02
  -4.361  0.6431E-63  0.2000E+02
  -4.351  0.1287E-62  0.2000E+02
  -4.341  0.2570E-62  0.2000E+02
  -4.331  0.5124E-62  0.2000E+02
  -4.321  0.1020E-61  0.2000E+02
  -4.311  0.2026E-61  0.2000E+02
  -4.301  0.4020E-61  0.2000E+02
  -4.291  0.7959E-61  0.2000E+02
  -4.281  0.1573E-60  0.2000E+02
  -4.271  0.3105E-60  0.2000E+02
  -4.261  0.6117E-60  0.2000E+02
  -4.251  0.1203E-59  0.2000E+02
  -4.241  0.2362E-59  0.2000E+02
  -4.231  0.4628E-59  0.2000E+02
  -4.221  0.9055E-59  0.2000E+02
  -4.211  0.1769E-58  0.2000E+02
  -4.201  0.3448E-58  0.2000E+02
  -4.191  0.6712E-58  0.2000E+02
  -4.181  0.1304E-57  0.2000E+02
  -4.171  0.2530E-57  0.2000E+02
  -4.161  0.4899E-57  0.2000E+02
  -4.151  0.9469E-57  0.2000E+02
  -4.141  0.1827E-56  0.2000E+02
  -4.131  0.3520E-56  0.2000E+02
  -4.121  0.6770E-56  0.2000E+02
  -4.111  0.1300E-55  0.2000E+02
  -4.101  0.2491E-55  0.2000E+02
  -4.091  0.4766E-55  0.2000E+02
  -4.081  0.9103E-55  0.2000E+02
  -4.071  0.1736E-54  0.2000E+02
  -4.061  0.3304E-54  0.2000E+02
  -4.051  0.6277E-54  0.2000E+02
  -4.041  0.1191E-53  0.2000E+02
  -4.031  0.2255E-53  0.2000E+02
  -4.021  0.4262E-53  0.2000E+02
  -4.011  0.8044E-53  0.2000E+02
  -4.001  0.1515E-52  0.2000E+02
  -3.991  0.2850E-52  0.2000E+02
  -3.981  0.5350E-52  0.2000E+02
  -3.971  0.1003E-51  0.2000E+02
  -3.961  0.1876E-51  0.2000E+02
  -3.951  0.3504E-51  0.2000E+02
  -3.941  0.6534E-51  0.2000E+02
  -3.931  0.1216E-50  0.2000E+02
  -3.921  0.2260E-50  0.2000E+02
  -3.911  0.4192E-50  0.2000E+02
  -3.901  0.7763E-50  0.2000E+02
  -3.891  0.1435E-49  0.2000E+02
  -3.881  0.2649E-49  0.2000E+02
  -3.871  0.4880E-49  0.2000E+02
  -3.861  0.8974E-49  0.2000E+02
  -3.851  0.1648E-48  0.2000E+02
  -3.841  0.3020E-48  0.2000E+02
  -3.831  0.5526E-48  0.2000E+02
  -3.821  0.1009E-47  0.2000E+02
  -3.811  0.1840E-47  0.2000E+02
  -3.801  0.3350E-47  0.2000E+02
  -3.791  0.6088E-47  0.2000E+02
  -3.781  0.1104E-46  0.2000E+02
  -3.771  0.2000E-46  0.2000E+02
  -3.761  0.3616E-46  0.2000E+02
  -3.751  0.6526E-46  0.2000E+02
  -3.741  0.1176E-45  0.2000E+02
  -3.731  0.2115E-45  0.2000E+02
  -3.721  0.3797E-45  0.2000E+02
  -3.711  0.6806E-45  0.2000E+02
  -3.701  0.1218E-44  0.2000E+02
  -3.691  0.2176E-44  0.2000E+02
  -3.681  0.3880E-44  0.2000E+02
  -3.671  0.6906E-44  0.2000E+02
  -3.661  0.1227E-43  0.2000E+02
  -3.651  0.2177E-43  0.2000E+02
  -3.641  0.3857E-43  0.2000E+02
  -3.631  0.6819E-43  0.2000E+02
  -3.621  0.1203E-42  0.2000E+02
  -3.611  0.2121E-42  0.2000E+02
  -3.601  0.3730E-42  0.2000E+02
  -3.591  0.6550E-42  0.2000E+02
  -3.581  0.1148E-41  0.2000E+02
  -3.571  0.2009E-41  0.2000E+02
  -3.561  0.3510E-41  0.2000E+02
  -3.551  0.6122E-41  0.2000E+02
  -3.541  0.1066E-40  0.2000E+02
  -3.531  0.1852E-40  0.2000E+02
  -3.521  0.3214E-40  0.2000E+02
  -3.511  0.5567E-40  0.2000E+02
  -3.501  0.9626E-40  0.2000E+02
  -3.491  0.1662E-39  0.2000E+02
  -3.481  0.2863E-39  0.2000E+02
  -3.471  0.4926E-39  0.2000E+02
  -3.461  0.8459E-39  0.2000E+02
  -3.451  0.1450E-38  0.2000E+02
  -3.441  0.2482E-38  0.2000E+02
  -3.431  0.4241E-38  0.2000E+02
  -3.421  0.7233E-38  0.2000E+02
  -3.411  0.1232E-37  0.2000E+02
  -3.401  0.2094E-37  0.2000E+02
  -3.391  0.3553E-37  0.2000E+02
  -3.381  0.6018E-37  0.2000E+02
  -3.371  0.1018E-36  0.2000E+02
  -3.361  0.1718E-36  0.2000E+02
  -3.351  0.2896E-36  0.2000E+02
  -3.341  0.4872E-36  0.2000E+02
  -3.331  0.8183E-36  0.2000E+02
  -3.321  0.1372E-35  0.2000E+02
  -3.311  0.2297E-35  0.2000E+02
  -3.301  0.3838E-35  0.2000E+02
  -3.291  0.6403E-35  0.2000E+02
  -3.281  0.1066E-34  0.2000E+02
  -3.271  0.1773E-34  0.2000E+02
  -3.261  0.2942E-34  0.2000E+02
  -3.251  0.4874E-34  0.2000E+02
  -3.241  0.8062E-34  0.2000E+02
  -3.231  0.1331E-33  0.2000E+02
  -3.221  0.2194E-33  0.2000E+02
  -3.211  0.3611E-33  0.2000E+02
  -3.201  0.5932E-33  0.2000E+02
  -3.191  0.9728E-33  0.2000E+02
  -3.181  0.1593E-32  0.2000E+02
  -3.171  0.2603E-32  0.2000E+02
  -3.161  0.4247E-32  0.2000E+02
  -3.151  0.6918E-32  0.2000E+02
  -3.141  0.1125E-31  0.2000E+02
  -3.131  0.1826E-31  0.2000E+02
  -3.121  0.2959E-31  0.2000E+02
  -3.111  0.4787E-31  0.2000E+02
  -3.101  0.7731E-31  0.2000E+02
  -3.091  0.1246E-30  0.2000E+02
  -3.081  0.2006E-30  0.2000E+02
  -3.071  0.3223E-30  0.2000E+02
  -3.061  0.5170E-30  0.2000E+02
  -3.051  0.8279E-30  0.2000E+02
  -3.041  0.1323E-29  0.2000E+02
  -3.031  0.2112E-29  0.2000E+02
  -3.021  0.3365E-29  0.2000E+02
  -3.011  0.5352E-29  0.2000E+02
  -3.001  0.8497E-29  0.2000E+02
  -2.991  0.1347E-28  0.2000E+02
  -2.981  0.2131E-28  0.2000E+02
  -2.971  0.3367E-28  0.2000E+02
  -2.961  0.5309E-28  0.2000E+02
  -2.951  0.8358E-28  0.2000E+02
  -2.941  0.1314E-27  0.2000E+02
  -2.931  0.2061E-27  0.2000E+02
  -2.921  0.3228E-27  0.2000E+02
  -2.911  0.5047E-27  0.2000E+02
  -2.901  0.7879E-27  0.2000E+02
  -2.891  0.1228E-26  0.2000E+02
  -2.881  0.1910E-26  0.2000E+02
  -2.871  0.2966E-26  0.2000E+02
  -2.861  0.4599E-26  0.2000E+02
  -2.851  0.7119E-26  0.2000E+02
  -2.841  0.1100E-25  0.2000E+02
  -2.831  0.1697E-25  0.2000E+02
  -2.821  0.2613E-25  0.2000E+02
  -2.811  0.4017E-25  0.2000E+02
  -2.801  0.6165E-25  0.2000E+02
  -2.791  0.9445E-25  0.2000E+02
  -2.781  0.1445E-24  0.2000E+02
  -2.771  0.2206E-24  0.2000E+02
  -2.761  0.3363E-24  0.2000E+02
  -2.751  0.5117E-24  0.2000E+02
  -2.741  0.7774E-24  0.2000E+02
  -2.731  0.1179E-23  0.2000E+02
  -2.721  0.1785E-23  0.2000E+02
  -2.711  0.2698E-23  0.2000E+02
  -2.701  0.4071E-23  0.2000E+02
  -2.691  0.6133E-23  0.2000E+02
  -2.681  0.9223E-23  0.2000E+02
  -2.671  0.1385E-22  0.2000E+02
  -2.661  0.2075E-22  0.2000E+02
  -2.651  0.3105E-22  0.2000E+02
  -2.641  0.4638E-22  0.2000E+02
  -2.631  0.6916E-22  0.2000E+02
  -2.621  0.1030E-21  0.2000E+02
  -2.611  0.1530E-21  0.2000E+02
  -2.601  0.2270E-21  0.2000E+02
  -2.591  0.3362E-21  0.2000E+02
  -2.581  0.4971E-21  0.2000E+02
  -2.571  0.7339E-21  0.2000E+02
  -2.561  0.1081E-20  0.2000E+02
  -2.551  0.1591E-20  0.2000E+02
  -2.541  0.2337E-20  0.2000E+02
  -2.531  0.3426E-20  0.2000E+02
  -2.521  0.5015E-20  0.2000E+02
  -2.511  0.7328E-20  0.2000E+02
  -2.501  0.1069E-19  0.2000E+02
  -2.491  0.1557E-19  0.2000E+02
  -2.481  0.2263E-19  0.2000E+02
  -2.471  0.3285E-19  0.2000E+02
  -2.461  0.4760E-19  0.2000E+02
  -2.451  0.6886E-19  0.2000E+02
  -2.441  0.9944E-19  0.2000E+02
  -2.431  0.1434E-18  0.2000E+02
  -2.421  0.2063E-18  0.2000E+02
  -2.411  0.2965E-18  0.2000E+02
  -2.401  0.4253E-18  0.2000E+02
  -2.391  0.6090E-18  0.2000E+02
  -2.381  0.8707E-18  0.2000E+02
  -2.371  0.1243E-17  0.2000E+02
  -2.361  0.1770E-17  0.2000E+02
  -2.351  0.2518E-17  0.2000E+02
  -2.341  0.3576E-17  0.2000E+02
  -2.331  0.5070E-17  0.2000E+02
  -2.321  0.7175E-17  0.2000E+02
  -2.311  0.1014E-16  0.2000E+02
  -2.301  0.1430E-16  0.2000E+02
  -2.291  0.2014E-16  0.2000E+02
  -2.281  0.2831E-16  0.2000E+02
  -2.271  0.3973E-16  0.2000E+02
  -2.261  0.5566E-16  0.2000E+02
  -2.251  0.7786E-16  0.2000E+02
  -2.241  0.1087E-15  0.2000E+02
  -2.231  0.1516E-15  0.2000E+02
  -2.221  0.2109E-15  0.2000E+02
  -2.211  0.2931E-15  0.2000E+02
  -2.201  0.4065E-15  0.2000E+02
  -2.191  0.5629E-15  0.2000E+02
  -2.181  0.7782E-15  0.2000E+02
  -2.171  0.1074E-14  0.2000E+02
  -2.161  0.1480E-14  0.2000E+02
  -2.151  0.2035E-14  0.2000E+02
  -2.141  0.2795E-14  0.2000E+02
  -2.131  0.3832E-14  0.2000E+02
  -2.121  0.5244E-14  0.2000E+02
  -2.111  0.7165E-14  0.2000E+02
  -2.101  0.9774E-14  0.2000E+02
  -2.091  0.1331E-13  0.2000E+02
  -2.081  0.1810E-13  0.2000E+02
  -2.071  0.2456E-13  0.2000E+02
  -2.061  0.3328E-13  0.2000E+02
  -2.051  0.4502E-13  0.2000E+02
  -2.041  0.6079E-13  0.2000E+02
  -2.031  0.8196E-13  0.2000E+02
  -2.021  0.1103E-12  0.2000E+02
  -2.011  0.1482E-12  0.2000E+02
  -2.001  0.1989E-12  0.2000E+02
  -1.991  0.2663E-12  0.2000E+02
  -1.981  0.3561E-12  0.2000E+02
  -1.971  0.4753E-12  0.2000E+02
  -1.961  0.6334E-12  0.2000E+02
  -1.951  0.8427E-12  0.2000E+02
  -1.941  0.1119E-11  0.2000E+02
  -1.931  0.1484E-11  0.2000E+02
  -1.921  0.1965E-11  0.2000E+02
  -1.911  0.2596E-11  0.2000E+02
  -1.901  0.3426E-11  0.2000E+02
  -1.891  0.4512E-11  0.2000E+02
  -1.881  0.5934E-11  0.2000E+02
  -1.871  0.7790E-11  0.2000E+02
  -1.861  0.1021E-10  0.2000E+02
  -1.851  0.1336E-10  0.2000E+02
  -1.841  0.1745E-10  0.2000E+02
  -1.831  0.2276E-10  0.2000E+02
  -1.821  0.2964E-10  0.2000E+02
  -1.811  0.3852E-10  0.2000E+02
  -1.801  0.4999E-10  0.2000E+02
  -1.791  0.6476E-10  0.2000E+02
  -1.781  0.8377E-10  0.2000E+02
  -1.771  0.1082E-09  0.2000E+02
  -1.761  0.1394E-09  0.2000E+02
  -1.751  0.1795E-09  0.2000E+02
  -1.741  0.2306E-09  0.2000E+02
  -1.731  0.2958E-09  0.2000E+02
  -1.721  0.3789E-09  0.2000E+02
  -1.711  0.4844E-09  0.2000E+02
  -1.701  0.6183E-09  0.2000E+02
  -1.691  0.7880E-09  0.2000E+02
  -1.681  0.1002E-08  0.2000E+02
  -1.671  0.1273E-08  0.2000E+02
  -1.661  0.1615E-08  0.2000E+02
  -1.651  0.2044E-08  0.2000E+02
  -1.641  0.2584E-08  0.2000E+02
  -1.631  0.3260E-08  0.2000E+02
  -1.621  0.4108E-08  0.2000E+02
  -1.611  0.5166E-08  0.2000E+02
  -1.601  0.6487E-08  0.2000E+02
  -1.591  0.8132E-08  0.2000E+02
  -1.581  0.1018E-07  0.2000E+02
  -1.571  0.1272E-07  0.2000E+02
  -1.561  0.1587E-07  0.2000E+02
  -1.551  0.1976E-07  0.2000E+02
  -1.541  0.2457E-07  0.2000E+02
  -1.531  0.3050E-07  0.2000E+02
  -1.521  0.3780E-07  0.2000E+02
  -1.511  0.4677E-07  0.2000E+02
  -1.501  0.5778E-07  0.2000E+02
  -1.491  0.7126E-07  0.2000E+02
  -1.481  0.8775E-07  0.2000E+02
  -1.471  0.1079E-06  0.2000E+02
  -1.461  0.1324E-06  0.2000E+02
  -1.451  0.1622E-06  0.2000E+02
  -1.441  0.1984E-06  0.2000E+02
  -1.431  0.2424E-06  0.2000E+02
  -1.421  0.2956E-06  0.2000E+02
  -1.411  0.3598E-06  0.2000E+02
  -1.401  0.4373E-06  0.2000E+02
  -1.391  0.5307E-06  0.2000E+02
  -1.381  0.6429E-06  0.2000E+02
  -1.371  0.7777E-06  0.2000E+02
  -1.361  0.9392E-06  0.2000E+02
  -1.351  0.1132E-05  0.2000E+02
  -1.341  0.1363E-05  0.2000E+02
  -1.331  0.1638E-05  0.2000E+02
  -1.321  0.1965E-05  0.2000E+02
  -1.311  0.2355E-05  0.2000E+02
  -1.301  0.2816E-05  0.2000E+02
  -1.291  0.3363E-05  0.2000E+02
  -1.281  0.4009E-05  0.2000E+02
  -1.271  0.4772E-05  0.2000E+02
  -1.261  0.5671E-05  0.2000E+02
  -1.251  0.6729E-05  0.2000E+02
  -1.241  0.7971E-05  0.2000E+02
  -1.231  0.9428E-05  0.2000E+02
  -1.221  0.1113E-04  0.2000E+02
  -1.211  0.1313E-04  0.2000E+02
  -1.201  0.1545E-04  0.2000E+02
  -1.191  0.1816E-04  0.2000E+02
  -1.181  0.2131E-04  0.2000E+02
  -1.171  0.2496E-04  0.2000E+02
  -1.161  0.2920E-04  0.2000E+02
  -1.151  0.3410E-04  0.2000E+02
  -1.141  0.3976E-04  0.2000E+02
  -1.131  0.4629E-04  0.2000E+02
  -1.121  0.5380E-04  0.2000E+02
  -1.111  0.6244E-04  0.2000E+02
  -1.101  0.7235E-04  0.2000E+02
  -1.091  0.8370E-04  0.2000E+02
  -1.081  0.9668E-04  0.2000E+02
  -1.071  0.1115E-03  0.2000E+02
  -1.061  0.1284E-03  0.2000E+02
  -1.051  0.1476E-03  0.2000E+02
  -1.041  0.1695E-03  0.2000E+02
  -1.031  0.1942E-03  0.2000E+02
  -1.021  0.2223E-03  0.2000E+02
  -1.011  0.2540E-03  0.2000E+02
  -1.001  0.2898E-03  0.2000E+02
  -0.991  0.3301E-03  0.2000E+02
  -0.981  0.3754E-03  0.2000E+02
  -0.971  0.4263E-03  0.2000E+02
  -0.961  0.4834E-03  0.2000E+02
  -0.951  0.5473E-03  0.2000E+02
  -0.941  0.6187E-03  0.2000E+02
  -0.931  0.6984E-03  0.2000E+02
  -0.921  0.7871E-03  0.2000E+02
  -0.911  0.8858E-03  0.2000E+02
  -0.901  0.9954E-03  0.2000E+02
  -0.891  0.1117E-02  0.2000E+02
  -0.881  0.1251E-02  0.2000E+02
  -0.871  0.1400E-02  0.2000E+02
  -0.861  0.1563E-02  0.2000E+02
  -0.851  0.1743E-02  0.2000E+02
  -0.841  0.1942E-02  0.2000E+02
  -0.831  0.2159E-02  0.2000E+02
  -0.821  0.2397E-02  0.2000E+02
  -0.811  0.2658E-02  0.2000E+02
  -0.801  0.2943E-02  0.2000E+02
  -0.791  0.3254E-02  0.2000E+02
  -0.781  0.3592E-02  0.2000E+02
  -0.771  0.3959E-02  0.2000E+02
  -0.761  0.4358E-02  0.2000E+02
  -0.751  0.4791E-02  0.2000E+02
  -0.741  0.5258E-02  0.2000E+02
  -0.731  0.5763E-02  0.2000E+02
  -0.721  0.6308E-02  0.2000E+02
  -0.711  0.6894E-02  0.2000E+02
  -0.701  0.7525E-02  0.2000E+02
  -0.691  0.8201E-02  0.2000E+02
  -0.681  0.8926E-02  0.2000E+02
  -0.671  0.9702E-02  0.2000E+02
  -0.661  0.1053E-01  0.2000E+02
  -0.651  0.1141E-01  0.2000E+02
  -0.641  0.1236E-01  0.2000E+02
  -0.631  0.1336E-01  0.2000E+02
  -0.621  0.1442E-01  0.2000E+02
  -0.611  0.1554E-01  0.2000E+02
  -0.601  0.1674E-01  0.2000E+02
  -0.591  0.1800E-01  0.2000E+02
  -0.581  0.1932E-01  0.2000E+02
  -0.571  0.2072E-01  0.2000E+02
  -0.561  0.2220E-01  0.2000E+02
  -0.551  0.2374E-01  0.2000E+02
  -0.541  0.2537E-01  0.2000E+02
  -0.531  0.2707E-01  0.2000E+02
  -0.521  0.2885E-01  0.2000E+02
  -0.511  0.3070E-01  0.2000E+02
  -0.501  0.3264E-01  0.2000E+02
  -0.491  0.3465E-01  0.2000E+02
  -0.481  0.3675E-01  0.2001E+02
  -0.471  0.3893E-01  0.2001E+02
  -0.461  0.4118E-01  0.2001E+02
  -0.451  0.4352E-01  0.2001E+02
  -0.441  0.4593E-01  0.2001E+02
  -0.431  0.4843E-01  0.2001E+02
  -0.421  0.5100E-01  0.2001E+02
  -0.411  0.5365E-01  0.2001E+02
  -0.401  0.5637E-01  0.2001E+02
  -0.391  0.5917E-01  0.2001E+02
  -0.381  0.6204E-01  0.2001E+02
  -0.371  0.6498E-01  0.2001E+02
  -0.361  0.6799E-01  0.2001E+02
  -0.351  0.7106E-01  0.2001E+02
  -0.341  0.7420E-01  0.2001E+02
  -0.331  0.7739E-01  0.2001E+02
  -0.321  0.8065E-01  0.2001E+02
  -0.311  0.8395E-01  0.2002E+02
  -0.301  0.8731E-01  0.2002E+02
  -0.291  0.9072E-01  0.2002E+02
  -0.281  0.9417E-01  0.2002E+02
  -0.271  0.9767E-01  0.2002E+02
  -0.261  0.1012E+00  0.2002E+02
  -0.251  0.1048E+00  0.2002E+02
  -0.241  0.1084E+00  0.2002E+02
  -0.231  0.1120E+00  0.2002E+02
  -0.221  0.1156E+00  0.2002E+02
  -0.211  0.1193E+00  0.2003E+02
  -0.201  0.1230E+00  0.2003E+02
  -0.191  0.1267E+00  0.2003E+02
  -0.181  0.1304E+00  0.2003E+02
  -0.171  0.1341E+00  0.2003E+02
  -0.161  0.1378E+00  0.2003E+02
  -0.151  0.1415E+00  0.2003E+02
  -0.141  0.1452E+00  0.2004E+02
  -0.131  0.1489E+00  0.2004E+02
  -0.121  0.1526E+00  0.2004E+02
  -0.111  0.1563E+00  0.2004E+02
  -0.101  0.1600E+00  0.2004E+02
  -0.091  0.1636E+00  0.2004E+02
  -0.081  0.1672E+00  0.2004E+02
  -0.071  0.1708E+00  0.2005E+02
  -0.061  0.1744E+00  0.2005E+02
  -0.051  0.1779E+00  0.2005E+02
  -0.041  0.1814E+00  0.2005E+02
  -0.031  0.1849E+00  0.2005E+02
  -0.021  0.1884E+00  0.2006E+02
  -0.011  0.1918E+00  0.2006E+02
  -0.001  0.1951E+00  0.2006E+02
   0.009  0.1985E+00  0.2006E+02
   0.019  0.2018E+00  0.2006E+02
   0.029  0.2050E+00  0.2007E+02
   0.039  0.2082E+00  0.2007E+02
   0.049  0.2114E+00  0.2007E+02
   0.059  0.2146E+00  0.2007E+02
   0.069  0.2177E+00  0.2007E+02
   0.079  0.2207E+00  0.2008E+02
   0.089  0.2238E+00  0.2008E+02
   0.099  0.2267E+00  0.2008E+02
   0.109  0.2297E+00  0.2008E+02
   0.119  0.2326E+00  0.2009E+02
   0.129  0.2355E+00  0.2009E+02
   0.139  0.2384E+00  0.2009E+02
   0.149  0.2412E+00  0.2009E+02
   0.159  0.2439E+00  0.2009E+02
   0.169  0.2467E+00  0.2010E+02
   0.179  0.2494E+00  0.2010E+02
   0.189  0.2521E+00  0.2010E+02
   0.199  0.2548E+00  0.2010E+02
   0.209  0.2574E+00  0.2011E+02
   0.219  0.2601E+00  0.2011E+02
   0.229  0.2627E+00  0.2011E+02
   0.239  0.2652E+00  0.2012E+02
   0.249  0.2678E+00  0.2012E+02
   0.259  0.2703E+00  0.2012E+02
   0.269  0.2728E+00  0.2012E+02
   0.279  0.2753E+00  0.2013E+02
   0.289  0.2778E+00  0.2013E+02
   0.299  0.2803E+00  0.2013E+02
   0.309  0.2827E+00  0.2013E+02
   0.319  0.2852E+00  0.2014E+02
   0.329  0.2876E+00  0.2014E+02
   0.339  0.2900E+00  0.2014E+02
   0.349  0.2924E+00  0.2015E+02
   0.359  0.2947E+00  0.2015E+02
   0.369  0.2971E+00  0.2015E+02
   0.379  0.2994E+00  0.2015E+02
   0.389  0.3017E+00  0.2016E+02
   0.399  0.3040E+00  0.2016E+02
   0.409  0.3063E+00  0.2016E+02
   0.419  0.3086E+00  0.2017E+02
   0.429  0.3108E+00  0.2017E+02
   0.439  0.3130E+00  0.2017E+02
   0.449  0.3152E+00  0.2018E+02
   0.459  0.3174E+00  0.2018E+02
   0.469  0.3196E+00  0.2018E+02
   0.479  0.3217E+00  0.2019E+02
   0.489  0.3238E+00  0.2019E+02
   0.499  0.3259E+00  0.2019E+02
   0.509  0.3280E+00  0.2020E+02
   0.519  0.3300E+00  0.2020E+02
   0.529  0.3320E+00  0.2020E+02
   0.539  0.3340E+00  0.2021E+02
   0.549  0.3360E+00  0.2021E+02
   0.559  0.3380E+00  0.2021E+02
   0.569  0.3399E+00  0.2022E+02
   0.579  0.3418E+00  0.2022E+02
   0.589  0.3437E+00  0.2022E+02
   0.599  0.3456E+00  0.2023E+02
   0.609  0.3475E+00  0.2023E+02
   0.619  0.3493E+00  0.2023E+02
   0.629  0.3511E+00  0.2024E+02
   0.639  0.3529E+00  0.2024E+02
   0.649  0.3547E+00  0.2024E+02
   0.659  0.3565E+00  0.2025E+02
   0.669  0.3582E+00  0.2025E+02
   0.679  0.3600E+00  0.2025E+02
   0.689  0.3617E+00  0.2026E+02
   0.699  0.3634E+00  0.2026E+02
   0.709  0.3651E+00  0.2027E+02
   0.719  0.3668E+00  0.2027E+02
   0.729  0.3685E+00  0.2027E+02
   0.739  0.3702E+00  0.2028E+02
   0.749  0.3719E+00  0.2028E+02
   0.759  0.3736E+00  0.2028E+02
   0.769  0.3752E+00  0.2029E+02
   0.779  0.3769E+00  0.2029E+02
   0.789  0.3786E+00  0.2030E+02
   0.799  0.3802E+00  0.2030E+02
   0.809  0.3819E+00  0.2030E+02
   0.819  0.3835E+00  0.2031E+02
   0.829  0.3852E+00  0.2031E+02
   0.839  0.3868E+00  0.2031E+02
   0.849  0.3884E+00  0.2032E+02
   0.859  0.3901E+00  0.2032E+02
   0.869  0.3917E+00  0.2033E+02
   0.879  0.3934E+00  0.2033E+02
   0.889  0.3950E+00  0.2033E+02
   0.899  0.3967E+00  0.2034E+02
   0.909  0.3983E+00  0.2034E+02
   0.919  0.4000E+00  0.2035E+02
   0.929  0.4016E+00  0.2035E+02
   0.939  0.4033E+00  0.2035E+02
   0.949  0.4049E+00  0.2036E+02
   0.959  0.4066E+00  0.2036E+02
   0.969  0.4083E+00  0.2037E+02
   0.979  0.4100E+00  0.2037E+02
   0.989  0.4117E+00  0.2037E+02
   0.999  0.4134E+00  0.2038E+02
   1.009  0.4151E+00  0.2038E+02
   1.019  0.4168E+00  0.2039E+02
   1.029  0.4186E+00  0.2039E+02
   1.039  0.4203E+00  0.2040E+02
   1.049  0.4221E+00  0.2040E+02
   1.059  0.4238E+00  0.2040E+02
   1.069  0.4256E+00  0.2041E+02
   1.079  0.4274E+00  0.2041E+02
   1.089  0.4293E+00  0.2042E+02
   1.099  0.4311E+00  0.2042E+02
   1.109  0.4329E+00  0.2043E+02
   1.119  0.4348E+00  0.2043E+02
   1.129  0.4367E+00  0.2043E+02
   1.139  0.4386E+00  0.2044E+02
   1.149  0.4405E+00  0.2044E+02
   1.159  0.4424E+00  0.2045E+02
   1.169  0.4443E+00  0.2045E+02
   1.179  0.4462E+00  0.2046E+02
   1.189  0.4481E+00  0.2046E+02
   1.199  0.4501E+00  0.2047E+02
   1.209  0.4520E+00  0.2047E+02
   1.219  0.4539E+00  0.2047E+02
   1.229  0.4559E+00  0.2048E+02
   1.239  0.4578E+00  0.2048E+02
   1.249  0.4597E+00  0.2049E+02
   1.259  0.4616E+00  0.2049E+02
   1.269  0.4634E+00  0.2050E+02
   1.279  0.4653E+00  0.2050E+02
   1.289  0.4671E+00  0.2051E+02
   1.299  0.4689E+00  0.2051E+02
   1.309  0.4706E+00  0.2052E+02
   1.319  0.4724E+00  0.2052E+02
   1.329  0.4740E+00  0.2053E+02
   1.339  0.4757E+00  0.2053E+02
   1.349  0.4773E+00  0.2053E+02
   1.359  0.4788E+00  0.2054E+02
   1.369  0.4803E+00  0.2054E+02
   1.379  0.4818E+00  0.2055E+02
   1.389  0.4832E+00  0.2055E+02
   1.399  0.4845E+00  0.2056E+02
   1.409  0.4858E+00  0.2056E+02
   1.419  0.4870E+00  0.2057E+02
   1.429  0.4882E+00  0.2057E+02
   1.439  0.4893E+00  0.2058E+02
   1.449  0.4903E+00  0.2058E+02
   1.459  0.4913E+00  0.2059E+02
   1.469  0.4923E+00  0.2059E+02
   1.479  0.4932E+00  0.2060E+02
   1.489  0.4941E+00  0.2060E+02
   1.499  0.4949E+00  0.2061E+02
   1.509  0.4957E+00  0.2061E+02
   1.519  0.4965E+00  0.2062E+02
   1.529  0.4972E+00  0.2062E+02
   1.539  0.4980E+00  0.2063E+02
   1.549  0.4987E+00  0.2063E+02
   1.559  0.4994E+00  0.2064E+02
   1.569  0.5001E+00  0.2064E+02
   1.579  0.5008E+00  0.2065E+02
   1.589  0.5015E+00  0.2065E+02
   1.599  0.5023E+00  0.2066E+02
   1.609  0.5031E+00  0.2066E+02
   1.619  0.5039E+00  0.2067E+02
   1.629  0.5048E+00  0.2067E+02
   1.639  0.5057E+00  0.2068E+02
   1.649  0.5066E+00  0.2068E+02
   1.659  0.5077E+00  0.2069E+02
   1.669  0.5088E+00  0.2069E+02
   1.679  0.5099E+00  0.2070E+02
   1.689  0.5112E+00  0.2070E+02
   1.699  0.5125E+00  0.2071E+02
   1.709  0.5139E+00  0.2071E+02
   1.719  0.5154E+00  0.2072E+02
   1.729  0.5170E+00  0.2072E+02
   1.739  0.5187E+00  0.2073E+02
   1.749  0.5204E+00  0.2073E+02
   1.759  0.5223E+00  0.2074E+02
   1.769  0.5243E+00  0.2074E+02
   1.779  0.5263E+00  0.2075E+02
   1.789  0.5284E+00  0.2076E+02
   1.799  0.5307E+00  0.2076E+02
   1.809  0.5329E+00  0.2077E+02
   1.819  0.5353E+00  0.2077E+02
   1.829  0.5378E+00  0.2078E+02
   1.839  0.5403E+00  0.2078E+02
   1.849  0.5428E+00  0.2079E+02
   1.859  0.5454E+00  0.2079E+02
   1.869  0.5481E+00  0.2080E+02
   1.879  0.5508E+00  0.2080E+02
   1.889  0.5535E+00  0.2081E+02
   1.899  0.5563E+00  0.2082E+02
   1.909  0.5590E+00  0.2082E+02
   1.919  0.5618E+00  0.2083E+02
   1.929  0.5645E+00  0.2083E+02
   1.939  0.5672E+00  0.2084E+02
   1.949  0.5699E+00  0.2084E+02
   1.959  0.5726E+00  0.2085E+02
   1.969  0.5752E+00  0.2085E+02
   1.979  0.5777E+00  0.2086E+02
   1.989  0.5802E+00  0.2087E+02
   1.999  0.5827E+00  0.2087E+02
   2.009  0.5850E+00  0.2088E+02
   2.019  0.5873E+00  0.2088E+02
   2.029  0.5895E+00  0.2089E+02
   2.039  0.5916E+00  0.2090E+02
   2.049  0.5936E+00  0.2090E+02
   2.059  0.5955E+00  0.2091E+02
   2.069  0.5973E+00  0.2091E+02
   2.079  0.5990E+00  0.2092E+02
   2.089  0.6006E+00  0.2093E+02
   2.099  0.6021E+00  0.2093E+02
   2.109  0.6034E+00  0.2094E+02
   2.119  0.6047E+00  0.2094E+02
   2.129  0.6059E+00  0.2095E+02
   2.139  0.6069E+00  0.2096E+02
   2.149  0.6079E+00  0.2096E+02
   2.159  0.6088E+00  0.2097E+02
   2.169  0.6096E+00  0.2097E+02
   2.179  0.6103E+00  0.2098E+02
   2.189  0.6109E+00  0.2099E+02
   2.199  0.6115E+00  0.2099E+02
   2.209  0.6120E+00  0.2100E+02
   2.219  0.6125E+00  0.2100E+02
   2.229  0.6129E+00  0.2101E+02
   2.239  0.6133E+00  0.2102E+02
   2.249  0.6137E+00  0.2102E+02
   2.259  0.6140E+00  0.2103E+02
   2.269  0.6144E+00  0.2104E+02
   2.279  0.6147E+00  0.2104E+02
   2.289  0.6151E+00  0.2105E+02
   2.299  0.6154E+00  0.2105E+02
   2.309  0.6158E+00  0.2106E+02
   2.319  0.6163E+00  0.2107E+02
   2.329  0.6168E+00  0.2107E+02
   2.339  0.6173E+00  0.2108E+02
   2.349  0.6180E+00  0.2108E+02
   2.359  0.6187E+00  0.2109E+02
   2.369  0.6194E+00  0.2110E+02
   2.379  0.6203E+00  0.2110E+02
   2.389  0.6212E+00  0.2111E+02
   2.399  0.6223E+00  0.2112E+02
   2.409  0.6234E+00  0.2112E+02
   2.419  0.6247E+00  0.2113E+02
   2.429  0.6260E+00  0.2113E+02
   2.439  0.6275E+00  0.2114E+02
   2.449  0.6291E+00  0.2115E+02
   2.459  0.6308E+00  0.2115E+02
   2.469  0.6326E+00  0.2116E+02
   2.479  0.6345E+00  0.2117E+02
   2.489  0.6366E+00  0.2117E+02
   2.499  0.6387E+00  0.2118E+02
   2.509  0.6410E+00  0.2119E+02
   2.519  0.6434E+00  0.2119E+02
   2.529  0.6458E+00  0.2120E+02
   2.539  0.6484E+00  0.2120E+02
   2.549  0.6511E+00  0.2121E+02
   2.559  0.6539E+00  0.2122E+02
   2.569  0.6567E+00  0.2122E+02
   2.579  0.6597E+00  0.2123E+02
   2.589  0.6627E+00  0.2124E+02
   2.599  0.6658E+00  0.2124E+02
   2.609  0.6689E+00  0.2125E+02
   2.619  0.6721E+00  0.2126E+02
   2.629  0.6754E+00  0.2126E+02
   2.639  0.6787E+00  0.2127E+02
   2.649  0.6821E+00  0.2128E+02
   2.659  0.6854E+00  0.2128E+02
   2.669  0.6888E+00  0.2129E+02
   2.679  0.6923E+00  0.2130E+02
   2.689  0.6957E+00  0.2131E+02
   2.699  0.6991E+00  0.2131E+02
   2.709  0.7026E+00  0.2132E+02
   2.719  0.7060E+00  0.2133E+02
   2.729  0.7095E+00  0.2133E+02
   2.739  0.7129E+00  0.2134E+02
   2.749  0.7163E+00  0.2135E+02
   2.759  0.7196E+00  0.2136E+02
   2.769  0.7229E+00  0.2136E+02
   2.779  0.7262E+00  0.2137E+02
   2.789  0.7295E+00  0.2138E+02
   2.799  0.7327E+00  0.2138E+02
   2.809  0.7359E+00  0.2139E+02
   2.819  0.7390E+00  0.2140E+02
   2.829  0.7420E+00  0.2141E+02
   2.839  0.7450E+00  0.2141E+02
   2.849  0.7480E+00  0.2142E+02
   2.859  0.7508E+00  0.2143E+02
   2.869  0.7537E+00  0.2144E+02
   2.879  0.7564E+00  0.2144E+02
   2.889  0.7591E+00  0.2145E+02
   2.899  0.7618E+00  0.2146E+02
   2.909  0.7644E+00  0.2147E+02
   2.919  0.7669E+00  0.2147E+02
   2.929  0.7694E+00  0.2148E+02
   2.939  0.7718E+00  0.2149E+02
   2.949  0.7742E+00  0.2150E+02
   2.959  0.7765E+00  0.2151E+02
   2.969  0.7787E+00  0.2151E+02
   2.979  0.7809E+00  0.2152E+02
   2.989  0.7831E+00  0.2153E+02
   2.999  0.7853E+00  0.2154E+02
   3.009  0.7874E+00  0.2154E+02
   3.019  0.7895E+00  0.2155E+02
   3.029  0.7915E+00  0.2156E+02
   3.039  0.7936E+00  0.2157E+02
   3.049  0.7956E+00  0.2158E+02
   3.059  0.7976E+00  0.2158E+02
   3.069  0.7996E+00  0.2159E+02
   3.079  0.8017E+00  0.2160E+02
   3.089  0.8037E+00  0.2161E+02
   3.099  0.8058E+00  0.2162E+02
   3.109  0.8079E+00  0.2162E+02
   3.119  0.8100E+00  0.2163E+02
   3.129  0.8121E+00  0.2164E+02
   3.139  0.8143E+00  0.2165E+02
   3.149  0.8165E+00  0.2166E+02
   3.159  0.8188E+00  0.2167E+02
   3.169  0.8212E+00  0.2167E+02
   3.179  0.8236E+00  0.2168E+02
   3.189  0.8260E+00  0.2169E+02
   3.199  0.8286E+00  0.2170E+02
   3.209  0.8312E+00  0.2171E+02
   3.219  0.8338E+00  0.2171E+02
   3.229  0.8366E+00  0.2172E+02
   3.239  0.8394E+00  0.2173E+02
   3.249  0.8423E+00  0.2174E+02
   3.259  0.8453E+00  0.2175E+02
   3.269  0.8483E+00  0.2176E+02
   3.279  0.8514E+00  0.2177E+02
   3.289  0.8546E+00  0.2177E+02
   3.299  0.8579E+00  0.2178E+02
   3.309  0.8612E+00  0.2179E+02
   3.319  0.8645E+00  0.2180E+02
   3.329  0.8680E+00  0.2181E+02
   3.339  0.8715E+00  0.2182E+02
   3.349  0.8750E+00  0.2183E+02
   3.359  0.8786E+00  0.2183E+02
   3.369  0.8822E+00  0.2184E+02
   3.379  0.8858E+00  0.2185E+02
   3.389  0.8894E+00  0.2186E+02
   3.399  0.8931E+00  0.2187E+02
   3.409  0.8967E+00  0.2188E+02
   3.419  0.9004E+00  0.2189E+02
   3.429  0.9040E+00  0.2190E+02
   3.439  0.9076E+00  0.2191E+02
   3.449  0.9112E+00  0.2192E+02
   3.459  0.9148E+00  0.2192E+02
   3.469  0.9182E+00  0.2193E+02
   3.479  0.9217E+00  0.2194E+02
   3.489  0.9251E+00  0.2195E+02
   3.499  0.9284E+00  0.2196E+02
   3.509  0.9316E+00  0.2197E+02
   3.519  0.9347E+00  0.2198E+02
   3.529  0.9377E+00  0.2199E+02
   3.539  0.9407E+00  0.2200E+02
   3.549  0.9435E+00  0.2201E+02
   3.559  0.9462E+00  0.2202E+02
   3.569  0.9488E+00  0.2203E+02
   3.579  0.9513E+00  0.2204E+02
   3.589  0.9536E+00  0.2205E+02
   3.599  0.9558E+00  0.2206E+02
   3.609  0.9578E+00  0.2207E+02
   3.619  0.9597E+00  0.2208E+02
   3.629  0.9615E+00  0.2208E+02
   3.639  0.9631E+00  0.2209E+02
   3.649  0.9645E+00  0.2210E+02
   3.659  0.9658E+00  0.2211E+02
   3.669  0.9669E+00  0.2212E+02
   3.679  0.9679E+00  0.2213E+02
   3.689  0.9687E+00  0.2214E+02
   3.699  0.9693E+00  0.2215E+02
   3.709  0.9697E+00  0.2216E+02
   3.719  0.9700E+00  0.2217E+02
   3.729  0.9701E+00  0.2218E+02
   3.739  0.9701E+00  0.2219E+02
   3.749  0.9698E+00  0.2220E+02
   3.759  0.9694E+00  0.2221E+02
   3.769  0.9688E+00  0.2222E+02
   3.779  0.9680E+00  0.2223E+02
   3.789  0.9671E+00  0.2224E+02
   3.799  0.9660E+00  0.2225E+02
   3.809  0.9647E+00  0.2226E+02
   3.819  0.9632E+00  0.2227E+02
   3.829  0.9616E+00  0.2228E+02
   3.839  0.9598E+00  0.2229E+02
   3.849  0.9578E+00  0.2230E+02
   3.859  0.9557E+00  0.2231E+02
   3.869  0.9534E+00  0.2232E+02
   3.879  0.9509E+00  0.2233E+02
   3.889  0.9483E+00  0.2234E+02
   3.899  0.9455E+00  0.2234E+02
   3.909  0.9426E+00  0.2235E+02
   3.919  0.9395E+00  0.2236E+02
   3.929  0.9363E+00  0.2237E+02
   3.939  0.9330E+00  0.2238E+02
   3.949  0.9295E+00  0.2239E+02
   3.959  0.9259E+00  0.2240E+02
   3.969  0.9222E+00  0.2241E+02
   3.979  0.9184E+00  0.2242E+02
   3.989  0.9144E+00  0.2243E+02
   3.999  0.9104E+00  0.2244E+02
   4.009  0.9062E+00  0.2245E+02
   4.019  0.9019E+00  0.2246E+02
   4.029  0.8976E+00  0.2246E+02
   4.039  0.8931E+00  0.2247E+02
   4.049  0.8886E+00  0.2248E+02
   4.059  0.8840E+00  0.2249E+02
   4.069  0.8793E+00  0.2250E+02
   4.079  0.8746E+00  0.2251E+02
   4.089  0.8698E+00  0.2252E+02
   4.099  0.8649E+00  0.2253E+02
   4.109  0.8599E+00  0.2253E+02
   4.119  0.8549E+00  0.2254E+02
   4.129  0.8498E+00  0.2255E+02
   4.139  0.8447E+00  0.2256E+02
   4.149  0.8395E+00  0.2257E+02
   4.159  0.8343E+00  0.2258E+02
   4.169  0.8290E+00  0.2259E+02
   4.179  0.8236E+00  0.2259E+02
   4.189  0.8182E+00  0.2260E+02
   4.199  0.8127E+00  0.2261E+02
   4.209  0.8071E+00  0.2262E+02
   4.219  0.8015E+00  0.2263E+02
   4.229  0.7958E+00  0.2263E+02
   4.239  0.7900E+00  0.2264E+02
   4.249  0.7842E+00  0.2265E+02
   4.259  0.7782E+00  0.2266E+02
   4.269  0.7722E+00  0.2267E+02
   4.279  0.7662E+00  0.2267E+02
   4.289  0.7600E+00  0.2268E+02
   4.299  0.7537E+00  0.2269E+02
   4.309  0.7474E+00  0.2270E+02
   4.319  0.7410E+00  0.2270E+02
   4.329  0.7345E+00  0.2271E+02
   4.339  0.7279E+00  0.2272E+02
   4.349  0.7212E+00  0.2272E+02
   4.359  0.7145E+00  0.2273E+02
   4.369  0.7076E+00  0.2274E+02
   4.379  0.7007E+00  0.2275E+02
   4.389  0.6937E+00  0.2275E+02
   4.399  0.6867E+00  0.2276E+02
   4.409  0.6796E+00  0.2277E+02
   4.419  0.6724E+00  0.2277E+02
   4.429  0.6652E+00  0.2278E+02
   4.439  0.6580E+00  0.2279E+02
   4.449  0.6507E+00  0.2279E+02
   4.459  0.6434E+00  0.2280E+02
   4.469  0.6361E+00  0.2281E+02
   4.479  0.6288E+00  0.2281E+02
   4.489  0.6216E+00  0.2282E+02
   4.499  0.6143E+00  0.2282E+02
   4.509  0.6072E+00  0.2283E+02
   4.519  0.6000E+00  0.2284E+02
   4.529  0.5930E+00  0.2284E+02
   4.539  0.5860E+00  0.2285E+02
   4.549  0.5791E+00  0.2285E+02
   4.559  0.5724E+00  0.2286E+02
   4.569  0.5658E+00  0.2287E+02
   4.579  0.5593E+00  0.2287E+02
   4.589  0.5530E+00  0.2288E+02
   4.599  0.5469E+00  0.2288E+02
   4.609  0.5409E+00  0.2289E+02
   4.619  0.5352E+00  0.2289E+02
   4.629  0.5297E+00  0.2290E+02
   4.639  0.5244E+00  0.2290E+02
   4.649  0.5193E+00  0.2291E+02
   4.659  0.5146E+00  0.2291E+02
   4.669  0.5100E+00  0.2292E+02
   4.679  0.5058E+00  0.2292E+02
   4.689  0.5019E+00  0.2293E+02
   4.699  0.4982E+00  0.2293E+02
   4.709  0.4948E+00  0.2294E+02
   4.719  0.4918E+00  0.2294E+02
   4.729  0.4891E+00  0.2295E+02
   4.739  0.4867E+00  0.2295E+02
   4.749  0.4846E+00  0.2296E+02
   4.759  0.4828E+00  0.2296E+02
   4.769  0.4814E+00  0.2297E+02
   4.779  0.4804E+00  0.2297E+02
   4.789  0.4796E+00  0.2298E+02
   4.799  0.4792E+00  0.2298E+02
   4.809  0.4791E+00  0.2299E+02
   4.819  0.4794E+00  0.2299E+02
   4.829  0.4800E+00  0.2300E+02
   4.839  0.4809E+00  0.2300E+02
   4.849  0.4821E+00  0.2301E+02
   4.859  0.4837E+00  0.2301E+02
   4.869  0.4855E+00  0.2302E+02
   4.879  0.4877E+00  0.2302E+02
   4.889  0.4901E+00  0.2303E+02
   4.899  0.4928E+00  0.2303E+02
   4.909  0.4958E+00  0.2304E+02
   4.919  0.4991E+00  0.2304E+02
   4.929  0.5026E+00  0.2305E+02
   4.939  0.5063E+00  0.2305E+02
   4.949  0.5102E+00  0.2306E+02
   4.959  0.5143E+00  0.2306E+02
   4.969  0.5187E+00  0.2307E+02
   4.979  0.5232E+00  0.2307E+02
   4.989  0.5278E+00  0.2308E+02
   4.999  0.5326E+00  0.2308E+02
   5.009  0.5375E+00  0.2309E+02
   5.019  0.5425E+00  0.2309E+02
   5.029  0.5476E+00  0.2310E+02
   5.039  0.5527E+00  0.2310E+02
   5.049  0.5579E+00  0.2311E+02
   5.059  0.5631E+00  0.2312E+02
   5.069  0.5683E+00  0.2312E+02
   5.079  0.5734E+00  0.2313E+02
   5.089  0.5786E+00  0.2313E+02
   5.099  0.5836E+00  0.2314E+02
   5.109  0.5886E+00  0.2314E+02
   5.119  0.5935E+00  0.2315E+02
   5.129  0.5983E+00  0.2316E+02
   5.139  0.6029E+00  0.2316E+02
   5.149  0.6074E+00  0.2317E+02
   5.159  0.6117E+00  0.2317E+02
   5.169  0.6157E+00  0.2318E+02
   5.179  0.6196E+00  0.2319E+02
   5.189  0.6232E+00  0.2319E+02
   5.199  0.6266E+00  0.2320E+02
   5.209  0.6297E+00  0.2321E+02
   5.219  0.6326E+00  0.2321E+02
   5.229  0.6351E+00  0.2322E+02
   5.239  0.6374E+00  0.2322E+02
   5.249  0.6393E+00  0.2323E+02
   5.259  0.6409E+00  0.2324E+02
   5.269  0.6422E+00  0.2324E+02
   5.279  0.6431E+00  0.2325E+02
   5.289  0.6437E+00  0.2326E+02
   5.299  0.6439E+00  0.2326E+02
   5.309  0.6438E+00  0.2327E+02
   5.319  0.6433E+00  0.2328E+02
   5.329  0.6425E+00  0.2328E+02
   5.339  0.6413E+00  0.2329E+02
   5.349  0.6398E+00  0.2330E+02
   5.359  0.6379E+00  0.2330E+02
   5.369  0.6357E+00  0.2331E+02
   5.379  0.6332E+00  0.2331E+02
   5.389  0.6303E+00  0.2332E+02
   5.399  0.6272E+00  0.2333E+02
   5.409  0.6237E+00  0.2333E+02
   5.419  0.6200E+00  0.2334E+02
   5.429  0.6160E+00  0.2335E+02
   5.439  0.6117E+00  0.2335E+02
   5.449  0.6072E+00  0.2336E+02
   5.459  0.6025E+00  0.2336E+02
   5.469  0.5977E+00  0.2337E+02
   5.479  0.5926E+00  0.2338E+02
   5.489  0.5874E+00  0.2338E+02
   5.499  0.5821E+00  0.2339E+02
   5.509  0.5766E+00  0.2339E+02
   5.519  0.5711E+00  0.2340E+02
   5.529  0.5655E+00  0.2340E+02
   5.539  0.5599E+00  0.2341E+02
   5.549  0.5543E+00  0.2342E+02
   5.559  0.5487E+00  0.2342E+02
   5.569  0.5431E+00  0.2343E+02
   5.579  0.5376E+00  0.2343E+02
   5.589  0.5321E+00  0.2344E+02
   5.599  0.5268E+00  0.2344E+02
   5.609  0.5215E+00  0.2345E+02
   5.619  0.5164E+00  0.2345E+02
   5.629  0.5115E+00  0.2346E+02
   5.639  0.5067E+00  0.2346E+02
   5.649  0.5021E+00  0.2347E+02
   5.659  0.4977E+00  0.2347E+02
   5.669  0.4935E+00  0.2348E+02
   5.679  0.4896E+00  0.2348E+02
   5.689  0.4859E+00  0.2349E+02
   5.699  0.4824E+00  0.2349E+02
   5.709  0.4791E+00  0.2350E+02
   5.719  0.4761E+00  0.2350E+02
   5.729  0.4734E+00  0.2351E+02
   5.739  0.4709E+00  0.2351E+02
   5.749  0.4686E+00  0.2352E+02
   5.759  0.4666E+00  0.2352E+02
   5.769  0.4649E+00  0.2353E+02
   5.779  0.4633E+00  0.2353E+02
   5.789  0.4620E+00  0.2353E+02
   5.799  0.4610E+00  0.2354E+02
   5.809  0.4601E+00  0.2354E+02
   5.819  0.4594E+00  0.2355E+02
   5.829  0.4590E+00  0.2355E+02
   5.839  0.4587E+00  0.2356E+02
   5.849  0.4585E+00  0.2356E+02
   5.859  0.4585E+00  0.2357E+02
   5.869  0.4587E+00  0.2357E+02
   5.879  0.4589E+00  0.2358E+02
   5.889  0.4593E+00  0.2358E+02
   5.899  0.4597E+00  0.2359E+02
   5.909  0.4602E+00  0.2359E+02
   5.919  0.4608E+00  0.2359E+02
   5.929  0.4614E+00  0.2360E+02
   5.939  0.4620E+00  0.2360E+02
   5.949  0.4626E+00  0.2361E+02
   5.959  0.4632E+00  0.2361E+02
   5.969  0.4637E+00  0.2362E+02
   5.979  0.4643E+00  0.2362E+02
   5.989  0.4647E+00  0.2363E+02
   5.999  0.4651E+00  0.2363E+02
   6.009  0.4655E+00  0.2364E+02
   6.019  0.4657E+00  0.2364E+02
   6.029  0.4659E+00  0.2365E+02
   6.039  0.4659E+00  0.2365E+02
   6.049  0.4659E+00  0.2365E+02
   6.059  0.4657E+00  0.2366E+02
   6.069  0.4654E+00  0.2366E+02
   6.079  0.4650E+00  0.2367E+02
   6.089  0.4645E+00  0.2367E+02
   6.099  0.4638E+00  0.2368E+02
   6.109  0.4631E+00  0.2368E+02
   6.119  0.4621E+00  0.2369E+02
   6.129  0.4611E+00  0.2369E+02
   6.139  0.4600E+00  0.2370E+02
   6.149  0.4587E+00  0.2370E+02
   6.159  0.4574E+00  0.2371E+02
   6.169  0.4559E+00  0.2371E+02
   6.179  0.4543E+00  0.2371E+02
   6.189  0.4527E+00  0.2372E+02
   6.199  0.4510E+00  0.2372E+02
   6.209  0.4492E+00  0.2373E+02
   6.219  0.4473E+00  0.2373E+02
   6.229  0.4454E+00  0.2374E+02
   6.239  0.4435E+00  0.2374E+02
   6.249  0.4415E+00  0.2375E+02
   6.259  0.4396E+00  0.2375E+02
   6.269  0.4376E+00  0.2375E+02
   6.279  0.4356E+00  0.2376E+02
   6.289  0.4337E+00  0.2376E+02
   6.299  0.4317E+00  0.2377E+02
   6.309  0.4299E+00  0.2377E+02
   6.319  0.4280E+00  0.2378E+02
   6.329  0.4263E+00  0.2378E+02
   6.339  0.4246E+00  0.2378E+02
   6.349  0.4230E+00  0.2379E+02
   6.359  0.4216E+00  0.2379E+02
   6.369  0.4202E+00  0.2380E+02
   6.379  0.4190E+00  0.2380E+02
   6.389  0.4179E+00  0.2381E+02
   6.399  0.4170E+00  0.2381E+02
   6.409  0.4162E+00  0.2381E+02
   6.419  0.4156E+00  0.2382E+02
   6.429  0.4152E+00  0.2382E+02
   6.439  0.4150E+00  0.2383E+02
   6.449  0.4150E+00  0.2383E+02
   6.459  0.4152E+00  0.2383E+02
   6.469  0.4156E+00  0.2384E+02
   6.479  0.4162E+00  0.2384E+02
   6.489  0.4170E+00  0.2385E+02
   6.499  0.4181E+00  0.2385E+02
   6.509  0.4195E+00  0.2386E+02
   6.519  0.4211E+00  0.2386E+02
   6.529  0.4229E+00  0.2386E+02
   6.539  0.4250E+00  0.2387E+02
   6.549  0.4273E+00  0.2387E+02
   6.559  0.4299E+00  0.2388E+02
   6.569  0.4328E+00  0.2388E+02
   6.579  0.4360E+00  0.2389E+02
   6.589  0.4394E+00  0.2389E+02
   6.599  0.4430E+00  0.2389E+02
   6.609  0.4470E+00  0.2390E+02
   6.619  0.4511E+00  0.2390E+02
   6.629  0.4556E+00  0.2391E+02
   6.639  0.4603E+00  0.2391E+02
   6.649  0.4652E+00  0.2392E+02
   6.659  0.4704E+00  0.2392E+02
   6.669  0.4758E+00  0.2393E+02
   6.679  0.4815E+00  0.2393E+02
   6.689  0.4874E+00  0.2394E+02
   6.699  0.4935E+00  0.2394E+02
   6.709  0.4997E+00  0.2395E+02
   6.719  0.5062E+00  0.2395E+02
   6.729  0.5129E+00  0.2396E+02
   6.739  0.5197E+00  0.2396E+02
   6.749  0.5267E+00  0.2397E+02
   6.759  0.5339E+00  0.2397E+02
   6.769  0.5411E+00  0.2398E+02
   6.779  0.5485E+00  0.2398E+02
   6.789  0.5560E+00  0.2399E+02
   6.799  0.5636E+00  0.2399E+02
   6.809  0.5713E+00  0.2400E+02
   6.819  0.5790E+00  0.2401E+02
   6.829  0.5868E+00  0.2401E+02
   6.839  0.5946E+00  0.2402E+02
   6.849  0.6025E+00  0.2402E+02
   6.859  0.6103E+00  0.2403E+02
   6.869  0.6181E+00  0.2404E+02
   6.879  0.6260E+00  0.2404E+02
   6.889  0.6337E+00  0.2405E+02
   6.899  0.6414E+00  0.2406E+02
   6.909  0.6491E+00  0.2406E+02
   6.919  0.6567E+00  0.2407E+02
   6.929  0.6642E+00  0.2407E+02
   6.939  0.6716E+00  0.2408E+02
   6.949  0.6789E+00  0.2409E+02
   6.959  0.6860E+00  0.2410E+02
   6.969  0.6931E+00  0.2410E+02
   6.979  0.7000E+00  0.2411E+02
   6.989  0.7067E+00  0.2412E+02
   6.999  0.7134E+00  0.2412E+02
   7.009  0.7198E+00  0.2413E+02
   7.019  0.7261E+00  0.2414E+02
   7.029  0.7323E+00  0.2415E+02
   7.039  0.7383E+00  0.2415E+02
   7.049  0.7441E+00  0.2416E+02
   7.059  0.7497E+00  0.2417E+02
   7.069  0.7552E+00  0.2418E+02
   7.079  0.7605E+00  0.2418E+02
   7.089  0.7657E+00  0.2419E+02
   7.099  0.7707E+00  0.2420E+02
   7.109  0.7755E+00  0.2421E+02
   7.119  0.7802E+00  0.2421E+02
   7.129  0.7847E+00  0.2422E+02
   7.139  0.7891E+00  0.2423E+02
   7.149  0.7934E+00  0.2424E+02
   7.159  0.7975E+00  0.2425E+02
   7.169  0.8015E+00  0.2425E+02
   7.179  0.8053E+00  0.2426E+02
   7.189  0.8090E+00  0.2427E+02
   7.199  0.8127E+00  0.2428E+02
   7.209  0.8162E+00  0.2429E+02
   7.219  0.8196E+00  0.2429E+02
   7.229  0.8229E+00  0.2430E+02
   7.239  0.8261E+00  0.2431E+02
   7.249  0.8293E+00  0.2432E+02
   7.259  0.8323E+00  0.2433E+02
   7.269  0.8353E+00  0.2434E+02
   7.279  0.8383E+00  0.2434E+02
   7.289  0.8411E+00  0.2435E+02
   7.299  0.8439E+00  0.2436E+02
   7.309  0.8467E+00  0.2437E+02
   7.319  0.8494E+00  0.2438E+02
   7.329  0.8521E+00  0.2439E+02
   7.339  0.8547E+00  0.2439E+02
   7.349  0.8572E+00  0.2440E+02
   7.359  0.8597E+00  0.2441E+02
   7.369  0.8622E+00  0.2442E+02
   7.379  0.8646E+00  0.2443E+02
   7.389  0.8670E+00  0.2444E+02
   7.399  0.8694E+00  0.2445E+02
   7.409  0.8717E+00  0.2446E+02
   7.419  0.8739E+00  0.2446E+02
   7.429  0.8761E+00  0.2447E+02
   7.439  0.8783E+00  0.2448E+02
   7.449  0.8803E+00  0.2449E+02
   7.459  0.8824E+00  0.2450E+02
   7.469  0.8843E+00  0.2451E+02
   7.479  0.8862E+00  0.2452E+02
   7.489  0.8881E+00  0.2453E+02
   7.499  0.8898E+00  0.2453E+02
   7.509  0.8915E+00  0.2454E+02
   7.519  0.8930E+00  0.2455E+02
   7.529  0.8945E+00  0.2456E+02
   7.539  0.8959E+00  0.2457E+02
   7.549  0.8972E+00  0.2458E+02
   7.559  0.8984E+00  0.2459E+02
   7.569  0.8995E+00  0.2460E+02
   7.579  0.9005E+00  0.2461E+02
   7.589  0.9013E+00  0.2462E+02
   7.599  0.9020E+00  0.2462E+02
   7.609  0.9027E+00  0.2463E+02
   7.619  0.9032E+00  0.2464E+02
   7.629  0.9035E+00  0.2465E+02
   7.639  0.9038E+00  0.2466E+02
   7.649  0.9039E+00  0.2467E+02
   7.659  0.9039E+00  0.2468E+02
   7.669  0.9038E+00  0.2469E+02
   7.679  0.9036E+00  0.2470E+02
   7.689  0.9032E+00  0.2471E+02
   7.699  0.9028E+00  0.2471E+02
   7.709  0.9022E+00  0.2472E+02
   7.719  0.9015E+00  0.2473E+02
   7.729  0.9008E+00  0.2474E+02
   7.739  0.8999E+00  0.2475E+02
   7.749  0.8990E+00  0.2476E+02
   7.759  0.8981E+00  0.2477E+02
   7.769  0.8970E+00  0.2478E+02
   7.779  0.8959E+00  0.2479E+02
   7.789  0.8948E+00  0.2480E+02
   7.799  0.8937E+00  0.2480E+02
   7.809  0.8925E+00  0.2481E+02
   7.819  0.8914E+00  0.2482E+02
   7.829  0.8903E+00  0.2483E+02
   7.839  0.8892E+00  0.2484E+02
   7.849  0.8881E+00  0.2485E+02
   7.859  0.8871E+00  0.2486E+02
   7.869  0.8861E+00  0.2487E+02
   7.879  0.8853E+00  0.2488E+02
   7.889  0.8845E+00  0.2488E+02
   7.899  0.8838E+00  0.2489E+02
   7.909  0.8832E+00  0.2490E+02
   7.919  0.8828E+00  0.2491E+02
   7.929  0.8825E+00  0.2492E+02
   7.939  0.8824E+00  0.2493E+02
   7.949  0.8824E+00  0.2494E+02
   7.959  0.8825E+00  0.2495E+02
   7.969  0.8829E+00  0.2495E+02
   7.979  0.8834E+00  0.2496E+02
   7.989  0.8840E+00  0.2497E+02
   7.999  0.8849E+00  0.2498E+02
   8.009  0.8859E+00  0.2499E+02
   8.019  0.8872E+00  0.2500E+02
   8.029  0.8886E+00  0.2501E+02
   8.039  0.8901E+00  0.2502E+02
   8.049  0.8919E+00  0.2503E+02
   8.059  0.8938E+00  0.2503E+02
   8.069  0.8959E+00  0.2504E+02
   8.079  0.8981E+00  0.2505E+02
   8.089  0.9004E+00  0.2506E+02
   8.099  0.9029E+00  0.2507E+02
   8.109  0.9056E+00  0.2508E+02
   8.119  0.9083E+00  0.2509E+02
   8.129  0.9111E+00  0.2510E+02
   8.139  0.9140E+00  0.2511E+02
   8.149  0.9170E+00  0.2512E+02
   8.159  0.9200E+00  0.2513E+02
   8.169  0.9230E+00  0.2513E+02
   8.179  0.9261E+00  0.2514E+02
   8.189  0.9292E+00  0.2515E+02
   8.199  0.9323E+00  0.2516E+02
   8.209  0.9354E+00  0.2517E+02
   8.219  0.9384E+00  0.2518E+02
   8.229  0.9414E+00  0.2519E+02
   8.239  0.9443E+00  0.2520E+02
   8.249  0.9472E+00  0.2521E+02
   8.259  0.9500E+00  0.2522E+02
   8.269  0.9527E+00  0.2523E+02
   8.279  0.9553E+00  0.2524E+02
   8.289  0.9578E+00  0.2525E+02
   8.299  0.9603E+00  0.2526E+02
   8.309  0.9626E+00  0.2527E+02
   8.319  0.9647E+00  0.2528E+02
   8.329  0.9668E+00  0.2529E+02
   8.339  0.9688E+00  0.2530E+02
   8.349  0.9707E+00  0.2531E+02
   8.359  0.9724E+00  0.2532E+02
   8.369  0.9741E+00  0.2533E+02
   8.379  0.9757E+00  0.2534E+02
   8.389  0.9772E+00  0.2534E+02
   8.399  0.9786E+00  0.2535E+02
   8.409  0.9799E+00  0.2536E+02
   8.419  0.9812E+00  0.2537E+02
   8.429  0.9824E+00  0.2538E+02
   8.439  0.9836E+00  0.2539E+02
   8.449  0.9847E+00  0.2540E+02
   8.459  0.9859E+00  0.2541E+02
   8.469  0.9870E+00  0.2542E+02
   8.479  0.9882E+00  0.2543E+02
   8.489  0.9893E+00  0.2544E+02
   8.499  0.9905E+00  0.2545E+02
   8.509  0.9917E+00  0.2546E+02
   8.519  0.9930E+00  0.2547E+02
   8.529  0.9943E+00  0.2548E+02
   8.539  0.9957E+00  0.2549E+02
   8.549  0.9972E+00  0.2550E+02
   8.559  0.9987E+00  0.2551E+02
   8.569  0.1000E+01  0.2552E+02
   8.579  0.1002E+01  0.2553E+02
   8.589  0.1004E+01  0.2554E+02
   8.599  0.1006E+01  0.2555E+02
   8.609  0.1008E+01  0.2556E+02
   8.619  0.1010E+01  0.2557E+02
   8.629  0.1012E+01  0.2558E+02
   8.639  0.1014E+01  0.2559E+02
   8.649  0.1016E+01  0.2560E+02
   8.659  0.1019E+01  0.2561E+02
   8.669  0.1021E+01  0.2562E+02
   8.679  0.1024E+01  0.2563E+02
   8.689  0.1026E+01  0.2564E+02
   8.699  0.1029E+01  0.2565E+02
   8.709  0.1032E+01  0.2567E+02
   8.719  0.1034E+01  0.2568E+02
   8.729  0.1037E+01  0.2569E+02
   8.739  0.1040E+01  0.2570E+02
   8.749  0.1043E+01  0.2571E+02
   8.759  0.1045E+01  0.2572E+02
   8.769  0.1048E+01  0.2573E+02
   8.779  0.1051E+01  0.2574E+02
   8.789  0.1054E+01  0.2575E+02
   8.799  0.1057E+01  0.2576E+02
   8.809  0.1059E+01  0.2577E+02
   8.819  0.1062E+01  0.2578E+02
   8.829  0.1065E+01  0.2579E+02
   8.839  0.1067E+01  0.2580E+02
   8.849  0.1070E+01  0.2581E+02
   8.859  0.1072E+01  0.2582E+02
   8.869  0.1075E+01  0.2583E+02
   8.879  0.1077E+01  0.2584E+02
   8.889  0.1080E+01  0.2586E+02
   8.899  0.1082E+01  0.2587E+02
   8.909  0.1084E+01  0.2588E+02
   8.919  0.1087E+01  0.2589E+02
   8.929  0.1089E+01  0.2590E+02
   8.939  0.1091E+01  0.2591E+02
   8.949  0.1094E+01  0.2592E+02
   8.959  0.1096E+01  0.2593E+02
   8.969  0.1098E+01  0.2594E+02
   8.979  0.1101E+01  0.2595E+02
   8.989  0.1103E+01  0.2596E+02
   8.999  0.1106E+01  0.2598E+02
   9.009  0.1108E+01  0.2599E+02
   9.019  0.1111E+01  0.2600E+02
   9.029  0.1113E+01  0.2601E+02
   9.039  0.1116E+01  0.2602E+02
   9.049  0.1119E+01  0.2603E+02
   9.059  0.1122E+01  0.2604E+02
   9.069  0.1125E+01  0.2605E+02
   9.079  0.1128E+01  0.2607E+02
   9.089  0.1131E+01  0.2608E+02
   9.099  0.1135E+01  0.2609E+02
   9.109  0.1138E+01  0.2610E+02
   9.119  0.1142E+01  0.2611E+02
   9.129  0.1145E+01  0.2612E+02
   9.139  0.1149E+01  0.2613E+02
   9.149  0.1153E+01  0.2615E+02
   9.159  0.1157E+01  0.2616E+02
   9.169  0.1161E+01  0.2617E+02
   9.179  0.1165E+01  0.2618E+02
   9.189  0.1170E+01  0.2619E+02
   9.199  0.1174E+01  0.2620E+02
   9.209  0.1178E+01  0.2622E+02
   9.219  0.1183E+01  0.2623E+02
   9.229  0.1187E+01  0.2624E+02
   9.239  0.1192E+01  0.2625E+02
   9.249  0.1196E+01  0.2626E+02
   9.259  0.1201E+01  0.2627E+02
   9.269  0.1205E+01  0.2629E+02
   9.279  0.1210E+01  0.2630E+02
   9.289  0.1214E+01  0.2631E+02
   9.299  0.1219E+01  0.2632E+02
   9.309  0.1223E+01  0.2634E+02
   9.319  0.1227E+01  0.2635E+02
   9.329  0.1231E+01  0.2636E+02
   9.339  0.1235E+01  0.2637E+02
   9.349  0.1239E+01  0.2638E+02
   9.359  0.1243E+01  0.2640E+02
   9.369  0.1246E+01  0.2641E+02
   9.379  0.1250E+01  0.2642E+02
   9.389  0.1253E+01  0.2643E+02
   9.399  0.1256E+01  0.2645E+02
   9.409  0.1259E+01  0.2646E+02
   9.419  0.1261E+01  0.2647E+02
   9.429  0.1264E+01  0.2649E+02
   9.439  0.1266E+01  0.2650E+02
   9.449  0.1268E+01  0.2651E+02
   9.459  0.1270E+01  0.2652E+02
   9.469  0.1271E+01  0.2654E+02
   9.479  0.1273E+01  0.2655E+02
   9.489  0.1274E+01  0.2656E+02
   9.499  0.1275E+01  0.2657E+02
   9.509  0.1276E+01  0.2659E+02
   9.519  0.1276E+01  0.2660E+02
   9.529  0.1277E+01  0.2661E+02
   9.539  0.1277E+01  0.2663E+02
   9.549  0.1277E+01  0.2664E+02
   9.559  0.1277E+01  0.2665E+02
   9.569  0.1276E+01  0.2666E+02
   9.579  0.1276E+01  0.2668E+02
   9.589  0.1275E+01  0.2669E+02
   9.599  0.1274E+01  0.2670E+02
   9.609  0.1273E+01  0.2671E+02
   9.619  0.1272E+01  0.2673E+02
   9.629  0.1271E+01  0.2674E+02
   9.639  0.1269E+01  0.2675E+02
   9.649  0.1267E+01  0.2677E+02
   9.659  0.1266E+01  0.2678E+02
   9.669  0.1264E+01  0.2679E+02
   9.679  0.1261E+01  0.2680E+02
   9.689  0.1259E+01  0.2682E+02
   9.699  0.1256E+01  0.2683E+02
   9.709  0.1254E+01  0.2684E+02
   9.719  0.1251E+01  0.2685E+02
   9.729  0.1248E+01  0.2687E+02
   9.739  0.1245E+01  0.2688E+02
   9.749  0.1242E+01  0.2689E+02
   9.759  0.1238E+01  0.2690E+02
   9.769  0.1235E+01  0.2692E+02
   9.779  0.1231E+01  0.2693E+02
   9.789  0.1227E+01  0.2694E+02
   9.799  0.1223E+01  0.2695E+02
   9.809  0.1219E+01  0.2696E+02
   9.819  0.1214E+01  0.2698E+02
   9.829  0.1210E+01  0.2699E+02
   9.839  0.1205E+01  0.2700E+02
   9.849  0.1200E+01  0.2701E+02
   9.859  0.1195E+01  0.2702E+02
   9.869  0.1190E+01  0.2704E+02
   9.879  0.1185E+01  0.2705E+02
   9.889  0.1180E+01  0.2706E+02
   9.899  0.1174E+01  0.2707E+02
   9.909  0.1169E+01  0.2708E+02
   9.919  0.1164E+01  0.2710E+02
   9.929  0.1158E+01  0.2711E+02
   9.939  0.1153E+01  0.2712E+02
   9.949  0.1147E+01  0.2713E+02
   9.959  0.1142E+01  0.2714E+02
   9.969  0.1136E+01  0.2715E+02
   9.979  0.1131E+01  0.2716E+02
   9.989  0.1125E+01  0.2718E+02
   9.999  0.1120E+01  0.2719E+02
  10.009  0.1114E+01  0.2720E+02
  10.019  0.1109E+01  0.2721E+02
  10.029  0.1104E+01  0.2722E+02
  10.039  0.1099E+01  0.2723E+02
  10.049  0.1095E+01  0.2724E+02
  10.059  0.1090E+01  0.2725E+02
  10.069  0.1086E+01  0.2726E+02
  10.079  0.1082E+01  0.2727E+02
  10.089  0.1078E+01  0.2728E+02
  10.099  0.1074E+01  0.2730E+02
  10.109  0.1071E+01  0.2731E+02
  10.119  0.1067E+01  0.2732E+02
  10.129  0.1064E+01  0.2733E+02
  10.139  0.1062E+01  0.2734E+02
  10.149  0.1059E+01  0.2735E+02
  10.159  0.1057E+01  0.2736E+02
  10.169  0.1055E+01  0.2737E+02
  10.179  0.1053E+01  0.2738E+02
  10.189  0.1052E+01  0.2739E+02
  10.199  0.1051E+01  0.2740E+02
  10.209  0.1050E+01  0.2741E+02
  10.219  0.1049E+01  0.2742E+02
  10.229  0.1048E+01  0.2743E+02
  10.239  0.1048E+01  0.2744E+02
  10.249  0.1048E+01  0.2745E+02
  10.259  0.1048E+01  0.2746E+02
  10.269  0.1048E+01  0.2747E+02
  10.279  0.1048E+01  0.2749E+02
  10.289  0.1048E+01  0.2750E+02
  10.299  0.1049E+01  0.2751E+02
  10.309  0.1049E+01  0.2752E+02
  10.319  0.1050E+01  0.2753E+02
  10.329  0.1050E+01  0.2754E+02
  10.339  0.1051E+01  0.2755E+02
  10.349  0.1051E+01  0.2756E+02
  10.359  0.1052E+01  0.2757E+02
  10.369  0.1052E+01  0.2758E+02
  10.379  0.1052E+01  0.2759E+02
  10.389  0.1052E+01  0.2760E+02
  10.399  0.1052E+01  0.2761E+02
  10.409  0.1052E+01  0.2762E+02
  10.419  0.1051E+01  0.2763E+02
  10.429  0.1051E+01  0.2764E+02
  10.439  0.1050E+01  0.2765E+02
  10.449  0.1049E+01  0.2766E+02
  10.459  0.1048E+01  0.2767E+02
  10.469  0.1046E+01  0.2768E+02
  10.479  0.1045E+01  0.2770E+02
  10.489  0.1042E+01  0.2771E+02
  10.499  0.1040E+01  0.2772E+02
  10.509  0.1038E+01  0.2773E+02
  10.519  0.1035E+01  0.2774E+02
  10.529  0.1032E+01  0.2775E+02
  10.539  0.1029E+01  0.2776E+02
  10.549  0.1025E+01  0.2777E+02
  10.559  0.1021E+01  0.2778E+02
  10.569  0.1017E+01  0.2779E+02
  10.579  0.1013E+01  0.2780E+02
  10.589  0.1009E+01  0.2781E+02
  10.599  0.1004E+01  0.2782E+02
  10.609  0.9998E+00  0.2783E+02
  10.619  0.9950E+00  0.2784E+02
  10.629  0.9900E+00  0.2785E+02
  10.639  0.9850E+00  0.2786E+02
  10.649  0.9798E+00  0.2787E+02
  10.659  0.9746E+00  0.2788E+02
  10.669  0.9694E+00  0.2789E+02
  10.679  0.9642E+00  0.2790E+02
  10.689  0.9589E+00  0.2791E+02
  10.699  0.9537E+00  0.2792E+02
  10.709  0.9485E+00  0.2793E+02
  10.719  0.9434E+00  0.2794E+02
  10.729  0.9384E+00  0.2794E+02
  10.739  0.9335E+00  0.2795E+02
  10.749  0.9287E+00  0.2796E+02
  10.759  0.9241E+00  0.2797E+02
  10.769  0.9196E+00  0.2798E+02
  10.779  0.9153E+00  0.2799E+02
  10.789  0.9113E+00  0.2800E+02
  10.799  0.9074E+00  0.2801E+02
  10.809  0.9038E+00  0.2802E+02
  10.819  0.9003E+00  0.2803E+02
  10.829  0.8972E+00  0.2804E+02
  10.839  0.8943E+00  0.2804E+02
  10.849  0.8916E+00  0.2805E+02
  10.859  0.8893E+00  0.2806E+02
  10.869  0.8872E+00  0.2807E+02
  10.879  0.8853E+00  0.2808E+02
  10.889  0.8838E+00  0.2809E+02
  10.899  0.8825E+00  0.2810E+02
  10.909  0.8815E+00  0.2811E+02
  10.919  0.8808E+00  0.2812E+02
  10.929  0.8804E+00  0.2812E+02
  10.939  0.8802E+00  0.2813E+02
  10.949  0.8803E+00  0.2814E+02
  10.959  0.8806E+00  0.2815E+02
  10.969  0.8812E+00  0.2816E+02
  10.979  0.8820E+00  0.2817E+02
  10.989  0.8830E+00  0.2818E+02
  10.999  0.8842E+00  0.2819E+02
  11.009  0.8857E+00  0.2820E+02
  11.019  0.8874E+00  0.2820E+02
  11.029  0.8892E+00  0.2821E+02
  11.039  0.8912E+00  0.2822E+02
  11.049  0.8934E+00  0.2823E+02
  11.059  0.8957E+00  0.2824E+02
  11.069  0.8982E+00  0.2825E+02
  11.079  0.9008E+00  0.2826E+02
  11.089  0.9035E+00  0.2827E+02
  11.099  0.9064E+00  0.2828E+02
  11.109  0.9093E+00  0.2828E+02
  11.119  0.9123E+00  0.2829E+02
  11.129  0.9154E+00  0.2830E+02
  11.139  0.9186E+00  0.2831E+02
  11.149  0.9218E+00  0.2832E+02
  11.159  0.9251E+00  0.2833E+02
  11.169  0.9285E+00  0.2834E+02
  11.179  0.9318E+00  0.2835E+02
  11.189  0.9352E+00  0.2836E+02
  11.199  0.9387E+00  0.2837E+02
  11.209  0.9421E+00  0.2838E+02
  11.219  0.9456E+00  0.2839E+02
  11.229  0.9490E+00  0.2840E+02
  11.239  0.9525E+00  0.2841E+02
  11.249  0.9559E+00  0.2842E+02
  11.259  0.9594E+00  0.2843E+02
  11.269  0.9628E+00  0.2843E+02
  11.279  0.9662E+00  0.2844E+02
  11.289  0.9696E+00  0.2845E+02
  11.299  0.9729E+00  0.2846E+02
  11.309  0.9762E+00  0.2847E+02
  11.319  0.9794E+00  0.2848E+02
  11.329  0.9826E+00  0.2849E+02
  11.339  0.9857E+00  0.2850E+02
  11.349  0.9888E+00  0.2851E+02
  11.359  0.9917E+00  0.2852E+02
  11.369  0.9946E+00  0.2853E+02
  11.379  0.9974E+00  0.2854E+02
  11.389  0.1000E+01  0.2855E+02
  11.399  0.1003E+01  0.2856E+02
  11.409  0.1005E+01  0.2857E+02
  11.419  0.1007E+01  0.2858E+02
  11.429  0.1010E+01  0.2859E+02
  11.439  0.1012E+01  0.2860E+02
  11.449  0.1014E+01  0.2861E+02
  11.459  0.1015E+01  0.2862E+02
  11.469  0.1017E+01  0.2863E+02
  11.479  0.1018E+01  0.2864E+02
  11.489  0.1019E+01  0.2865E+02
  11.499  0.1020E+01  0.2866E+02
  11.509  0.1021E+01  0.2867E+02
  11.519  0.1022E+01  0.2868E+02
  11.529  0.1022E+01  0.2869E+02
  11.539  0.1022E+01  0.2871E+02
  11.549  0.1022E+01  0.2872E+02
  11.559  0.1022E+01  0.2873E+02
  11.569  0.1022E+01  0.2874E+02
  11.579  0.1021E+01  0.2875E+02
  11.589  0.1020E+01  0.2876E+02
  11.599  0.1019E+01  0.2877E+02
  11.609  0.1018E+01  0.2878E+02
  11.619  0.1016E+01  0.2879E+02
  11.629  0.1015E+01  0.2880E+02
  11.639  0.1013E+01  0.2881E+02
  11.649  0.1011E+01  0.2882E+02
  11.659  0.1009E+01  0.2883E+02
  11.669  0.1007E+01  0.2884E+02
  11.679  0.1004E+01  0.2885E+02
  11.689  0.1002E+01  0.2886E+02
  11.699  0.9989E+00  0.2887E+02
  11.709  0.9962E+00  0.2888E+02
  11.719  0.9933E+00  0.2889E+02
  11.729  0.9903E+00  0.2890E+02
  11.739  0.9873E+00  0.2891E+02
  11.749  0.9843E+00  0.2892E+02
  11.759  0.9812E+00  0.2893E+02
  11.769  0.9780E+00  0.2894E+02
  11.779  0.9749E+00  0.2895E+02
  11.789  0.9718E+00  0.2896E+02
  11.799  0.9687E+00  0.2897E+02
  11.809  0.9656E+00  0.2898E+02
  11.819  0.9625E+00  0.2898E+02
  11.829  0.9595E+00  0.2899E+02
  11.839  0.9565E+00  0.2900E+02
  11.849  0.9536E+00  0.2901E+02
  11.859  0.9508E+00  0.2902E+02
  11.869  0.9480E+00  0.2903E+02
  11.879  0.9454E+00  0.2904E+02
  11.889  0.9428E+00  0.2905E+02
  11.899  0.9403E+00  0.2906E+02
  11.909  0.9379E+00  0.2907E+02
  11.919  0.9356E+00  0.2908E+02
  11.929  0.9335E+00  0.2909E+02
  11.939  0.9314E+00  0.2910E+02
  11.949  0.9294E+00  0.2911E+02
  11.959  0.9276E+00  0.2912E+02
  11.969  0.9258E+00  0.2913E+02
  11.979  0.9242E+00  0.2914E+02
  11.989  0.9227E+00  0.2914E+02
  11.999  0.9213E+00  0.2915E+02
  12.009  0.9200E+00  0.2916E+02
  12.019  0.9189E+00  0.2917E+02
  12.029  0.9178E+00  0.2918E+02
  12.039  0.9169E+00  0.2919E+02
  12.049  0.9161E+00  0.2920E+02
  12.059  0.9154E+00  0.2921E+02
  12.069  0.9149E+00  0.2922E+02
  12.079  0.9144E+00  0.2923E+02
  12.089  0.9141E+00  0.2924E+02
  12.099  0.9140E+00  0.2925E+02
  12.109  0.9139E+00  0.2925E+02
  12.119  0.9140E+00  0.2926E+02
  12.129  0.9142E+00  0.2927E+02
  12.139  0.9145E+00  0.2928E+02
  12.149  0.9150E+00  0.2929E+02
  12.159  0.9156E+00  0.2930E+02
  12.169  0.9164E+00  0.2931E+02
  12.179  0.9173E+00  0.2932E+02
  12.189  0.9183E+00  0.2933E+02
  12.199  0.9195E+00  0.2934E+02
  12.209  0.9209E+00  0.2935E+02
  12.219  0.9223E+00  0.2936E+02
  12.229  0.9240E+00  0.2936E+02
  12.239  0.9257E+00  0.2937E+02
  12.249  0.9277E+00  0.2938E+02
  12.259  0.9297E+00  0.2939E+02
  12.269  0.9319E+00  0.2940E+02
  12.279  0.9343E+00  0.2941E+02
  12.289  0.9368E+00  0.2942E+02
  12.299  0.9394E+00  0.2943E+02
  12.309  0.9422E+00  0.2944E+02
  12.319  0.9450E+00  0.2945E+02
  12.329  0.9480E+00  0.2946E+02
  12.339  0.9511E+00  0.2947E+02
  12.349  0.9543E+00  0.2948E+02
  12.359  0.9576E+00  0.2949E+02
  12.369  0.9610E+00  0.2950E+02
  12.379  0.9645E+00  0.2951E+02
  12.389  0.9680E+00  0.2952E+02
  12.399  0.9716E+00  0.2953E+02
  12.409  0.9752E+00  0.2954E+02
  12.419  0.9789E+00  0.2955E+02
  12.429  0.9826E+00  0.2955E+02
  12.439  0.9863E+00  0.2956E+02
  12.449  0.9900E+00  0.2957E+02
  12.459  0.9936E+00  0.2958E+02
  12.469  0.9973E+00  0.2959E+02
  12.479  0.1001E+01  0.2960E+02
  12.489  0.1004E+01  0.2961E+02
  12.499  0.1008E+01  0.2962E+02
  12.509  0.1011E+01  0.2963E+02
  12.519  0.1015E+01  0.2964E+02
  12.529  0.1018E+01  0.2966E+02
  12.539  0.1021E+01  0.2967E+02
  12.549  0.1024E+01  0.2968E+02
  12.559  0.1027E+01  0.2969E+02
  12.569  0.1029E+01  0.2970E+02
  12.579  0.1032E+01  0.2971E+02
  12.589  0.1034E+01  0.2972E+02
  12.599  0.1036E+01  0.2973E+02
  12.609  0.1038E+01  0.2974E+02
  12.619  0.1040E+01  0.2975E+02
  12.629  0.1042E+01  0.2976E+02
  12.639  0.1043E+01  0.2977E+02
  12.649  0.1044E+01  0.2978E+02
  12.659  0.1045E+01  0.2979E+02
  12.669  0.1046E+01  0.2980E+02
  12.679  0.1046E+01  0.2981E+02
  12.689  0.1047E+01  0.2982E+02
  12.699  0.1047E+01  0.2983E+02
  12.709  0.1047E+01  0.2984E+02
  12.719  0.1047E+01  0.2985E+02
  12.729  0.1046E+01  0.2986E+02
  12.739  0.1046E+01  0.2987E+02
  12.749  0.1045E+01  0.2988E+02
  12.759  0.1044E+01  0.2989E+02
  12.769  0.1043E+01  0.2990E+02
  12.779  0.1042E+01  0.2992E+02
  12.789  0.1040E+01  0.2993E+02
  12.799  0.1039E+01  0.2994E+02
  12.809  0.1037E+01  0.2995E+02
  12.819  0.1036E+01  0.2996E+02
  12.829  0.1034E+01  0.2997E+02
  12.839  0.1032E+01  0.2998E+02
  12.849  0.1030E+01  0.2999E+02
  12.859  0.1028E+01  0.3000E+02
  12.869  0.1026E+01  0.3001E+02
  12.879  0.1023E+01  0.3002E+02
  12.889  0.1021E+01  0.3003E+02
  12.899  0.1019E+01  0.3004E+02
  12.909  0.1017E+01  0.3005E+02
  12.919  0.1015E+01  0.3006E+02
  12.929  0.1013E+01  0.3007E+02
  12.939  0.1011E+01  0.3008E+02
  12.949  0.1009E+01  0.3009E+02
  12.959  0.1007E+01  0.3010E+02
  12.969  0.1005E+01  0.3011E+02
  12.979  0.1003E+01  0.3012E+02
  12.989  0.1002E+01  0.3013E+02
  12.999  0.1000E+01  0.3014E+02
  13.009  0.9986E+00  0.3015E+02
  13.019  0.9974E+00  0.3016E+02
  13.029  0.9963E+00  0.3017E+02
  13.039  0.9954E+00  0.3018E+02
  13.049  0.9946E+00  0.3019E+02
  13.059  0.9940E+00  0.3020E+02
  13.069  0.9936E+00  0.3021E+02
  13.079  0.9933E+00  0.3022E+02
  13.089  0.9933E+00  0.3023E+02
  13.099  0.9934E+00  0.3024E+02
  13.109  0.9938E+00  0.3025E+02
  13.119  0.9944E+00  0.3026E+02
  13.129  0.9951E+00  0.3027E+02
  13.139  0.9961E+00  0.3028E+02
  13.149  0.9972E+00  0.3029E+02
  13.159  0.9986E+00  0.3030E+02
  13.169  0.1000E+01  0.3031E+02
  13.179  0.1002E+01  0.3032E+02
  13.189  0.1004E+01  0.3033E+02
  13.199  0.1006E+01  0.3034E+02
  13.209  0.1008E+01  0.3035E+02
  13.219  0.1011E+01  0.3036E+02
  13.229  0.1014E+01  0.3037E+02
  13.239  0.1017E+01  0.3038E+02
  13.249  0.1020E+01  0.3039E+02
  13.259  0.1023E+01  0.3040E+02
  13.269  0.1026E+01  0.3041E+02
  13.279  0.1030E+01  0.3042E+02
  13.289  0.1034E+01  0.3043E+02
  13.299  0.1038E+01  0.3044E+02
  13.309  0.1041E+01  0.3045E+02
  13.319  0.1046E+01  0.3046E+02
  13.329  0.1050E+01  0.3047E+02
  13.339  0.1054E+01  0.3048E+02
  13.349  0.1058E+01  0.3049E+02
  13.359  0.1063E+01  0.3050E+02
  13.369  0.1067E+01  0.3051E+02
  13.379  0.1072E+01  0.3053E+02
  13.389  0.1077E+01  0.3054E+02
  13.399  0.1081E+01  0.3055E+02
  13.409  0.1086E+01  0.3056E+02
  13.419  0.1091E+01  0.3057E+02
  13.429  0.1096E+01  0.3058E+02
  13.439  0.1100E+01  0.3059E+02
  13.449  0.1105E+01  0.3060E+02
  13.459  0.1110E+01  0.3061E+02
  13.469  0.1115E+01  0.3062E+02
  13.479  0.1119E+01  0.3064E+02
  13.489  0.1124E+01  0.3065E+02
  13.499  0.1129E+01  0.3066E+02
  13.509  0.1133E+01  0.3067E+02
  13.519  0.1138E+01  0.3068E+02
  13.529  0.1142E+01  0.3069E+02
  13.539  0.1147E+01  0.3070E+02
  13.549  0.1151E+01  0.3072E+02
  13.559  0.1155E+01  0.3073E+02
  13.569  0.1159E+01  0.3074E+02
  13.579  0.1163E+01  0.3075E+02
  13.589  0.1167E+01  0.3076E+02
  13.599  0.1171E+01  0.3077E+02
  13.609  0.1175E+01  0.3078E+02
  13.619  0.1178E+01  0.3080E+02
  13.629  0.1182E+01  0.3081E+02
  13.639  0.1185E+01  0.3082E+02
  13.649  0.1188E+01  0.3083E+02
  13.659  0.1191E+01  0.3084E+02
  13.669  0.1194E+01  0.3086E+02
  13.679  0.1197E+01  0.3087E+02
  13.689  0.1200E+01  0.3088E+02
  13.699  0.1202E+01  0.3089E+02
  13.709  0.1205E+01  0.3090E+02
  13.719  0.1207E+01  0.3092E+02
  13.729  0.1209E+01  0.3093E+02
  13.739  0.1212E+01  0.3094E+02
  13.749  0.1214E+01  0.3095E+02
  13.759  0.1215E+01  0.3096E+02
  13.769  0.1217E+01  0.3098E+02
  13.779  0.1219E+01  0.3099E+02
  13.789  0.1221E+01  0.3100E+02
  13.799  0.1222E+01  0.3101E+02
  13.809  0.1223E+01  0.3103E+02
  13.819  0.1225E+01  0.3104E+02
  13.829  0.1226E+01  0.3105E+02
  13.839  0.1227E+01  0.3106E+02
  13.849  0.1228E+01  0.3107E+02
  13.859  0.1229E+01  0.3109E+02
  13.869  0.1230E+01  0.3110E+02
  13.879  0.1231E+01  0.3111E+02
  13.889  0.1232E+01  0.3112E+02
  13.899  0.1232E+01  0.3114E+02
  13.909  0.1233E+01  0.3115E+02
  13.919  0.1234E+01  0.3116E+02
  13.929  0.1235E+01  0.3117E+02
  13.939  0.1235E+01  0.3119E+02
  13.949  0.1236E+01  0.3120E+02
  13.959  0.1236E+01  0.3121E+02
  13.969  0.1237E+01  0.3122E+02
  13.979  0.1238E+01  0.3124E+02
  13.989  0.1238E+01  0.3125E+02
  13.999  0.1239E+01  0.3126E+02
  14.009  0.1240E+01  0.3127E+02
  14.019  0.1240E+01  0.3128E+02
  14.029  0.1241E+01  0.3130E+02
  14.039  0.1242E+01  0.3131E+02
  14.049  0.1243E+01  0.3132E+02
  14.059  0.1244E+01  0.3133E+02
  14.069  0.1245E+01  0.3135E+02
  14.079  0.1246E+01  0.3136E+02
  14.089  0.1247E+01  0.3137E+02
  14.099  0.1249E+01  0.3138E+02
  14.109  0.1250E+01  0.3140E+02
  14.119  0.1252E+01  0.3141E+02
  14.129  0.1254E+01  0.3142E+02
  14.139  0.1256E+01  0.3143E+02
  14.149  0.1258E+01  0.3145E+02
  14.159  0.1260E+01  0.3146E+02
  14.169  0.1263E+01  0.3147E+02
  14.179  0.1265E+01  0.3148E+02
  14.189  0.1268E+01  0.3150E+02
  14.199  0.1271E+01  0.3151E+02
  14.209  0.1274E+01  0.3152E+02
  14.219  0.1278E+01  0.3154E+02
  14.229  0.1281E+01  0.3155E+02
  14.239  0.1285E+01  0.3156E+02
  14.249  0.1289E+01  0.3157E+02
  14.259  0.1293E+01  0.3159E+02
  14.269  0.1298E+01  0.3160E+02
  14.279  0.1302E+01  0.3161E+02
  14.289  0.1307E+01  0.3163E+02
  14.299  0.1312E+01  0.3164E+02
  14.309  0.1317E+01  0.3165E+02
  14.319  0.1323E+01  0.3167E+02
  14.329  0.1328E+01  0.3168E+02
  14.339  0.1334E+01  0.3169E+02
  14.349  0.1339E+01  0.3171E+02
  14.359  0.1345E+01  0.3172E+02
  14.369  0.1351E+01  0.3173E+02
  14.379  0.1357E+01  0.3175E+02
  14.389  0.1363E+01  0.3176E+02
  14.399  0.1369E+01  0.3177E+02
  14.409  0.1375E+01  0.3179E+02
  14.419  0.1382E+01  0.3180E+02
  14.429  0.1388E+01  0.3182E+02
  14.439  0.1394E+01  0.3183E+02
  14.449  0.1400E+01  0.3184E+02
  14.459  0.1406E+01  0.3186E+02
  14.469  0.1411E+01  0.3187E+02
  14.479  0.1417E+01  0.3189E+02
  14.489  0.1423E+01  0.3190E+02
  14.499  0.1428E+01  0.3191E+02
  14.509  0.1433E+01  0.3193E+02
  14.519  0.1438E+01  0.3194E+02
  14.529  0.1443E+01  0.3196E+02
  14.539  0.1447E+01  0.3197E+02
  14.549  0.1452E+01  0.3199E+02
  14.559  0.1456E+01  0.3200E+02
  14.569  0.1460E+01  0.3202E+02
  14.579  0.1463E+01  0.3203E+02
  14.589  0.1467E+01  0.3204E+02
  14.599  0.1470E+01  0.3206E+02
  14.609  0.1473E+01  0.3207E+02
  14.619  0.1475E+01  0.3209E+02
  14.629  0.1478E+01  0.3210E+02
  14.639  0.1480E+01  0.3212E+02
  14.649  0.1482E+01  0.3213E+02
  14.659  0.1484E+01  0.3215E+02
  14.669  0.1485E+01  0.3216E+02
  14.679  0.1486E+01  0.3218E+02
  14.689  0.1488E+01  0.3219E+02
  14.699  0.1488E+01  0.3221E+02
  14.709  0.1489E+01  0.3222E+02
  14.719  0.1490E+01  0.3224E+02
  14.729  0.1490E+01  0.3225E+02
  14.739  0.1491E+01  0.3227E+02
  14.749  0.1491E+01  0.3228E+02
  14.759  0.1491E+01  0.3230E+02
  14.769  0.1492E+01  0.3231E+02
  14.779  0.1492E+01  0.3233E+02
  14.789  0.1492E+01  0.3234E+02
  14.799  0.1492E+01  0.3236E+02
  14.809  0.1492E+01  0.3237E+02
  14.819  0.1492E+01  0.3239E+02
  14.829  0.1492E+01  0.3240E+02
  14.839  0.1492E+01  0.3242E+02
  14.849  0.1493E+01  0.3243E+02
  14.859  0.1493E+01  0.3245E+02
  14.869  0.1493E+01  0.3246E+02
  14.879  0.1493E+01  0.3248E+02
  14.889  0.1494E+01  0.3249E+02
  14.899  0.1494E+01  0.3251E+02
  14.909  0.1495E+01  0.3252E+02
  14.919  0.1495E+01  0.3254E+02
  14.929  0.1496E+01  0.3255E+02
  14.939  0.1497E+01  0.3257E+02
  14.949  0.1498E+01  0.3258E+02
  14.959  0.1498E+01  0.3260E+02
  14.969  0.1499E+01  0.3261E+02
  14.979  0.1500E+01  0.3263E+02
  14.989  0.1501E+01  0.3264E+02
  14.999  0.1502E+01  0.3266E+02
  15.009  0.1503E+01  0.3267E+02
  15.019  0.1504E+01  0.3269E+02
  15.029  0.1505E+01  0.3270E+02
  15.039  0.1506E+01  0.3272E+02
  15.049  0.1506E+01  0.3273E+02
  15.059  0.1507E+01  0.3275E+02
  15.069  0.1508E+01  0.3276E+02
  15.079  0.1509E+01  0.3278E+02
  15.089  0.1509E+01  0.3279E+02
  15.099  0.1510E+01  0.3281E+02
  15.109  0.1510E+01  0.3282E+02
  15.119  0.1510E+01  0.3284E+02
  15.129  0.1510E+01  0.3285E+02
  15.139  0.1511E+01  0.3287E+02
  15.149  0.1510E+01  0.3288E+02
  15.159  0.1510E+01  0.3290E+02
  15.169  0.1510E+01  0.3291E+02
  15.179  0.1509E+01  0.3293E+02
  15.189  0.1509E+01  0.3294E+02
  15.199  0.1508E+01  0.3296E+02
  15.209  0.1507E+01  0.3297E+02
  15.219  0.1506E+01  0.3299E+02
  15.229  0.1505E+01  0.3300E+02
  15.239  0.1503E+01  0.3302E+02
  15.249  0.1502E+01  0.3303E+02
  15.259  0.1500E+01  0.3305E+02
  15.269  0.1498E+01  0.3306E+02
  15.279  0.1497E+01  0.3308E+02
  15.289  0.1495E+01  0.3309E+02
  15.299  0.1492E+01  0.3311E+02
  15.309  0.1490E+01  0.3312E+02
  15.319  0.1488E+01  0.3314E+02
  15.329  0.1485E+01  0.3315E+02
  15.339  0.1483E+01  0.3317E+02
  15.349  0.1480E+01  0.3318E+02
  15.359  0.1478E+01  0.3320E+02
  15.369  0.1475E+01  0.3321E+02
  15.379  0.1472E+01  0.3323E+02
  15.389  0.1469E+01  0.3324E+02
  15.399  0.1466E+01  0.3326E+02
  15.409  0.1463E+01  0.3327E+02
  15.419  0.1460E+01  0.3328E+02
  15.429  0.1457E+01  0.3330E+02
  15.439  0.1454E+01  0.3331E+02
  15.449  0.1451E+01  0.3333E+02
  15.459  0.1447E+01  0.3334E+02
  15.469  0.1444E+01  0.3336E+02
  15.479  0.1441E+01  0.3337E+02
  15.489  0.1437E+01  0.3339E+02
  15.499  0.1434E+01  0.3340E+02
  15.509  0.1431E+01  0.3341E+02
  15.519  0.1427E+01  0.3343E+02
  15.529  0.1424E+01  0.3344E+02
  15.539  0.1420E+01  0.3346E+02
  15.549  0.1417E+01  0.3347E+02
  15.559  0.1413E+01  0.3349E+02
  15.569  0.1409E+01  0.3350E+02
  15.579  0.1406E+01  0.3351E+02
  15.589  0.1402E+01  0.3353E+02
  15.599  0.1398E+01  0.3354E+02
  15.609  0.1394E+01  0.3356E+02
  15.619  0.1390E+01  0.3357E+02
  15.629  0.1387E+01  0.3358E+02
  15.639  0.1383E+01  0.3360E+02
  15.649  0.1379E+01  0.3361E+02
  15.659  0.1375E+01  0.3362E+02
  15.669  0.1371E+01  0.3364E+02
  15.679  0.1367E+01  0.3365E+02
  15.689  0.1362E+01  0.3367E+02
  15.699  0.1358E+01  0.3368E+02
  15.709  0.1354E+01  0.3369E+02
  15.719  0.1350E+01  0.3371E+02
  15.729  0.1346E+01  0.3372E+02
  15.739  0.1342E+01  0.3373E+02
  15.749  0.1337E+01  0.3375E+02
  15.759  0.1333E+01  0.3376E+02
  15.769  0.1329E+01  0.3377E+02
  15.779  0.1325E+01  0.3379E+02
  15.789  0.1321E+01  0.3380E+02
  15.799  0.1317E+01  0.3381E+02
  15.809  0.1313E+01  0.3383E+02
  15.819  0.1309E+01  0.3384E+02
  15.829  0.1305E+01  0.3385E+02
  15.839  0.1301E+01  0.3387E+02
  15.849  0.1298E+01  0.3388E+02
  15.859  0.1294E+01  0.3389E+02
  15.869  0.1291E+01  0.3390E+02
  15.879  0.1287E+01  0.3392E+02
  15.889  0.1284E+01  0.3393E+02
  15.899  0.1281E+01  0.3394E+02
  15.909  0.1278E+01  0.3396E+02
  15.919  0.1276E+01  0.3397E+02
  15.929  0.1273E+01  0.3398E+02
  15.939  0.1271E+01  0.3399E+02
  15.949  0.1269E+01  0.3401E+02
  15.959  0.1267E+01  0.3402E+02
  15.969  0.1265E+01  0.3403E+02
  15.979  0.1263E+01  0.3404E+02
  15.989  0.1262E+01  0.3406E+02
  15.999  0.1261E+01  0.3407E+02
  16.009  0.1260E+01  0.3408E+02
  16.019  0.1259E+01  0.3409E+02
  16.029  0.1259E+01  0.3411E+02
  16.039  0.1258E+01  0.3412E+02
  16.049  0.1258E+01  0.3413E+02
  16.059  0.1258E+01  0.3414E+02
  16.069  0.1258E+01  0.3416E+02
  16.079  0.1258E+01  0.3417E+02
  16.089  0.1259E+01  0.3418E+02
  16.099  0.1259E+01  0.3420E+02
  16.109  0.1260E+01  0.3421E+02
  16.119  0.1260E+01  0.3422E+02
  16.129  0.1261E+01  0.3423E+02
  16.139  0.1262E+01  0.3425E+02
  16.149  0.1263E+01  0.3426E+02
  16.159  0.1263E+01  0.3427E+02
  16.169  0.1264E+01  0.3428E+02
  16.179  0.1265E+01  0.3430E+02
  16.189  0.1266E+01  0.3431E+02
  16.199  0.1267E+01  0.3432E+02
  16.209  0.1268E+01  0.3433E+02
  16.219  0.1269E+01  0.3435E+02
  16.229  0.1270E+01  0.3436E+02
  16.239  0.1270E+01  0.3437E+02
  16.249  0.1271E+01  0.3438E+02
  16.259  0.1272E+01  0.3440E+02
  16.269  0.1272E+01  0.3441E+02
  16.279  0.1273E+01  0.3442E+02
  16.289  0.1273E+01  0.3444E+02
  16.299  0.1273E+01  0.3445E+02
  16.309  0.1273E+01  0.3446E+02
  16.319  0.1274E+01  0.3447E+02
  16.329  0.1274E+01  0.3449E+02
  16.339  0.1274E+01  0.3450E+02
  16.349  0.1273E+01  0.3451E+02
  16.359  0.1273E+01  0.3452E+02
  16.369  0.1273E+01  0.3454E+02
  16.379  0.1273E+01  0.3455E+02
  16.389  0.1273E+01  0.3456E+02
  16.399  0.1272E+01  0.3458E+02
  16.409  0.1272E+01  0.3459E+02
  16.419  0.1271E+01  0.3460E+02
  16.429  0.1271E+01  0.3461E+02
  16.439  0.1271E+01  0.3463E+02
  16.449  0.1270E+01  0.3464E+02
  16.459  0.1270E+01  0.3465E+02
  16.469  0.1270E+01  0.3466E+02
  16.479  0.1269E+01  0.3468E+02
  16.489  0.1269E+01  0.3469E+02
  16.499  0.1269E+01  0.3470E+02
  16.509  0.1269E+01  0.3472E+02
  16.519  0.1269E+01  0.3473E+02
  16.529  0.1269E+01  0.3474E+02
  16.539  0.1269E+01  0.3475E+02
  16.549  0.1270E+01  0.3477E+02
  16.559  0.1270E+01  0.3478E+02
  16.569  0.1271E+01  0.3479E+02
  16.579  0.1271E+01  0.3480E+02
  16.589  0.1272E+01  0.3482E+02
  16.599  0.1273E+01  0.3483E+02
  16.609  0.1274E+01  0.3484E+02
  16.619  0.1275E+01  0.3486E+02
  16.629  0.1276E+01  0.3487E+02
  16.639  0.1277E+01  0.3488E+02
  16.649  0.1278E+01  0.3489E+02
  16.659  0.1280E+01  0.3491E+02
  16.669  0.1281E+01  0.3492E+02
  16.679  0.1283E+01  0.3493E+02
  16.689  0.1284E+01  0.3494E+02
  16.699  0.1286E+01  0.3496E+02
  16.709  0.1287E+01  0.3497E+02
  16.719  0.1289E+01  0.3498E+02
  16.729  0.1291E+01  0.3500E+02
  16.739  0.1292E+01  0.3501E+02
  16.749  0.1294E+01  0.3502E+02
  16.759  0.1296E+01  0.3504E+02
  16.769  0.1297E+01  0.3505E+02
  16.779  0.1299E+01  0.3506E+02
  16.789  0.1300E+01  0.3507E+02
  16.799  0.1301E+01  0.3509E+02
  16.809  0.1303E+01  0.3510E+02
  16.819  0.1304E+01  0.3511E+02
  16.829  0.1305E+01  0.3513E+02
  16.839  0.1306E+01  0.3514E+02
  16.849  0.1307E+01  0.3515E+02
  16.859  0.1308E+01  0.3517E+02
  16.869  0.1309E+01  0.3518E+02
  16.879  0.1310E+01  0.3519E+02
  16.889  0.1310E+01  0.3520E+02
  16.899  0.1311E+01  0.3522E+02
  16.909  0.1311E+01  0.3523E+02
  16.919  0.1311E+01  0.3524E+02
  16.929  0.1311E+01  0.3526E+02
  16.939  0.1312E+01  0.3527E+02
  16.949  0.1312E+01  0.3528E+02
  16.959  0.1311E+01  0.3530E+02
  16.969  0.1311E+01  0.3531E+02
  16.979  0.1311E+01  0.3532E+02
  16.989  0.1311E+01  0.3534E+02
  16.999  0.1310E+01  0.3535E+02
  17.009  0.1310E+01  0.3536E+02
  17.019  0.1310E+01  0.3538E+02
  17.029  0.1309E+01  0.3539E+02
  17.039  0.1309E+01  0.3540E+02
  17.049  0.1308E+01  0.3541E+02
  17.059  0.1308E+01  0.3543E+02
  17.069  0.1307E+01  0.3544E+02
  17.079  0.1307E+01  0.3545E+02
  17.089  0.1306E+01  0.3547E+02
  17.099  0.1306E+01  0.3548E+02
  17.109  0.1305E+01  0.3549E+02
  17.119  0.1305E+01  0.3551E+02
  17.129  0.1304E+01  0.3552E+02
  17.139  0.1304E+01  0.3553E+02
  17.149  0.1303E+01  0.3555E+02
  17.159  0.1303E+01  0.3556E+02
  17.169  0.1303E+01  0.3557E+02
  17.179  0.1302E+01  0.3558E+02
  17.189  0.1302E+01  0.3560E+02
  17.199  0.1301E+01  0.3561E+02
  17.209  0.1301E+01  0.3562E+02
  17.219  0.1300E+01  0.3564E+02
  17.229  0.1300E+01  0.3565E+02
  17.239  0.1299E+01  0.3566E+02
  17.249  0.1299E+01  0.3568E+02
  17.259  0.1298E+01  0.3569E+02
  17.269  0.1298E+01  0.3570E+02
  17.279  0.1297E+01  0.3571E+02
  17.289  0.1296E+01  0.3573E+02
  17.299  0.1296E+01  0.3574E+02
  17.309  0.1295E+01  0.3575E+02
  17.319  0.1294E+01  0.3577E+02
  17.329  0.1293E+01  0.3578E+02
  17.339  0.1292E+01  0.3579E+02
  17.349  0.1291E+01  0.3580E+02
  17.359  0.1289E+01  0.3582E+02
  17.369  0.1288E+01  0.3583E+02
  17.379  0.1286E+01  0.3584E+02
  17.389  0.1285E+01  0.3586E+02
  17.399  0.1283E+01  0.3587E+02
  17.409  0.1281E+01  0.3588E+02
  17.419  0.1279E+01  0.3589E+02
  17.429  0.1277E+01  0.3591E+02
  17.439  0.1274E+01  0.3592E+02
  17.449  0.1272E+01  0.3593E+02
  17.459  0.1269E+01  0.3595E+02
  17.469  0.1267E+01  0.3596E+02
  17.479  0.1264E+01  0.3597E+02
  17.489  0.1261E+01  0.3598E+02
  17.499  0.1258E+01  0.3600E+02
  17.509  0.1255E+01  0.3601E+02
  17.519  0.1252E+01  0.3602E+02
  17.529  0.1249E+01  0.3603E+02
  17.539  0.1245E+01  0.3605E+02
  17.549  0.1242E+01  0.3606E+02
  17.559  0.1238E+01  0.3607E+02
  17.569  0.1234E+01  0.3608E+02
  17.579  0.1231E+01  0.3610E+02
  17.589  0.1227E+01  0.3611E+02
  17.599  0.1223E+01  0.3612E+02
  17.609  0.1220E+01  0.3613E+02
  17.619  0.1216E+01  0.3614E+02
  17.629  0.1212E+01  0.3616E+02
  17.639  0.1208E+01  0.3617E+02
  17.649  0.1204E+01  0.3618E+02
  17.659  0.1200E+01  0.3619E+02
  17.669  0.1196E+01  0.3620E+02
  17.679  0.1193E+01  0.3622E+02
  17.689  0.1189E+01  0.3623E+02
  17.699  0.1185E+01  0.3624E+02
  17.709  0.1182E+01  0.3625E+02
  17.719  0.1178E+01  0.3626E+02
  17.729  0.1174E+01  0.3628E+02
  17.739  0.1171E+01  0.3629E+02
  17.749  0.1167E+01  0.3630E+02
  17.759  0.1164E+01  0.3631E+02
  17.769  0.1161E+01  0.3632E+02
  17.779  0.1158E+01  0.3633E+02
  17.789  0.1155E+01  0.3635E+02
  17.799  0.1152E+01  0.3636E+02
  17.809  0.1149E+01  0.3637E+02
  17.819  0.1146E+01  0.3638E+02
  17.829  0.1144E+01  0.3639E+02
  17.839  0.1141E+01  0.3640E+02
  17.849  0.1139E+01  0.3641E+02
  17.859  0.1137E+01  0.3643E+02
  17.869  0.1135E+01  0.3644E+02
  17.879  0.1133E+01  0.3645E+02
  17.889  0.1131E+01  0.3646E+02
  17.899  0.1129E+01  0.3647E+02
  17.909  0.1127E+01  0.3648E+02
  17.919  0.1126E+01  0.3649E+02
  17.929  0.1125E+01  0.3650E+02
  17.939  0.1123E+01  0.3652E+02
  17.949  0.1122E+01  0.3653E+02
  17.959  0.1121E+01  0.3654E+02
  17.969  0.1120E+01  0.3655E+02
  17.979  0.1119E+01  0.3656E+02
  17.989  0.1119E+01  0.3657E+02
  17.999  0.1118E+01  0.3658E+02
  18.009  0.1118E+01  0.3659E+02
  18.019  0.1117E+01  0.3661E+02
  18.029  0.1117E+01  0.3662E+02
  18.039  0.1116E+01  0.3663E+02
  18.049  0.1116E+01  0.3664E+02
  18.059  0.1116E+01  0.3665E+02
  18.069  0.1116E+01  0.3666E+02
  18.079  0.1116E+01  0.3667E+02
  18.089  0.1116E+01  0.3668E+02
  18.099  0.1116E+01  0.3669E+02
  18.109  0.1116E+01  0.3671E+02
  18.119  0.1117E+01  0.3672E+02
  18.129  0.1117E+01  0.3673E+02
  18.139  0.1117E+01  0.3674E+02
  18.149  0.1117E+01  0.3675E+02
  18.159  0.1118E+01  0.3676E+02
  18.169  0.1118E+01  0.3677E+02
  18.179  0.1118E+01  0.3678E+02
  18.189  0.1118E+01  0.3680E+02
  18.199  0.1118E+01  0.3681E+02
  18.209  0.1119E+01  0.3682E+02
  18.219  0.1119E+01  0.3683E+02
  18.229  0.1119E+01  0.3684E+02
  18.239  0.1119E+01  0.3685E+02
  18.249  0.1119E+01  0.3686E+02
  18.259  0.1119E+01  0.3687E+02
  18.269  0.1119E+01  0.3688E+02
  18.279  0.1119E+01  0.3690E+02
  18.289  0.1119E+01  0.3691E+02
  18.299  0.1118E+01  0.3692E+02
  18.309  0.1118E+01  0.3693E+02
  18.319  0.1117E+01  0.3694E+02
  18.329  0.1117E+01  0.3695E+02
  18.339  0.1116E+01  0.3696E+02
  18.349  0.1116E+01  0.3697E+02
  18.359  0.1115E+01  0.3699E+02
  18.369  0.1114E+01  0.3700E+02
  18.379  0.1113E+01  0.3701E+02
  18.389  0.1112E+01  0.3702E+02
  18.399  0.1111E+01  0.3703E+02
  18.409  0.1110E+01  0.3704E+02
  18.419  0.1108E+01  0.3705E+02
  18.429  0.1107E+01  0.3706E+02
  18.439  0.1106E+01  0.3707E+02
  18.449  0.1104E+01  0.3709E+02
  18.459  0.1103E+01  0.3710E+02
  18.469  0.1101E+01  0.3711E+02
  18.479  0.1099E+01  0.3712E+02
  18.489  0.1098E+01  0.3713E+02
  18.499  0.1096E+01  0.3714E+02
  18.509  0.1094E+01  0.3715E+02
  18.519  0.1093E+01  0.3716E+02
  18.529  0.1091E+01  0.3717E+02
  18.539  0.1089E+01  0.3718E+02
  18.549  0.1087E+01  0.3719E+02
  18.559  0.1086E+01  0.3721E+02
  18.569  0.1084E+01  0.3722E+02
  18.579  0.1083E+01  0.3723E+02
  18.589  0.1081E+01  0.3724E+02
  18.599  0.1080E+01  0.3725E+02
  18.609  0.1079E+01  0.3726E+02
  18.619  0.1077E+01  0.3727E+02
  18.629  0.1076E+01  0.3728E+02
  18.639  0.1075E+01  0.3729E+02
  18.649  0.1075E+01  0.3730E+02
  18.659  0.1074E+01  0.3731E+02
  18.669  0.1073E+01  0.3732E+02
  18.679  0.1073E+01  0.3733E+02
  18.689  0.1073E+01  0.3735E+02
  18.699  0.1073E+01  0.3736E+02
  18.709  0.1073E+01  0.3737E+02
  18.719  0.1073E+01  0.3738E+02
  18.729  0.1074E+01  0.3739E+02
  18.739  0.1075E+01  0.3740E+02
  18.749  0.1076E+01  0.3741E+02
  18.759  0.1077E+01  0.3742E+02
  18.769  0.1078E+01  0.3743E+02
  18.779  0.1080E+01  0.3744E+02
  18.789  0.1082E+01  0.3745E+02
  18.799  0.1084E+01  0.3746E+02
  18.809  0.1087E+01  0.3747E+02
  18.819  0.1089E+01  0.3749E+02
  18.829  0.1092E+01  0.3750E+02
  18.839  0.1095E+01  0.3751E+02
  18.849  0.1098E+01  0.3752E+02
  18.859  0.1102E+01  0.3753E+02
  18.869  0.1106E+01  0.3754E+02
  18.879  0.1110E+01  0.3755E+02
  18.889  0.1114E+01  0.3756E+02
  18.899  0.1118E+01  0.3757E+02
  18.909  0.1123E+01  0.3759E+02
  18.919  0.1128E+01  0.3760E+02
  18.929  0.1133E+01  0.3761E+02
  18.939  0.1138E+01  0.3762E+02
  18.949  0.1143E+01  0.3763E+02
  18.959  0.1148E+01  0.3764E+02
  18.969  0.1154E+01  0.3765E+02
  18.979  0.1159E+01  0.3767E+02
  18.989  0.1165E+01  0.3768E+02
  18.999  0.1170E+01  0.3769E+02
  19.009  0.1176E+01  0.3770E+02
  19.019  0.1182E+01  0.3771E+02
  19.029  0.1188E+01  0.3772E+02
  19.039  0.1193E+01  0.3774E+02
  19.049  0.1199E+01  0.3775E+02
  19.059  0.1205E+01  0.3776E+02
  19.069  0.1210E+01  0.3777E+02
  19.079  0.1216E+01  0.3778E+02
  19.089  0.1222E+01  0.3780E+02
  19.099  0.1227E+01  0.3781E+02
  19.109  0.1232E+01  0.3782E+02
  19.119  0.1237E+01  0.3783E+02
  19.129  0.1242E+01  0.3785E+02
  19.139  0.1247E+01  0.3786E+02
  19.149  0.1252E+01  0.3787E+02
  19.159  0.1256E+01  0.3788E+02
  19.169  0.1261E+01  0.3790E+02
  19.179  0.1265E+01  0.3791E+02
  19.189  0.1269E+01  0.3792E+02
  19.199  0.1272E+01  0.3793E+02
  19.209  0.1276E+01  0.3795E+02
  19.219  0.1279E+01  0.3796E+02
  19.229  0.1282E+01  0.3797E+02
  19.239  0.1285E+01  0.3799E+02
  19.249  0.1288E+01  0.3800E+02
  19.259  0.1290E+01  0.3801E+02
  19.269  0.1292E+01  0.3802E+02
  19.279  0.1294E+01  0.3804E+02
  19.289  0.1296E+01  0.3805E+02
  19.299  0.1298E+01  0.3806E+02
  19.309  0.1299E+01  0.3808E+02
  19.319  0.1301E+01  0.3809E+02
  19.329  0.1302E+01  0.3810E+02
  19.339  0.1303E+01  0.3811E+02
  19.349  0.1304E+01  0.3813E+02
  19.359  0.1304E+01  0.3814E+02
  19.369  0.1305E+01  0.3815E+02
  19.379  0.1305E+01  0.3817E+02
  19.389  0.1306E+01  0.3818E+02
  19.399  0.1306E+01  0.3819E+02
  19.409  0.1306E+01  0.3821E+02
  19.419  0.1306E+01  0.3822E+02
  19.429  0.1306E+01  0.3823E+02
  19.439  0.1306E+01  0.3825E+02
  19.449  0.1306E+01  0.3826E+02
  19.459  0.1306E+01  0.3827E+02
  19.469  0.1306E+01  0.3828E+02
  19.479  0.1305E+01  0.3830E+02
  19.489  0.1305E+01  0.3831E+02
  19.499  0.1305E+01  0.3832E+02
  19.509  0.1304E+01  0.3834E+02
  19.519  0.1304E+01  0.3835E+02
  19.529  0.1304E+01  0.3836E+02
  19.539  0.1303E+01  0.3838E+02
  19.549  0.1303E+01  0.3839E+02
  19.559  0.1302E+01  0.3840E+02
  19.569  0.1302E+01  0.3842E+02
  19.579  0.1301E+01  0.3843E+02
  19.589  0.1300E+01  0.3844E+02
  19.599  0.1300E+01  0.3845E+02
  19.609  0.1299E+01  0.3847E+02
  19.619  0.1298E+01  0.3848E+02
  19.629  0.1298E+01  0.3849E+02
  19.639  0.1297E+01  0.3851E+02
  19.649  0.1296E+01  0.3852E+02
  19.659  0.1295E+01  0.3853E+02
  19.669  0.1294E+01  0.3854E+02
  19.679  0.1293E+01  0.3856E+02
  19.689  0.1291E+01  0.3857E+02
  19.699  0.1290E+01  0.3858E+02
  19.709  0.1289E+01  0.3860E+02
  19.719  0.1287E+01  0.3861E+02
  19.729  0.1286E+01  0.3862E+02
  19.739  0.1284E+01  0.3864E+02
  19.749  0.1282E+01  0.3865E+02
  19.759  0.1281E+01  0.3866E+02
  19.769  0.1279E+01  0.3867E+02
  19.779  0.1277E+01  0.3869E+02
  19.789  0.1275E+01  0.3870E+02
  19.799  0.1273E+01  0.3871E+02
  19.809  0.1271E+01  0.3872E+02
  19.819  0.1269E+01  0.3874E+02
  19.829  0.1267E+01  0.3875E+02
  19.839  0.1264E+01  0.3876E+02
  19.849  0.1262E+01  0.3878E+02
  19.859  0.1260E+01  0.3879E+02
  19.869  0.1258E+01  0.3880E+02
  19.879  0.1256E+01  0.3881E+02
  19.889  0.1254E+01  0.3883E+02
  19.899  0.1251E+01  0.3884E+02
  19.909  0.1249E+01  0.3885E+02
  19.919  0.1247E+01  0.3886E+02
  19.929  0.1246E+01  0.3888E+02
  19.939  0.1244E+01  0.3889E+02
  19.949  0.1242E+01  0.3890E+02
  19.959  0.1240E+01  0.3891E+02
  19.969  0.1239E+01  0.3892E+02
  19.979  0.1237E+01  0.3894E+02
  19.989  0.1236E+01  0.3895E+02
  19.999  0.1235E+01  0.3896E+02
  20.009  0.1234E+01  0.3897E+02
  20.019  0.1233E+01  0.3899E+02
  20.029  0.1233E+01  0.3900E+02
  20.039  0.1232E+01  0.3901E+02
  20.049  0.1232E+01  0.3902E+02
  20.059  0.1232E+01  0.3904E+02
  20.069  0.1232E+01  0.3905E+02
  20.079  0.1232E+01  0.3906E+02
  20.089  0.1232E+01  0.3907E+02
  20.099  0.1233E+01  0.3909E+02
  20.109  0.1233E+01  0.3910E+02
  20.119  0.1234E+01  0.3911E+02
  20.129  0.1235E+01  0.3912E+02
  20.139  0.1236E+01  0.3913E+02
  20.149  0.1237E+01  0.3915E+02
  20.159  0.1239E+01  0.3916E+02
  20.169  0.1240E+01  0.3917E+02
  20.179  0.1242E+01  0.3918E+02
  20.189  0.1244E+01  0.3920E+02
  20.199  0.1246E+01  0.3921E+02
  20.209  0.1248E+01  0.3922E+02
  20.219  0.1250E+01  0.3923E+02
  20.229  0.1253E+01  0.3925E+02
  20.239  0.1255E+01  0.3926E+02
  20.249  0.1258E+01  0.3927E+02
  20.259  0.1261E+01  0.3928E+02
  20.269  0.1263E+01  0.3930E+02
  20.279  0.1266E+01  0.3931E+02
  20.289  0.1269E+01  0.3932E+02
  20.299  0.1272E+01  0.3934E+02
  20.309  0.1276E+01  0.3935E+02
  20.319  0.1279E+01  0.3936E+02
  20.329  0.1282E+01  0.3937E+02
  20.339  0.1286E+01  0.3939E+02
  20.349  0.1290E+01  0.3940E+02
  20.359  0.1293E+01  0.3941E+02
  20.369  0.1297E+01  0.3943E+02
  20.379  0.1301E+01  0.3944E+02
  20.389  0.1305E+01  0.3945E+02
  20.399  0.1310E+01  0.3946E+02
  20.409  0.1314E+01  0.3948E+02
  20.419  0.1319E+01  0.3949E+02
  20.429  0.1324E+01  0.3950E+02
  20.439  0.1328E+01  0.3952E+02
  20.449  0.1334E+01  0.3953E+02
  20.459  0.1339E+01  0.3954E+02
  20.469  0.1344E+01  0.3956E+02
  20.479  0.1350E+01  0.3957E+02
  20.489  0.1356E+01  0.3958E+02
  20.499  0.1362E+01  0.3960E+02
  20.509  0.1368E+01  0.3961E+02
  20.519  0.1374E+01  0.3963E+02
  20.529  0.1381E+01  0.3964E+02
  20.539  0.1388E+01  0.3965E+02
  20.549  0.1395E+01  0.3967E+02
  20.559  0.1402E+01  0.3968E+02
  20.569  0.1410E+01  0.3970E+02
  20.579  0.1417E+01  0.3971E+02
  20.589  0.1425E+01  0.3972E+02
  20.599  0.1433E+01  0.3974E+02
  20.609  0.1441E+01  0.3975E+02
  20.619  0.1450E+01  0.3977E+02
  20.629  0.1458E+01  0.3978E+02
  20.639  0.1467E+01  0.3980E+02
  20.649  0.1475E+01  0.3981E+02
  20.659  0.1484E+01  0.3983E+02
  20.669  0.1493E+01  0.3984E+02
  20.679  0.1502E+01  0.3986E+02
  20.689  0.1511E+01  0.3987E+02
  20.699  0.1520E+01  0.3989E+02
  20.709  0.1529E+01  0.3990E+02
  20.719  0.1538E+01  0.3992E+02
  20.729  0.1547E+01  0.3993E+02
  20.739  0.1556E+01  0.3995E+02
  20.749  0.1565E+01  0.3996E+02
  20.759  0.1573E+01  0.3998E+02
  20.769  0.1582E+01  0.3999E+02
  20.779  0.1590E+01  0.4001E+02
  20.789  0.1598E+01  0.4003E+02
  20.799  0.1606E+01  0.4004E+02
  20.809  0.1614E+01  0.4006E+02
  20.819  0.1621E+01  0.4008E+02
  20.829  0.1629E+01  0.4009E+02
  20.839  0.1635E+01  0.4011E+02
  20.849  0.1642E+01  0.4012E+02
  20.859  0.1648E+01  0.4014E+02
  20.869  0.1654E+01  0.4016E+02
  20.879  0.1660E+01  0.4017E+02
  20.889  0.1665E+01  0.4019E+02
  20.899  0.1670E+01  0.4021E+02
  20.909  0.1675E+01  0.4022E+02
  20.919  0.1679E+01  0.4024E+02
  20.929  0.1682E+01  0.4026E+02
  20.939  0.1686E+01  0.4027E+02
  20.949  0.1689E+01  0.4029E+02
  20.959  0.1691E+01  0.4031E+02
  20.969  0.1693E+01  0.4033E+02
  20.979  0.1695E+01  0.4034E+02
  20.989  0.1697E+01  0.4036E+02
  20.999  0.1698E+01  0.4038E+02
  21.009  0.1699E+01  0.4039E+02
  21.019  0.1699E+01  0.4041E+02
  21.029  0.1699E+01  0.4043E+02
  21.039  0.1698E+01  0.4044E+02
  21.049  0.1698E+01  0.4046E+02
  21.059  0.1697E+01  0.4048E+02
  21.069  0.1696E+01  0.4049E+02
  21.079  0.1694E+01  0.4051E+02
  21.089  0.1692E+01  0.4053E+02
  21.099  0.1690E+01  0.4055E+02
  21.109  0.1688E+01  0.4056E+02
  21.119  0.1685E+01  0.4058E+02
  21.129  0.1682E+01  0.4060E+02
  21.139  0.1679E+01  0.4061E+02
  21.149  0.1676E+01  0.4063E+02
  21.159  0.1672E+01  0.4065E+02
  21.169  0.1668E+01  0.4066E+02
  21.179  0.1665E+01  0.4068E+02
  21.189  0.1661E+01  0.4070E+02
  21.199  0.1656E+01  0.4071E+02
  21.209  0.1652E+01  0.4073E+02
  21.219  0.1648E+01  0.4075E+02
  21.229  0.1643E+01  0.4076E+02
  21.239  0.1639E+01  0.4078E+02
  21.249  0.1634E+01  0.4080E+02
  21.259  0.1629E+01  0.4081E+02
  21.269  0.1625E+01  0.4083E+02
  21.279  0.1620E+01  0.4084E+02
  21.289  0.1615E+01  0.4086E+02
  21.299  0.1610E+01  0.4088E+02
  21.309  0.1606E+01  0.4089E+02
  21.319  0.1601E+01  0.4091E+02
  21.329  0.1596E+01  0.4092E+02
  21.339  0.1591E+01  0.4094E+02
  21.349  0.1587E+01  0.4096E+02
  21.359  0.1582E+01  0.4097E+02
  21.369  0.1578E+01  0.4099E+02
  21.379  0.1573E+01  0.4100E+02
  21.389  0.1569E+01  0.4102E+02
  21.399  0.1565E+01  0.4103E+02
  21.409  0.1561E+01  0.4105E+02
  21.419  0.1557E+01  0.4107E+02
  21.429  0.1554E+01  0.4108E+02
  21.439  0.1550E+01  0.4110E+02
  21.449  0.1547E+01  0.4111E+02
  21.459  0.1544E+01  0.4113E+02
  21.469  0.1541E+01  0.4114E+02
  21.479  0.1538E+01  0.4116E+02
  21.489  0.1536E+01  0.4117E+02
  21.499  0.1534E+01  0.4119E+02
  21.509  0.1532E+01  0.4120E+02
  21.519  0.1530E+01  0.4122E+02
  21.529  0.1528E+01  0.4124E+02
  21.539  0.1527E+01  0.4125E+02
  21.549  0.1526E+01  0.4127E+02
  21.559  0.1525E+01  0.4128E+02
  21.569  0.1524E+01  0.4130E+02
  21.579  0.1524E+01  0.4131E+02
  21.589  0.1524E+01  0.4133E+02
  21.599  0.1524E+01  0.4134E+02
  21.609  0.1524E+01  0.4136E+02
  21.619  0.1524E+01  0.4137E+02
  21.629  0.1524E+01  0.4139E+02
  21.639  0.1525E+01  0.4140E+02
  21.649  0.1526E+01  0.4142E+02
  21.659  0.1526E+01  0.4143E+02
  21.669  0.1527E+01  0.4145E+02
  21.679  0.1528E+01  0.4146E+02
  21.689  0.1529E+01  0.4148E+02
  21.699  0.1531E+01  0.4149E+02
  21.709  0.1532E+01  0.4151E+02
  21.719  0.1533E+01  0.4153E+02
  21.729  0.1534E+01  0.4154E+02
  21.739  0.1535E+01  0.4156E+02
  21.749  0.1537E+01  0.4157E+02
  21.759  0.1538E+01  0.4159E+02
  21.769  0.1539E+01  0.4160E+02
  21.779  0.1540E+01  0.4162E+02
  21.789  0.1541E+01  0.4163E+02
  21.799  0.1542E+01  0.4165E+02
  21.809  0.1543E+01  0.4166E+02
  21.819  0.1544E+01  0.4168E+02
  21.829  0.1545E+01  0.4169E+02
  21.839  0.1546E+01  0.4171E+02
  21.849  0.1547E+01  0.4173E+02
  21.859  0.1548E+01  0.4174E+02
  21.869  0.1548E+01  0.4176E+02
  21.879  0.1549E+01  0.4177E+02
  21.889  0.1550E+01  0.4179E+02
  21.899  0.1551E+01  0.4180E+02
  21.909  0.1551E+01  0.4182E+02
  21.919  0.1552E+01  0.4183E+02
  21.929  0.1552E+01  0.4185E+02
  21.939  0.1553E+01  0.4186E+02
  21.949  0.1554E+01  0.4188E+02
  21.959  0.1555E+01  0.4190E+02
  21.969  0.1555E+01  0.4191E+02
  21.979  0.1556E+01  0.4193E+02
  21.989  0.1557E+01  0.4194E+02
  21.999  0.1558E+01  0.4196E+02
  22.009  0.1560E+01  0.4197E+02
  22.019  0.1561E+01  0.4199E+02
  22.029  0.1563E+01  0.4201E+02
  22.039  0.1564E+01  0.4202E+02
  22.049  0.1566E+01  0.4204E+02
  22.059  0.1568E+01  0.4205E+02
  22.069  0.1570E+01  0.4207E+02
  22.079  0.1572E+01  0.4208E+02
  22.089  0.1575E+01  0.4210E+02
  22.099  0.1577E+01  0.4212E+02
  22.109  0.1580E+01  0.4213E+02
  22.119  0.1583E+01  0.4215E+02
  22.129  0.1586E+01  0.4216E+02
  22.139  0.1589E+01  0.4218E+02
  22.149  0.1593E+01  0.4219E+02
  22.159  0.1596E+01  0.4221E+02
  22.169  0.1600E+01  0.4223E+02
  22.179  0.1604E+01  0.4224E+02
  22.189  0.1608E+01  0.4226E+02
  22.199  0.1612E+01  0.4227E+02
  22.209  0.1616E+01  0.4229E+02
  22.219  0.1620E+01  0.4231E+02
  22.229  0.1624E+01  0.4232E+02
  22.239  0.1629E+01  0.4234E+02
  22.249  0.1633E+01  0.4236E+02
  22.259  0.1637E+01  0.4237E+02
  22.269  0.1642E+01  0.4239E+02
  22.279  0.1646E+01  0.4240E+02
  22.289  0.1650E+01  0.4242E+02
  22.299  0.1655E+01  0.4244E+02
  22.309  0.1659E+01  0.4245E+02
  22.319  0.1663E+01  0.4247E+02
  22.329  0.1667E+01  0.4249E+02
  22.339  0.1671E+01  0.4250E+02
  22.349  0.1674E+01  0.4252E+02
  22.359  0.1678E+01  0.4254E+02
  22.369  0.1681E+01  0.4255E+02
  22.379  0.1685E+01  0.4257E+02
  22.389  0.1688E+01  0.4259E+02
  22.399  0.1691E+01  0.4261E+02
  22.409  0.1693E+01  0.4262E+02
  22.419  0.1696E+01  0.4264E+02
  22.429  0.1698E+01  0.4266E+02
  22.439  0.1701E+01  0.4267E+02
  22.449  0.1703E+01  0.4269E+02
  22.459  0.1705E+01  0.4271E+02
  22.469  0.1706E+01  0.4272E+02
  22.479  0.1708E+01  0.4274E+02
  22.489  0.1709E+01  0.4276E+02
  22.499  0.1711E+01  0.4278E+02
  22.509  0.1712E+01  0.4279E+02
  22.519  0.1713E+01  0.4281E+02
  22.529  0.1713E+01  0.4283E+02
  22.539  0.1714E+01  0.4284E+02
  22.549  0.1715E+01  0.4286E+02
  22.559  0.1715E+01  0.4288E+02
  22.569  0.1715E+01  0.4290E+02
  22.579  0.1716E+01  0.4291E+02
  22.589  0.1716E+01  0.4293E+02
  22.599  0.1716E+01  0.4295E+02
  22.609  0.1716E+01  0.4296E+02
  22.619  0.1716E+01  0.4298E+02
  22.629  0.1716E+01  0.4300E+02
  22.639  0.1716E+01  0.4302E+02
  22.649  0.1716E+01  0.4303E+02
  22.659  0.1716E+01  0.4305E+02
  22.669  0.1716E+01  0.4307E+02
  22.679  0.1716E+01  0.4308E+02
  22.689  0.1716E+01  0.4310E+02
  22.699  0.1716E+01  0.4312E+02
  22.709  0.1716E+01  0.4314E+02
  22.719  0.1716E+01  0.4315E+02
  22.729  0.1716E+01  0.4317E+02
  22.739  0.1717E+01  0.4319E+02
  22.749  0.1717E+01  0.4320E+02
  22.759  0.1717E+01  0.4322E+02
  22.769  0.1717E+01  0.4324E+02
  22.779  0.1718E+01  0.4326E+02
  22.789  0.1718E+01  0.4327E+02
  22.799  0.1718E+01  0.4329E+02
  22.809  0.1719E+01  0.4331E+02
  22.819  0.1719E+01  0.4333E+02
  22.829  0.1720E+01  0.4334E+02
  22.839  0.1720E+01  0.4336E+02
  22.849  0.1721E+01  0.4338E+02
  22.859  0.1721E+01  0.4339E+02
  22.869  0.1722E+01  0.4341E+02
  22.879  0.1722E+01  0.4343E+02
  22.889  0.1723E+01  0.4345E+02
  22.899  0.1723E+01  0.4346E+02
  22.909  0.1724E+01  0.4348E+02
  22.919  0.1724E+01  0.4350E+02
  22.929  0.1725E+01  0.4351E+02
  22.939  0.1725E+01  0.4353E+02
  22.949  0.1726E+01  0.4355E+02
  22.959  0.1726E+01  0.4357E+02
  22.969  0.1726E+01  0.4358E+02
  22.979  0.1727E+01  0.4360E+02
  22.989  0.1727E+01  0.4362E+02
  22.999  0.1727E+01  0.4364E+02
  23.009  0.1727E+01  0.4365E+02
  23.019  0.1728E+01  0.4367E+02
  23.029  0.1728E+01  0.4369E+02
  23.039  0.1728E+01  0.4370E+02
  23.049  0.1728E+01  0.4372E+02
  23.059  0.1728E+01  0.4374E+02
  23.069  0.1728E+01  0.4376E+02
  23.079  0.1728E+01  0.4377E+02
  23.089  0.1728E+01  0.4379E+02
  23.099  0.1727E+01  0.4381E+02
  23.109  0.1727E+01  0.4383E+02
  23.119  0.1727E+01  0.4384E+02
  23.129  0.1726E+01  0.4386E+02
  23.139  0.1726E+01  0.4388E+02
  23.149  0.1726E+01  0.4389E+02
  23.159  0.1725E+01  0.4391E+02
  23.169  0.1725E+01  0.4393E+02
  23.179  0.1724E+01  0.4395E+02
  23.189  0.1724E+01  0.4396E+02
  23.199  0.1723E+01  0.4398E+02
  23.209  0.1722E+01  0.4400E+02
  23.219  0.1722E+01  0.4402E+02
  23.229  0.1721E+01  0.4403E+02
  23.239  0.1720E+01  0.4405E+02
  23.249  0.1720E+01  0.4407E+02
  23.259  0.1719E+01  0.4408E+02
  23.269  0.1718E+01  0.4410E+02
  23.279  0.1717E+01  0.4412E+02
