#  E (eV)   dos(E)     Int dos(E) EFermi =  10.815 eV
 -12.025  0.2792E-03  0.2792E-05
 -12.015  0.3271E-03  0.6064E-05
 -12.005  0.3828E-03  0.9892E-05
 -11.995  0.4475E-03  0.1437E-04
 -11.985  0.5224E-03  0.1959E-04
 -11.975  0.6093E-03  0.2568E-04
 -11.965  0.7097E-03  0.3278E-04
 -11.955  0.8258E-03  0.4104E-04
 -11.945  0.9598E-03  0.5064E-04
 -11.935  0.1114E-02  0.6178E-04
 -11.925  0.1292E-02  0.7470E-04
 -11.915  0.1497E-02  0.8966E-04
 -11.905  0.1732E-02  0.1070E-03
 -11.895  0.2001E-02  0.1270E-03
 -11.885  0.2310E-02  0.1501E-03
 -11.875  0.2663E-02  0.1767E-03
 -11.865  0.3068E-02  0.2074E-03
 -11.855  0.3529E-02  0.2427E-03
 -11.845  0.4056E-02  0.2832E-03
 -11.835  0.4655E-02  0.3298E-03
 -11.825  0.5337E-02  0.3832E-03
 -11.815  0.6113E-02  0.4443E-03
 -11.805  0.6993E-02  0.5142E-03
 -11.795  0.7991E-02  0.5941E-03
 -11.785  0.9121E-02  0.6853E-03
 -11.775  0.1040E-01  0.7893E-03
 -11.765  0.1184E-01  0.9078E-03
 -11.755  0.1347E-01  0.1042E-02
 -11.745  0.1531E-01  0.1196E-02
 -11.735  0.1737E-01  0.1369E-02
 -11.725  0.1970E-01  0.1566E-02
 -11.715  0.2231E-01  0.1789E-02
 -11.705  0.2523E-01  0.2042E-02
 -11.695  0.2851E-01  0.2327E-02
 -11.685  0.3218E-01  0.2649E-02
 -11.675  0.3628E-01  0.3011E-02
 -11.665  0.4086E-01  0.3420E-02
 -11.655  0.4597E-01  0.3880E-02
 -11.645  0.5165E-01  0.4396E-02
 -11.635  0.5797E-01  0.4976E-02
 -11.625  0.6500E-01  0.5626E-02
 -11.615  0.7279E-01  0.6354E-02
 -11.605  0.8143E-01  0.7168E-02
 -11.595  0.9099E-01  0.8078E-02
 -11.585  0.1016E+00  0.9094E-02
 -11.575  0.1132E+00  0.1023E-01
 -11.565  0.1261E+00  0.1149E-01
 -11.555  0.1403E+00  0.1289E-01
 -11.545  0.1559E+00  0.1445E-01
 -11.535  0.1731E+00  0.1618E-01
 -11.525  0.1919E+00  0.1810E-01
 -11.515  0.2126E+00  0.2022E-01
 -11.505  0.2352E+00  0.2258E-01
 -11.495  0.2599E+00  0.2518E-01
 -11.485  0.2869E+00  0.2804E-01
 -11.475  0.3164E+00  0.3121E-01
 -11.465  0.3485E+00  0.3469E-01
 -11.455  0.3835E+00  0.3853E-01
 -11.445  0.4215E+00  0.4274E-01
 -11.435  0.4627E+00  0.4737E-01
 -11.425  0.5075E+00  0.5245E-01
 -11.415  0.5560E+00  0.5800E-01
 -11.405  0.6084E+00  0.6409E-01
 -11.395  0.6650E+00  0.7074E-01
 -11.385  0.7262E+00  0.7800E-01
 -11.375  0.7921E+00  0.8592E-01
 -11.365  0.8630E+00  0.9455E-01
 -11.355  0.9392E+00  0.1039E+00
 -11.345  0.1021E+01  0.1142E+00
 -11.335  0.1109E+01  0.1252E+00
 -11.325  0.1203E+01  0.1373E+00
 -11.315  0.1304E+01  0.1503E+00
 -11.305  0.1411E+01  0.1644E+00
 -11.295  0.1526E+01  0.1797E+00
 -11.285  0.1648E+01  0.1962E+00
 -11.275  0.1778E+01  0.2139E+00
 -11.265  0.1917E+01  0.2331E+00
 -11.255  0.2064E+01  0.2538E+00
 -11.245  0.2219E+01  0.2759E+00
 -11.235  0.2384E+01  0.2998E+00
 -11.225  0.2559E+01  0.3254E+00
 -11.215  0.2743E+01  0.3528E+00
 -11.205  0.2937E+01  0.3822E+00
 -11.195  0.3142E+01  0.4136E+00
 -11.185  0.3358E+01  0.4472E+00
 -11.175  0.3584E+01  0.4830E+00
 -11.165  0.3822E+01  0.5212E+00
 -11.155  0.4070E+01  0.5619E+00
 -11.145  0.4331E+01  0.6052E+00
 -11.135  0.4603E+01  0.6513E+00
 -11.125  0.4887E+01  0.7002E+00
 -11.115  0.5184E+01  0.7520E+00
 -11.105  0.5492E+01  0.8069E+00
 -11.095  0.5812E+01  0.8650E+00
 -11.085  0.6145E+01  0.9265E+00
 -11.075  0.6489E+01  0.9914E+00
 -11.065  0.6846E+01  0.1060E+01
 -11.055  0.7214E+01  0.1132E+01
 -11.045  0.7595E+01  0.1208E+01
 -11.035  0.7987E+01  0.1288E+01
 -11.025  0.8390E+01  0.1372E+01
 -11.015  0.8804E+01  0.1460E+01
 -11.005  0.9229E+01  0.1552E+01
 -10.995  0.9664E+01  0.1649E+01
 -10.985  0.1011E+02  0.1750E+01
 -10.975  0.1056E+02  0.1855E+01
 -10.965  0.1103E+02  0.1966E+01
 -10.955  0.1150E+02  0.2081E+01
 -10.945  0.1198E+02  0.2200E+01
 -10.935  0.1246E+02  0.2325E+01
 -10.925  0.1295E+02  0.2454E+01
 -10.915  0.1345E+02  0.2589E+01
 -10.905  0.1395E+02  0.2728E+01
 -10.895  0.1445E+02  0.2873E+01
 -10.885  0.1496E+02  0.3023E+01
 -10.875  0.1547E+02  0.3177E+01
 -10.865  0.1598E+02  0.3337E+01
 -10.855  0.1649E+02  0.3502E+01
 -10.845  0.1699E+02  0.3672E+01
 -10.835  0.1750E+02  0.3847E+01
 -10.825  0.1799E+02  0.4027E+01
 -10.815  0.1849E+02  0.4212E+01
 -10.805  0.1898E+02  0.4401E+01
 -10.795  0.1946E+02  0.4596E+01
 -10.785  0.1993E+02  0.4795E+01
 -10.775  0.2039E+02  0.4999E+01
 -10.765  0.2084E+02  0.5208E+01
 -10.755  0.2128E+02  0.5420E+01
 -10.745  0.2170E+02  0.5637E+01
 -10.735  0.2211E+02  0.5859E+01
 -10.725  0.2251E+02  0.6084E+01
 -10.715  0.2288E+02  0.6312E+01
 -10.705  0.2324E+02  0.6545E+01
 -10.695  0.2358E+02  0.6781E+01
 -10.685  0.2390E+02  0.7020E+01
 -10.675  0.2420E+02  0.7262E+01
 -10.665  0.2447E+02  0.7506E+01
 -10.655  0.2473E+02  0.7754E+01
 -10.645  0.2496E+02  0.8003E+01
 -10.635  0.2516E+02  0.8255E+01
 -10.625  0.2534E+02  0.8508E+01
 -10.615  0.2550E+02  0.8763E+01
 -10.605  0.2563E+02  0.9020E+01
 -10.595  0.2573E+02  0.9277E+01
 -10.585  0.2581E+02  0.9535E+01
 -10.575  0.2586E+02  0.9794E+01
 -10.565  0.2588E+02  0.1005E+02
 -10.555  0.2588E+02  0.1031E+02
 -10.545  0.2584E+02  0.1057E+02
 -10.535  0.2579E+02  0.1083E+02
 -10.525  0.2570E+02  0.1108E+02
 -10.515  0.2559E+02  0.1134E+02
 -10.505  0.2545E+02  0.1159E+02
 -10.495  0.2529E+02  0.1185E+02
 -10.485  0.2510E+02  0.1210E+02
 -10.475  0.2488E+02  0.1235E+02
 -10.465  0.2464E+02  0.1259E+02
 -10.455  0.2438E+02  0.1284E+02
 -10.445  0.2410E+02  0.1308E+02
 -10.435  0.2379E+02  0.1332E+02
 -10.425  0.2347E+02  0.1355E+02
 -10.415  0.2312E+02  0.1378E+02
 -10.405  0.2275E+02  0.1401E+02
 -10.395  0.2237E+02  0.1423E+02
 -10.385  0.2197E+02  0.1445E+02
 -10.375  0.2155E+02  0.1467E+02
 -10.365  0.2112E+02  0.1488E+02
 -10.355  0.2068E+02  0.1509E+02
 -10.345  0.2023E+02  0.1529E+02
 -10.335  0.1976E+02  0.1549E+02
 -10.325  0.1928E+02  0.1568E+02
 -10.315  0.1880E+02  0.1587E+02
 -10.305  0.1831E+02  0.1605E+02
 -10.295  0.1781E+02  0.1623E+02
 -10.285  0.1731E+02  0.1640E+02
 -10.275  0.1680E+02  0.1657E+02
 -10.265  0.1630E+02  0.1673E+02
 -10.255  0.1579E+02  0.1689E+02
 -10.245  0.1528E+02  0.1704E+02
 -10.235  0.1477E+02  0.1719E+02
 -10.225  0.1426E+02  0.1733E+02
 -10.215  0.1376E+02  0.1747E+02
 -10.205  0.1325E+02  0.1760E+02
 -10.195  0.1276E+02  0.1773E+02
 -10.185  0.1227E+02  0.1785E+02
 -10.175  0.1178E+02  0.1797E+02
 -10.165  0.1131E+02  0.1809E+02
 -10.155  0.1084E+02  0.1819E+02
 -10.145  0.1038E+02  0.1830E+02
 -10.135  0.9925E+01  0.1840E+02
 -10.125  0.9483E+01  0.1849E+02
 -10.115  0.9051E+01  0.1858E+02
 -10.105  0.8629E+01  0.1867E+02
 -10.095  0.8218E+01  0.1875E+02
 -10.085  0.7818E+01  0.1883E+02
 -10.075  0.7430E+01  0.1890E+02
 -10.065  0.7054E+01  0.1897E+02
 -10.055  0.6689E+01  0.1904E+02
 -10.045  0.6337E+01  0.1910E+02
 -10.035  0.5996E+01  0.1916E+02
 -10.025  0.5668E+01  0.1922E+02
 -10.015  0.5352E+01  0.1927E+02
 -10.005  0.5048E+01  0.1932E+02
  -9.995  0.4757E+01  0.1937E+02
  -9.985  0.4477E+01  0.1942E+02
  -9.975  0.4210E+01  0.1946E+02
  -9.965  0.3954E+01  0.1950E+02
  -9.955  0.3709E+01  0.1954E+02
  -9.945  0.3476E+01  0.1957E+02
  -9.935  0.3254E+01  0.1960E+02
  -9.925  0.3043E+01  0.1963E+02
  -9.915  0.2843E+01  0.1966E+02
  -9.905  0.2653E+01  0.1969E+02
  -9.895  0.2473E+01  0.1971E+02
  -9.885  0.2303E+01  0.1974E+02
  -9.875  0.2142E+01  0.1976E+02
  -9.865  0.1990E+01  0.1978E+02
  -9.855  0.1847E+01  0.1980E+02
  -9.845  0.1712E+01  0.1981E+02
  -9.835  0.1586E+01  0.1983E+02
  -9.825  0.1467E+01  0.1984E+02
  -9.815  0.1356E+01  0.1986E+02
  -9.805  0.1251E+01  0.1987E+02
  -9.795  0.1154E+01  0.1988E+02
  -9.785  0.1063E+01  0.1989E+02
  -9.775  0.9779E+00  0.1990E+02
  -9.765  0.8988E+00  0.1991E+02
  -9.755  0.8252E+00  0.1992E+02
  -9.745  0.7568E+00  0.1993E+02
  -9.735  0.6933E+00  0.1993E+02
  -9.725  0.6344E+00  0.1994E+02
  -9.715  0.5799E+00  0.1995E+02
  -9.705  0.5295E+00  0.1995E+02
  -9.695  0.4830E+00  0.1996E+02
  -9.685  0.4400E+00  0.1996E+02
  -9.675  0.4005E+00  0.1996E+02
  -9.665  0.3641E+00  0.1997E+02
  -9.655  0.3306E+00  0.1997E+02
  -9.645  0.2999E+00  0.1997E+02
  -9.635  0.2718E+00  0.1998E+02
  -9.625  0.2460E+00  0.1998E+02
  -9.615  0.2224E+00  0.1998E+02
  -9.605  0.2009E+00  0.1998E+02
  -9.595  0.1812E+00  0.1998E+02
  -9.585  0.1633E+00  0.1999E+02
  -9.575  0.1470E+00  0.1999E+02
  -9.565  0.1322E+00  0.1999E+02
  -9.555  0.1187E+00  0.1999E+02
  -9.545  0.1065E+00  0.1999E+02
  -9.535  0.9548E-01  0.1999E+02
  -9.525  0.8548E-01  0.1999E+02
  -9.515  0.7644E-01  0.1999E+02
  -9.505  0.6828E-01  0.1999E+02
  -9.495  0.6093E-01  0.2000E+02
  -9.485  0.5431E-01  0.2000E+02
  -9.475  0.4835E-01  0.2000E+02
  -9.465  0.4300E-01  0.2000E+02
  -9.455  0.3820E-01  0.2000E+02
  -9.445  0.3390E-01  0.2000E+02
  -9.435  0.3005E-01  0.2000E+02
  -9.425  0.2660E-01  0.2000E+02
  -9.415  0.2353E-01  0.2000E+02
  -9.405  0.2079E-01  0.2000E+02
  -9.395  0.1834E-01  0.2000E+02
  -9.385  0.1617E-01  0.2000E+02
  -9.375  0.1424E-01  0.2000E+02
  -9.365  0.1252E-01  0.2000E+02
  -9.355  0.1100E-01  0.2000E+02
  -9.345  0.9655E-02  0.2000E+02
  -9.335  0.8464E-02  0.2000E+02
  -9.325  0.7411E-02  0.2000E+02
  -9.315  0.6482E-02  0.2000E+02
  -9.305  0.5664E-02  0.2000E+02
  -9.295  0.4943E-02  0.2000E+02
  -9.285  0.4309E-02  0.2000E+02
  -9.275  0.3752E-02  0.2000E+02
  -9.265  0.3264E-02  0.2000E+02
  -9.255  0.2835E-02  0.2000E+02
  -9.245  0.2461E-02  0.2000E+02
  -9.235  0.2133E-02  0.2000E+02
  -9.225  0.1847E-02  0.2000E+02
  -9.215  0.1598E-02  0.2000E+02
  -9.205  0.1381E-02  0.2000E+02
  -9.195  0.1191E-02  0.2000E+02
  -9.185  0.1027E-02  0.2000E+02
  -9.175  0.8844E-03  0.2000E+02
  -9.165  0.7607E-03  0.2000E+02
  -9.155  0.6536E-03  0.2000E+02
  -9.145  0.5609E-03  0.2000E+02
  -9.135  0.4808E-03  0.2000E+02
  -9.125  0.4117E-03  0.2000E+02
  -9.115  0.3522E-03  0.2000E+02
  -9.105  0.3009E-03  0.2000E+02
  -9.095  0.2568E-03  0.2000E+02
  -9.085  0.2189E-03  0.2000E+02
  -9.075  0.1864E-03  0.2000E+02
  -9.065  0.1585E-03  0.2000E+02
  -9.055  0.1347E-03  0.2000E+02
  -9.045  0.1143E-03  0.2000E+02
  -9.035  0.9688E-04  0.2000E+02
  -9.025  0.8203E-04  0.2000E+02
  -9.015  0.6938E-04  0.2000E+02
  -9.005  0.5861E-04  0.2000E+02
  -8.995  0.4946E-04  0.2000E+02
  -8.985  0.4169E-04  0.2000E+02
  -8.975  0.3510E-04  0.2000E+02
  -8.965  0.2952E-04  0.2000E+02
  -8.955  0.2480E-04  0.2000E+02
  -8.945  0.2081E-04  0.2000E+02
  -8.935  0.1744E-04  0.2000E+02
  -8.925  0.1460E-04  0.2000E+02
  -8.915  0.1221E-04  0.2000E+02
  -8.905  0.1020E-04  0.2000E+02
  -8.895  0.8510E-05  0.2000E+02
  -8.885  0.7093E-05  0.2000E+02
  -8.875  0.5905E-05  0.2000E+02
  -8.865  0.4910E-05  0.2000E+02
  -8.855  0.4078E-05  0.2000E+02
  -8.845  0.3384E-05  0.2000E+02
  -8.835  0.2804E-05  0.2000E+02
  -8.825  0.2321E-05  0.2000E+02
  -8.815  0.1919E-05  0.2000E+02
  -8.805  0.1585E-05  0.2000E+02
  -8.795  0.1308E-05  0.2000E+02
  -8.785  0.1077E-05  0.2000E+02
  -8.775  0.8869E-06  0.2000E+02
  -8.765  0.7292E-06  0.2000E+02
  -8.755  0.5988E-06  0.2000E+02
  -8.745  0.4912E-06  0.2000E+02
  -8.735  0.4024E-06  0.2000E+02
  -8.725  0.3294E-06  0.2000E+02
  -8.715  0.2693E-06  0.2000E+02
  -8.705  0.2199E-06  0.2000E+02
  -8.695  0.1793E-06  0.2000E+02
  -8.685  0.1461E-06  0.2000E+02
  -8.675  0.1189E-06  0.2000E+02
  -8.665  0.9664E-07  0.2000E+02
  -8.655  0.7846E-07  0.2000E+02
  -8.645  0.6363E-07  0.2000E+02
  -8.635  0.5155E-07  0.2000E+02
  -8.625  0.4171E-07  0.2000E+02
  -8.615  0.3371E-07  0.2000E+02
  -8.605  0.2721E-07  0.2000E+02
  -8.595  0.2194E-07  0.2000E+02
  -8.585  0.1767E-07  0.2000E+02
  -8.575  0.1422E-07  0.2000E+02
  -8.565  0.1143E-07  0.2000E+02
  -8.555  0.9172E-08  0.2000E+02
  -8.545  0.7353E-08  0.2000E+02
  -8.535  0.5889E-08  0.2000E+02
  -8.525  0.4711E-08  0.2000E+02
  -8.515  0.3764E-08  0.2000E+02
  -8.505  0.3004E-08  0.2000E+02
  -8.495  0.2395E-08  0.2000E+02
  -8.485  0.1907E-08  0.2000E+02
  -8.475  0.1517E-08  0.2000E+02
  -8.465  0.1205E-08  0.2000E+02
  -8.455  0.9561E-09  0.2000E+02
  -8.445  0.7578E-09  0.2000E+02
  -8.435  0.6000E-09  0.2000E+02
  -8.425  0.4744E-09  0.2000E+02
  -8.415  0.3748E-09  0.2000E+02
  -8.405  0.2957E-09  0.2000E+02
  -8.395  0.2330E-09  0.2000E+02
  -8.385  0.1834E-09  0.2000E+02
  -8.375  0.1442E-09  0.2000E+02
  -8.365  0.1133E-09  0.2000E+02
  -8.355  0.8885E-10  0.2000E+02
  -8.345  0.6961E-10  0.2000E+02
  -8.335  0.5448E-10  0.2000E+02
  -8.325  0.4259E-10  0.2000E+02
  -8.315  0.3326E-10  0.2000E+02
  -8.305  0.2594E-10  0.2000E+02
  -8.295  0.2021E-10  0.2000E+02
  -8.285  0.1572E-10  0.2000E+02
  -8.275  0.1222E-10  0.2000E+02
  -8.265  0.9488E-11  0.2000E+02
  -8.255  0.7358E-11  0.2000E+02
  -8.245  0.5699E-11  0.2000E+02
  -8.235  0.4409E-11  0.2000E+02
  -8.225  0.3407E-11  0.2000E+02
  -8.215  0.2630E-11  0.2000E+02
  -8.205  0.2028E-11  0.2000E+02
  -8.195  0.1561E-11  0.2000E+02
  -8.185  0.1201E-11  0.2000E+02
  -8.175  0.9228E-12  0.2000E+02
  -8.165  0.7082E-12  0.2000E+02
  -8.155  0.5428E-12  0.2000E+02
  -8.145  0.4156E-12  0.2000E+02
  -8.135  0.3178E-12  0.2000E+02
  -8.125  0.2428E-12  0.2000E+02
  -8.115  0.1853E-12  0.2000E+02
  -8.105  0.1412E-12  0.2000E+02
  -8.095  0.1075E-12  0.2000E+02
  -8.085  0.8171E-13  0.2000E+02
  -8.075  0.6206E-13  0.2000E+02
  -8.065  0.4708E-13  0.2000E+02
  -8.055  0.3567E-13  0.2000E+02
  -8.045  0.2699E-13  0.2000E+02
  -8.035  0.2041E-13  0.2000E+02
  -8.025  0.1541E-13  0.2000E+02
  -8.015  0.1162E-13  0.2000E+02
  -8.005  0.8754E-14  0.2000E+02
  -7.995  0.6587E-14  0.2000E+02
  -7.985  0.4950E-14  0.2000E+02
  -7.975  0.3716E-14  0.2000E+02
  -7.965  0.2786E-14  0.2000E+02
  -7.955  0.2087E-14  0.2000E+02
  -7.945  0.1561E-14  0.2000E+02
  -7.935  0.1166E-14  0.2000E+02
  -7.925  0.8706E-15  0.2000E+02
  -7.915  0.6490E-15  0.2000E+02
  -7.905  0.4832E-15  0.2000E+02
  -7.895  0.3594E-15  0.2000E+02
  -7.885  0.2670E-15  0.2000E+02
  -7.875  0.1981E-15  0.2000E+02
  -7.865  0.1468E-15  0.2000E+02
  -7.855  0.1087E-15  0.2000E+02
  -7.845  0.8036E-16  0.2000E+02
  -7.835  0.5935E-16  0.2000E+02
  -7.825  0.4378E-16  0.2000E+02
  -7.815  0.3226E-16  0.2000E+02
  -7.805  0.2374E-16  0.2000E+02
  -7.795  0.1745E-16  0.2000E+02
  -7.785  0.1281E-16  0.2000E+02
  -7.775  0.9398E-17  0.2000E+02
  -7.765  0.6884E-17  0.2000E+02
  -7.755  0.5037E-17  0.2000E+02
  -7.745  0.3681E-17  0.2000E+02
  -7.735  0.2687E-17  0.2000E+02
  -7.725  0.1959E-17  0.2000E+02
  -7.715  0.1427E-17  0.2000E+02
  -7.705  0.1038E-17  0.2000E+02
  -7.695  0.7541E-18  0.2000E+02
  -7.685  0.5473E-18  0.2000E+02
  -7.675  0.3967E-18  0.2000E+02
  -7.665  0.2872E-18  0.2000E+02
  -7.655  0.2077E-18  0.2000E+02
  -7.645  0.1500E-18  0.2000E+02
  -7.635  0.1082E-18  0.2000E+02
  -7.625  0.7800E-19  0.2000E+02
  -7.615  0.5615E-19  0.2000E+02
  -7.605  0.4037E-19  0.2000E+02
  -7.595  0.2899E-19  0.2000E+02
  -7.585  0.2079E-19  0.2000E+02
  -7.575  0.1490E-19  0.2000E+02
  -7.565  0.1066E-19  0.2000E+02
  -7.555  0.7619E-20  0.2000E+02
  -7.545  0.5439E-20  0.2000E+02
  -7.535  0.3879E-20  0.2000E+02
  -7.525  0.2762E-20  0.2000E+02
  -7.515  0.1965E-20  0.2000E+02
  -7.505  0.1396E-20  0.2000E+02
  -7.495  0.9911E-21  0.2000E+02
  -7.485  0.7026E-21  0.2000E+02
  -7.475  0.4975E-21  0.2000E+02
  -7.465  0.3518E-21  0.2000E+02
  -7.455  0.2486E-21  0.2000E+02
  -7.445  0.1754E-21  0.2000E+02
  -7.435  0.1236E-21  0.2000E+02
  -7.425  0.8700E-22  0.2000E+02
  -7.415  0.6117E-22  0.2000E+02
  -7.405  0.4296E-22  0.2000E+02
  -7.395  0.3013E-22  0.2000E+02
  -7.385  0.2111E-22  0.2000E+02
  -7.375  0.1478E-22  0.2000E+02
  -7.365  0.1033E-22  0.2000E+02
  -7.355  0.7210E-23  0.2000E+02
  -7.345  0.5028E-23  0.2000E+02
  -7.335  0.3502E-23  0.2000E+02
  -7.325  0.2436E-23  0.2000E+02
  -7.315  0.1693E-23  0.2000E+02
  -7.305  0.1175E-23  0.2000E+02
  -7.295  0.8146E-24  0.2000E+02
  -7.285  0.5641E-24  0.2000E+02
  -7.275  0.3901E-24  0.2000E+02
  -7.265  0.2695E-24  0.2000E+02
  -7.255  0.1860E-24  0.2000E+02
  -7.245  0.1282E-24  0.2000E+02
  -7.235  0.8822E-25  0.2000E+02
  -7.225  0.6066E-25  0.2000E+02
  -7.215  0.4166E-25  0.2000E+02
  -7.205  0.2857E-25  0.2000E+02
  -7.195  0.1958E-25  0.2000E+02
  -7.185  0.1340E-25  0.2000E+02
  -7.175  0.9158E-26  0.2000E+02
  -7.165  0.6252E-26  0.2000E+02
  -7.155  0.4263E-26  0.2000E+02
  -7.145  0.2904E-26  0.2000E+02
  -7.135  0.1976E-26  0.2000E+02
  -7.125  0.1342E-26  0.2000E+02
  -7.115  0.9111E-27  0.2000E+02
  -7.105  0.6176E-27  0.2000E+02
  -7.095  0.4182E-27  0.2000E+02
  -7.085  0.2828E-27  0.2000E+02
  -7.075  0.1911E-27  0.2000E+02
  -7.065  0.1289E-27  0.2000E+02
  -7.055  0.8687E-28  0.2000E+02
  -7.045  0.5848E-28  0.2000E+02
  -7.035  0.3932E-28  0.2000E+02
  -7.025  0.2640E-28  0.2000E+02
  -7.015  0.1771E-28  0.2000E+02
  -7.005  0.1186E-28  0.2000E+02
  -6.995  0.7939E-29  0.2000E+02
  -6.985  0.5306E-29  0.2000E+02
  -6.975  0.3542E-29  0.2000E+02
  -6.965  0.2362E-29  0.2000E+02
  -6.955  0.1573E-29  0.2000E+02
  -6.945  0.1047E-29  0.2000E+02
  -6.935  0.6953E-30  0.2000E+02
  -6.925  0.4615E-30  0.2000E+02
  -6.915  0.3059E-30  0.2000E+02
  -6.905  0.2025E-30  0.2000E+02
  -6.895  0.1339E-30  0.2000E+02
  -6.885  0.8846E-31  0.2000E+02
  -6.875  0.5836E-31  0.2000E+02
  -6.865  0.3846E-31  0.2000E+02
  -6.855  0.2531E-31  0.2000E+02
  -6.845  0.1664E-31  0.2000E+02
  -6.835  0.1093E-31  0.2000E+02
  -6.825  0.7167E-32  0.2000E+02
  -6.815  0.4695E-32  0.2000E+02
  -6.805  0.3072E-32  0.2000E+02
  -6.795  0.2007E-32  0.2000E+02
  -6.785  0.1310E-32  0.2000E+02
  -6.775  0.8544E-33  0.2000E+02
  -6.765  0.5564E-33  0.2000E+02
  -6.755  0.3619E-33  0.2000E+02
  -6.745  0.2351E-33  0.2000E+02
  -6.735  0.1526E-33  0.2000E+02
  -6.725  0.9888E-34  0.2000E+02
  -6.715  0.6401E-34  0.2000E+02
  -6.705  0.4139E-34  0.2000E+02
  -6.695  0.2673E-34  0.2000E+02
  -6.685  0.1724E-34  0.2000E+02
  -6.675  0.1111E-34  0.2000E+02
  -6.665  0.7150E-35  0.2000E+02
  -6.655  0.4596E-35  0.2000E+02
  -6.645  0.2951E-35  0.2000E+02
  -6.635  0.1892E-35  0.2000E+02
  -6.625  0.1212E-35  0.2000E+02
  -6.615  0.7754E-36  0.2000E+02
  -6.605  0.4955E-36  0.2000E+02
  -6.595  0.3162E-36  0.2000E+02
  -6.585  0.2016E-36  0.2000E+02
  -6.575  0.1284E-36  0.2000E+02
  -6.565  0.8163E-37  0.2000E+02
  -6.555  0.5185E-37  0.2000E+02
  -6.545  0.3290E-37  0.2000E+02
  -6.535  0.2085E-37  0.2000E+02
  -6.525  0.1320E-37  0.2000E+02
  -6.515  0.8343E-38  0.2000E+02
  -6.505  0.5268E-38  0.2000E+02
  -6.495  0.3323E-38  0.2000E+02
  -6.485  0.2093E-38  0.2000E+02
  -6.475  0.1317E-38  0.2000E+02
  -6.465  0.8278E-39  0.2000E+02
  -6.455  0.5196E-39  0.2000E+02
  -6.445  0.3258E-39  0.2000E+02
  -6.435  0.2040E-39  0.2000E+02
  -6.425  0.1276E-39  0.2000E+02
  -6.415  0.7973E-40  0.2000E+02
  -6.405  0.4975E-40  0.2000E+02
  -6.395  0.3101E-40  0.2000E+02
  -6.385  0.1931E-40  0.2000E+02
  -6.375  0.1200E-40  0.2000E+02
  -6.365  0.7455E-41  0.2000E+02
  -6.355  0.4625E-41  0.2000E+02
  -6.345  0.2865E-41  0.2000E+02
  -6.335  0.1773E-41  0.2000E+02
  -6.325  0.1096E-41  0.2000E+02
  -6.315  0.6767E-42  0.2000E+02
  -6.305  0.4173E-42  0.2000E+02
  -6.295  0.2570E-42  0.2000E+02
  -6.285  0.1581E-42  0.2000E+02
  -6.275  0.9716E-43  0.2000E+02
  -6.265  0.5963E-43  0.2000E+02
  -6.255  0.3655E-43  0.2000E+02
  -6.245  0.2238E-43  0.2000E+02
  -6.235  0.1369E-43  0.2000E+02
  -6.225  0.8360E-44  0.2000E+02
  -6.215  0.5101E-44  0.2000E+02
  -6.205  0.3108E-44  0.2000E+02
  -6.195  0.1892E-44  0.2000E+02
  -6.185  0.1150E-44  0.2000E+02
  -6.175  0.6983E-45  0.2000E+02
  -6.165  0.4235E-45  0.2000E+02
  -6.155  0.2566E-45  0.2000E+02
  -6.145  0.1552E-45  0.2000E+02
  -6.135  0.9381E-46  0.2000E+02
  -6.125  0.5663E-46  0.2000E+02
  -6.115  0.3414E-46  0.2000E+02
  -6.105  0.2056E-46  0.2000E+02
  -6.095  0.1236E-46  0.2000E+02
  -6.085  0.7428E-47  0.2000E+02
  -6.075  0.4457E-47  0.2000E+02
  -6.065  0.2671E-47  0.2000E+02
  -6.055  0.1599E-47  0.2000E+02
  -6.045  0.9561E-48  0.2000E+02
  -6.035  0.5709E-48  0.2000E+02
  -6.025  0.3406E-48  0.2000E+02
  -6.015  0.2029E-48  0.2000E+02
  -6.005  0.1207E-48  0.2000E+02
  -5.995  0.7176E-49  0.2000E+02
  -5.985  0.4260E-49  0.2000E+02
  -5.975  0.2526E-49  0.2000E+02
  -5.965  0.1496E-49  0.2000E+02
  -5.955  0.8849E-50  0.2000E+02
  -5.945  0.5228E-50  0.2000E+02
  -5.935  0.3085E-50  0.2000E+02
  -5.925  0.1819E-50  0.2000E+02
  -5.915  0.1071E-50  0.2000E+02
  -5.905  0.6296E-51  0.2000E+02
  -5.895  0.3698E-51  0.2000E+02
  -5.885  0.2169E-51  0.2000E+02
  -5.875  0.1271E-51  0.2000E+02
  -5.865  0.7438E-52  0.2000E+02
  -5.855  0.4348E-52  0.2000E+02
  -5.845  0.2538E-52  0.2000E+02
  -5.835  0.1480E-52  0.2000E+02
  -5.825  0.8622E-53  0.2000E+02
  -5.815  0.5016E-53  0.2000E+02
  -5.805  0.2915E-53  0.2000E+02
  -5.795  0.1692E-53  0.2000E+02
  -5.785  0.9806E-54  0.2000E+02
  -5.775  0.5677E-54  0.2000E+02
  -5.765  0.3283E-54  0.2000E+02
  -5.755  0.1897E-54  0.2000E+02
  -5.745  0.1094E-54  0.2000E+02
  -5.735  0.6305E-55  0.2000E+02
  -5.725  0.3629E-55  0.2000E+02
  -5.715  0.2086E-55  0.2000E+02
  -5.705  0.1198E-55  0.2000E+02
  -5.695  0.6870E-56  0.2000E+02
  -5.685  0.3935E-56  0.2000E+02
  -5.675  0.2252E-56  0.2000E+02
  -5.665  0.1287E-56  0.2000E+02
  -5.655  0.7344E-57  0.2000E+02
  -5.645  0.4187E-57  0.2000E+02
  -5.635  0.2384E-57  0.2000E+02
  -5.625  0.1356E-57  0.2000E+02
  -5.615  0.7703E-58  0.2000E+02
  -5.605  0.4371E-58  0.2000E+02
  -5.595  0.2477E-58  0.2000E+02
  -5.585  0.1402E-58  0.2000E+02
  -5.575  0.7927E-59  0.2000E+02
  -5.565  0.4476E-59  0.2000E+02
  -5.555  0.2525E-59  0.2000E+02
  -5.545  0.1422E-59  0.2000E+02
  -5.535  0.8004E-60  0.2000E+02
  -5.525  0.4498E-60  0.2000E+02
  -5.515  0.2525E-60  0.2000E+02
  -5.505  0.1416E-60  0.2000E+02
  -5.495  0.7928E-61  0.2000E+02
  -5.485  0.4435E-61  0.2000E+02
  -5.475  0.2477E-61  0.2000E+02
  -5.465  0.1382E-61  0.2000E+02
  -5.455  0.7705E-62  0.2000E+02
  -5.445  0.4289E-62  0.2000E+02
  -5.435  0.2385E-62  0.2000E+02
  -5.425  0.1324E-62  0.2000E+02
  -5.415  0.7347E-63  0.2000E+02
  -5.405  0.4070E-63  0.2000E+02
  -5.395  0.2252E-63  0.2000E+02
  -5.385  0.1245E-63  0.2000E+02
  -5.375  0.6873E-64  0.2000E+02
  -5.365  0.3790E-64  0.2000E+02
  -5.355  0.2088E-64  0.2000E+02
  -5.345  0.1150E-64  0.2000E+02
  -5.335  0.6343E-65  0.2000E+02
  -5.325  0.3524E-65  0.2000E+02
  -5.315  0.2011E-65  0.2000E+02
  -5.305  0.1245E-65  0.2000E+02
  -5.295  0.9426E-66  0.2000E+02
  -5.285  0.9883E-66  0.2000E+02
  -5.275  0.1395E-65  0.2000E+02
  -5.265  0.2307E-65  0.2000E+02
  -5.255  0.4045E-65  0.2000E+02
  -5.245  0.7224E-65  0.2000E+02
  -5.235  0.1297E-64  0.2000E+02
  -5.225  0.2329E-64  0.2000E+02
  -5.215  0.4180E-64  0.2000E+02
  -5.205  0.7494E-64  0.2000E+02
  -5.195  0.1342E-63  0.2000E+02
  -5.185  0.2401E-63  0.2000E+02
  -5.175  0.4290E-63  0.2000E+02
  -5.165  0.7655E-63  0.2000E+02
  -5.155  0.1364E-62  0.2000E+02
  -5.145  0.2429E-62  0.2000E+02
  -5.135  0.4319E-62  0.2000E+02
  -5.125  0.7672E-62  0.2000E+02
  -5.115  0.1361E-61  0.2000E+02
  -5.105  0.2411E-61  0.2000E+02
  -5.095  0.4267E-61  0.2000E+02
  -5.085  0.7542E-61  0.2000E+02
  -5.075  0.1332E-60  0.2000E+02
  -5.065  0.2348E-60  0.2000E+02
  -5.055  0.4135E-60  0.2000E+02
  -5.045  0.7275E-60  0.2000E+02
  -5.035  0.1278E-59  0.2000E+02
  -5.025  0.2243E-59  0.2000E+02
  -5.015  0.3932E-59  0.2000E+02
  -5.005  0.6884E-59  0.2000E+02
  -4.995  0.1204E-58  0.2000E+02
  -4.985  0.2102E-58  0.2000E+02
  -4.975  0.3667E-58  0.2000E+02
  -4.965  0.6390E-58  0.2000E+02
  -4.955  0.1112E-57  0.2000E+02
  -4.945  0.1933E-57  0.2000E+02
  -4.935  0.3356E-57  0.2000E+02
  -4.925  0.5820E-57  0.2000E+02
  -4.915  0.1008E-56  0.2000E+02
  -4.905  0.1744E-56  0.2000E+02
  -4.895  0.3013E-56  0.2000E+02
  -4.885  0.5200E-56  0.2000E+02
  -4.875  0.8963E-56  0.2000E+02
  -4.865  0.1543E-55  0.2000E+02
  -4.855  0.2654E-55  0.2000E+02
  -4.845  0.4558E-55  0.2000E+02
  -4.835  0.7819E-55  0.2000E+02
  -4.825  0.1340E-54  0.2000E+02
  -4.815  0.2293E-54  0.2000E+02
  -4.805  0.3919E-54  0.2000E+02
  -4.795  0.6692E-54  0.2000E+02
  -4.785  0.1141E-53  0.2000E+02
  -4.775  0.1944E-53  0.2000E+02
  -4.765  0.3307E-53  0.2000E+02
  -4.755  0.5618E-53  0.2000E+02
  -4.745  0.9535E-53  0.2000E+02
  -4.735  0.1616E-52  0.2000E+02
  -4.725  0.2737E-52  0.2000E+02
  -4.715  0.4628E-52  0.2000E+02
  -4.705  0.7817E-52  0.2000E+02
  -4.695  0.1319E-51  0.2000E+02
  -4.685  0.2222E-51  0.2000E+02
  -4.675  0.3740E-51  0.2000E+02
  -4.665  0.6287E-51  0.2000E+02
  -4.655  0.1056E-50  0.2000E+02
  -4.645  0.1770E-50  0.2000E+02
  -4.635  0.2965E-50  0.2000E+02
  -4.625  0.4961E-50  0.2000E+02
  -4.615  0.8290E-50  0.2000E+02
  -4.605  0.1384E-49  0.2000E+02
  -4.595  0.2307E-49  0.2000E+02
  -4.585  0.3841E-49  0.2000E+02
  -4.575  0.6387E-49  0.2000E+02
  -4.565  0.1061E-48  0.2000E+02
  -4.555  0.1760E-48  0.2000E+02
  -4.545  0.2917E-48  0.2000E+02
  -4.535  0.4828E-48  0.2000E+02
  -4.525  0.7982E-48  0.2000E+02
  -4.515  0.1318E-47  0.2000E+02
  -4.505  0.2174E-47  0.2000E+02
  -4.495  0.3581E-47  0.2000E+02
  -4.485  0.5891E-47  0.2000E+02
  -4.475  0.9681E-47  0.2000E+02
  -4.465  0.1589E-46  0.2000E+02
  -4.455  0.2605E-46  0.2000E+02
  -4.445  0.4266E-46  0.2000E+02
  -4.435  0.6977E-46  0.2000E+02
  -4.425  0.1140E-45  0.2000E+02
  -4.415  0.1860E-45  0.2000E+02
  -4.405  0.3031E-45  0.2000E+02
  -4.395  0.4933E-45  0.2000E+02
  -4.385  0.8020E-45  0.2000E+02
  -4.375  0.1302E-44  0.2000E+02
  -4.365  0.2112E-44  0.2000E+02
  -4.355  0.3422E-44  0.2000E+02
  -4.345  0.5537E-44  0.2000E+02
  -4.335  0.8948E-44  0.2000E+02
  -4.325  0.1444E-43  0.2000E+02
  -4.315  0.2329E-43  0.2000E+02
  -4.305  0.3750E-43  0.2000E+02
  -4.295  0.6032E-43  0.2000E+02
  -4.285  0.9691E-43  0.2000E+02
  -4.275  0.1555E-42  0.2000E+02
  -4.265  0.2492E-42  0.2000E+02
  -4.255  0.3990E-42  0.2000E+02
  -4.245  0.6379E-42  0.2000E+02
  -4.235  0.1019E-41  0.2000E+02
  -4.225  0.1625E-41  0.2000E+02
  -4.215  0.2589E-41  0.2000E+02
  -4.205  0.4120E-41  0.2000E+02
  -4.195  0.6548E-41  0.2000E+02
  -4.185  0.1039E-40  0.2000E+02
  -4.175  0.1648E-40  0.2000E+02
  -4.165  0.2610E-40  0.2000E+02
  -4.155  0.4129E-40  0.2000E+02
  -4.145  0.6524E-40  0.2000E+02
  -4.135  0.1030E-39  0.2000E+02
  -4.125  0.1623E-39  0.2000E+02
  -4.115  0.2555E-39  0.2000E+02
  -4.105  0.4018E-39  0.2000E+02
  -4.095  0.6310E-39  0.2000E+02
  -4.085  0.9899E-39  0.2000E+02
  -4.075  0.1551E-38  0.2000E+02
  -4.065  0.2427E-38  0.2000E+02
  -4.055  0.3794E-38  0.2000E+02
  -4.045  0.5924E-38  0.2000E+02
  -4.035  0.9238E-38  0.2000E+02
  -4.025  0.1439E-37  0.2000E+02
  -4.015  0.2238E-37  0.2000E+02
  -4.005  0.3478E-37  0.2000E+02
  -3.995  0.5398E-37  0.2000E+02
  -3.985  0.8369E-37  0.2000E+02
  -3.975  0.1296E-36  0.2000E+02
  -3.965  0.2004E-36  0.2000E+02
  -3.955  0.3095E-36  0.2000E+02
  -3.945  0.4776E-36  0.2000E+02
  -3.935  0.7359E-36  0.2000E+02
  -3.925  0.1133E-35  0.2000E+02
  -3.915  0.1741E-35  0.2000E+02
  -3.905  0.2674E-35  0.2000E+02
  -3.895  0.4101E-35  0.2000E+02
  -3.885  0.6282E-35  0.2000E+02
  -3.875  0.9612E-35  0.2000E+02
  -3.865  0.1469E-34  0.2000E+02
  -3.855  0.2242E-34  0.2000E+02
  -3.845  0.3419E-34  0.2000E+02
  -3.835  0.5206E-34  0.2000E+02
  -3.825  0.7918E-34  0.2000E+02
  -3.815  0.1203E-33  0.2000E+02
  -3.805  0.1825E-33  0.2000E+02
  -3.795  0.2766E-33  0.2000E+02
  -3.785  0.4188E-33  0.2000E+02
  -3.775  0.6332E-33  0.2000E+02
  -3.765  0.9563E-33  0.2000E+02
  -3.755  0.1442E-32  0.2000E+02
  -3.745  0.2173E-32  0.2000E+02
  -3.735  0.3270E-32  0.2000E+02
  -3.725  0.4916E-32  0.2000E+02
  -3.715  0.7380E-32  0.2000E+02
  -3.705  0.1107E-31  0.2000E+02
  -3.695  0.1657E-31  0.2000E+02
  -3.685  0.2479E-31  0.2000E+02
  -3.675  0.3705E-31  0.2000E+02
  -3.665  0.5529E-31  0.2000E+02
  -3.655  0.8242E-31  0.2000E+02
  -3.645  0.1227E-30  0.2000E+02
  -3.635  0.1825E-30  0.2000E+02
  -3.625  0.2711E-30  0.2000E+02
  -3.615  0.4021E-30  0.2000E+02
  -3.605  0.5959E-30  0.2000E+02
  -3.595  0.8820E-30  0.2000E+02
  -3.585  0.1304E-29  0.2000E+02
  -3.575  0.1925E-29  0.2000E+02
  -3.565  0.2840E-29  0.2000E+02
  -3.555  0.4183E-29  0.2000E+02
  -3.545  0.6155E-29  0.2000E+02
  -3.535  0.9045E-29  0.2000E+02
  -3.525  0.1328E-28  0.2000E+02
  -3.515  0.1947E-28  0.2000E+02
  -3.505  0.2851E-28  0.2000E+02
  -3.495  0.4170E-28  0.2000E+02
  -3.485  0.6092E-28  0.2000E+02
  -3.475  0.8889E-28  0.2000E+02
  -3.465  0.1296E-27  0.2000E+02
  -3.455  0.1886E-27  0.2000E+02
  -3.445  0.2742E-27  0.2000E+02
  -3.435  0.3983E-27  0.2000E+02
  -3.425  0.5778E-27  0.2000E+02
  -3.415  0.8372E-27  0.2000E+02
  -3.405  0.1212E-26  0.2000E+02
  -3.395  0.1751E-26  0.2000E+02
  -3.385  0.2529E-26  0.2000E+02
  -3.375  0.3646E-26  0.2000E+02
  -3.365  0.5252E-26  0.2000E+02
  -3.355  0.7556E-26  0.2000E+02
  -3.345  0.1086E-25  0.2000E+02
  -3.335  0.1559E-25  0.2000E+02
  -3.325  0.2234E-25  0.2000E+02
  -3.315  0.3199E-25  0.2000E+02
  -3.305  0.4576E-25  0.2000E+02
  -3.295  0.6537E-25  0.2000E+02
  -3.285  0.9327E-25  0.2000E+02
  -3.275  0.1329E-24  0.2000E+02
  -3.265  0.1892E-24  0.2000E+02
  -3.255  0.2690E-24  0.2000E+02
  -3.245  0.3821E-24  0.2000E+02
  -3.235  0.5420E-24  0.2000E+02
  -3.225  0.7679E-24  0.2000E+02
  -3.215  0.1087E-23  0.2000E+02
  -3.205  0.1536E-23  0.2000E+02
  -3.195  0.2169E-23  0.2000E+02
  -3.185  0.3058E-23  0.2000E+02
  -3.175  0.4307E-23  0.2000E+02
  -3.165  0.6060E-23  0.2000E+02
  -3.155  0.8515E-23  0.2000E+02
  -3.145  0.1195E-22  0.2000E+02
  -3.135  0.1675E-22  0.2000E+02
  -3.125  0.2346E-22  0.2000E+02
  -3.115  0.3281E-22  0.2000E+02
  -3.105  0.4583E-22  0.2000E+02
  -3.095  0.6395E-22  0.2000E+02
  -3.085  0.8913E-22  0.2000E+02
  -3.075  0.1241E-21  0.2000E+02
  -3.065  0.1725E-21  0.2000E+02
  -3.055  0.2396E-21  0.2000E+02
  -3.045  0.3323E-21  0.2000E+02
  -3.035  0.4604E-21  0.2000E+02
  -3.025  0.6372E-21  0.2000E+02
  -3.015  0.8808E-21  0.2000E+02
  -3.005  0.1216E-20  0.2000E+02
  -2.995  0.1677E-20  0.2000E+02
  -2.985  0.2310E-20  0.2000E+02
  -2.975  0.3178E-20  0.2000E+02
  -2.965  0.4367E-20  0.2000E+02
  -2.955  0.5994E-20  0.2000E+02
  -2.945  0.8218E-20  0.2000E+02
  -2.935  0.1125E-19  0.2000E+02
  -2.925  0.1539E-19  0.2000E+02
  -2.915  0.2103E-19  0.2000E+02
  -2.905  0.2869E-19  0.2000E+02
  -2.895  0.3911E-19  0.2000E+02
  -2.885  0.5324E-19  0.2000E+02
  -2.875  0.7239E-19  0.2000E+02
  -2.865  0.9832E-19  0.2000E+02
  -2.855  0.1334E-18  0.2000E+02
  -2.845  0.1807E-18  0.2000E+02
  -2.835  0.2446E-18  0.2000E+02
  -2.825  0.3307E-18  0.2000E+02
  -2.815  0.4465E-18  0.2000E+02
  -2.805  0.6022E-18  0.2000E+02
  -2.795  0.8113E-18  0.2000E+02
  -2.785  0.1092E-17  0.2000E+02
  -2.775  0.1467E-17  0.2000E+02
  -2.765  0.1969E-17  0.2000E+02
  -2.755  0.2641E-17  0.2000E+02
  -2.745  0.3537E-17  0.2000E+02
  -2.735  0.4731E-17  0.2000E+02
  -2.725  0.6322E-17  0.2000E+02
  -2.715  0.8437E-17  0.2000E+02
  -2.705  0.1125E-16  0.2000E+02
  -2.695  0.1497E-16  0.2000E+02
  -2.685  0.1992E-16  0.2000E+02
  -2.675  0.2646E-16  0.2000E+02
  -2.665  0.3510E-16  0.2000E+02
  -2.655  0.4652E-16  0.2000E+02
  -2.645  0.6159E-16  0.2000E+02
  -2.635  0.8143E-16  0.2000E+02
  -2.625  0.1075E-15  0.2000E+02
  -2.615  0.1419E-15  0.2000E+02
  -2.605  0.1869E-15  0.2000E+02
  -2.595  0.2460E-15  0.2000E+02
  -2.585  0.3234E-15  0.2000E+02
  -2.575  0.4246E-15  0.2000E+02
  -2.565  0.5569E-15  0.2000E+02
  -2.555  0.7296E-15  0.2000E+02
  -2.545  0.9546E-15  0.2000E+02
  -2.535  0.1248E-14  0.2000E+02
  -2.525  0.1629E-14  0.2000E+02
  -2.515  0.2124E-14  0.2000E+02
  -2.505  0.2766E-14  0.2000E+02
  -2.495  0.3598E-14  0.2000E+02
  -2.485  0.4676E-14  0.2000E+02
  -2.475  0.6068E-14  0.2000E+02
  -2.465  0.7867E-14  0.2000E+02
  -2.455  0.1019E-13  0.2000E+02
  -2.445  0.1318E-13  0.2000E+02
  -2.435  0.1702E-13  0.2000E+02
  -2.425  0.2197E-13  0.2000E+02
  -2.415  0.2831E-13  0.2000E+02
  -2.405  0.3645E-13  0.2000E+02
  -2.395  0.4687E-13  0.2000E+02
  -2.385  0.6020E-13  0.2000E+02
  -2.375  0.7724E-13  0.2000E+02
  -2.365  0.9898E-13  0.2000E+02
  -2.355  0.1267E-12  0.2000E+02
  -2.345  0.1620E-12  0.2000E+02
  -2.335  0.2069E-12  0.2000E+02
  -2.325  0.2639E-12  0.2000E+02
  -2.315  0.3362E-12  0.2000E+02
  -2.305  0.4279E-12  0.2000E+02
  -2.295  0.5439E-12  0.2000E+02
  -2.285  0.6906E-12  0.2000E+02
  -2.275  0.8758E-12  0.2000E+02
  -2.265  0.1109E-11  0.2000E+02
  -2.255  0.1404E-11  0.2000E+02
  -2.245  0.1774E-11  0.2000E+02
  -2.235  0.2240E-11  0.2000E+02
  -2.225  0.2824E-11  0.2000E+02
  -2.215  0.3558E-11  0.2000E+02
  -2.205  0.4476E-11  0.2000E+02
  -2.195  0.5624E-11  0.2000E+02
  -2.185  0.7059E-11  0.2000E+02
  -2.175  0.8851E-11  0.2000E+02
  -2.165  0.1108E-10  0.2000E+02
  -2.155  0.1386E-10  0.2000E+02
  -2.145  0.1732E-10  0.2000E+02
  -2.135  0.2162E-10  0.2000E+02
  -2.125  0.2695E-10  0.2000E+02
  -2.115  0.3356E-10  0.2000E+02
  -2.105  0.4174E-10  0.2000E+02
  -2.095  0.5185E-10  0.2000E+02
  -2.085  0.6434E-10  0.2000E+02
  -2.075  0.7975E-10  0.2000E+02
  -2.065  0.9873E-10  0.2000E+02
  -2.055  0.1221E-09  0.2000E+02
  -2.045  0.1508E-09  0.2000E+02
  -2.035  0.1861E-09  0.2000E+02
  -2.025  0.2293E-09  0.2000E+02
  -2.015  0.2823E-09  0.2000E+02
  -2.005  0.3471E-09  0.2000E+02
  -1.995  0.4263E-09  0.2000E+02
  -1.985  0.5230E-09  0.2000E+02
  -1.975  0.6409E-09  0.2000E+02
  -1.965  0.7845E-09  0.2000E+02
  -1.955  0.9591E-09  0.2000E+02
  -1.945  0.1171E-08  0.2000E+02
  -1.935  0.1429E-08  0.2000E+02
  -1.925  0.1741E-08  0.2000E+02
  -1.915  0.2119E-08  0.2000E+02
  -1.905  0.2576E-08  0.2000E+02
  -1.895  0.3128E-08  0.2000E+02
  -1.885  0.3794E-08  0.2000E+02
  -1.875  0.4596E-08  0.2000E+02
  -1.865  0.5562E-08  0.2000E+02
  -1.855  0.6724E-08  0.2000E+02
  -1.845  0.8119E-08  0.2000E+02
  -1.835  0.9792E-08  0.2000E+02
  -1.825  0.1180E-07  0.2000E+02
  -1.815  0.1419E-07  0.2000E+02
  -1.805  0.1706E-07  0.2000E+02
  -1.795  0.2048E-07  0.2000E+02
  -1.785  0.2457E-07  0.2000E+02
  -1.775  0.2943E-07  0.2000E+02
  -1.765  0.3521E-07  0.2000E+02
  -1.755  0.4209E-07  0.2000E+02
  -1.745  0.5025E-07  0.2000E+02
  -1.735  0.5992E-07  0.2000E+02
  -1.725  0.7138E-07  0.2000E+02
  -1.715  0.8493E-07  0.2000E+02
  -1.705  0.1009E-06  0.2000E+02
  -1.695  0.1198E-06  0.2000E+02
  -1.685  0.1421E-06  0.2000E+02
  -1.675  0.1683E-06  0.2000E+02
  -1.665  0.1992E-06  0.2000E+02
  -1.655  0.2354E-06  0.2000E+02
  -1.645  0.2779E-06  0.2000E+02
  -1.635  0.3277E-06  0.2000E+02
  -1.625  0.3860E-06  0.2000E+02
  -1.615  0.4541E-06  0.2000E+02
  -1.605  0.5337E-06  0.2000E+02
  -1.595  0.6266E-06  0.2000E+02
  -1.585  0.7347E-06  0.2000E+02
  -1.575  0.8606E-06  0.2000E+02
  -1.565  0.1007E-05  0.2000E+02
  -1.555  0.1177E-05  0.2000E+02
  -1.545  0.1374E-05  0.2000E+02
  -1.535  0.1602E-05  0.2000E+02
  -1.525  0.1866E-05  0.2000E+02
  -1.515  0.2171E-05  0.2000E+02
  -1.505  0.2524E-05  0.2000E+02
  -1.495  0.2930E-05  0.2000E+02
  -1.485  0.3398E-05  0.2000E+02
  -1.475  0.3936E-05  0.2000E+02
  -1.465  0.4554E-05  0.2000E+02
  -1.455  0.5264E-05  0.2000E+02
  -1.445  0.6078E-05  0.2000E+02
  -1.435  0.7010E-05  0.2000E+02
  -1.425  0.8075E-05  0.2000E+02
  -1.415  0.9293E-05  0.2000E+02
  -1.405  0.1068E-04  0.2000E+02
  -1.395  0.1226E-04  0.2000E+02
  -1.385  0.1407E-04  0.2000E+02
  -1.375  0.1612E-04  0.2000E+02
  -1.365  0.1845E-04  0.2000E+02
  -1.355  0.2109E-04  0.2000E+02
  -1.345  0.2408E-04  0.2000E+02
  -1.335  0.2747E-04  0.2000E+02
  -1.325  0.3130E-04  0.2000E+02
  -1.315  0.3563E-04  0.2000E+02
  -1.305  0.4051E-04  0.2000E+02
  -1.295  0.4600E-04  0.2000E+02
  -1.285  0.5219E-04  0.2000E+02
  -1.275  0.5915E-04  0.2000E+02
  -1.265  0.6696E-04  0.2000E+02
  -1.255  0.7572E-04  0.2000E+02
  -1.245  0.8553E-04  0.2000E+02
  -1.235  0.9652E-04  0.2000E+02
  -1.225  0.1088E-03  0.2000E+02
  -1.215  0.1225E-03  0.2000E+02
  -1.205  0.1378E-03  0.2000E+02
  -1.195  0.1548E-03  0.2000E+02
  -1.185  0.1737E-03  0.2000E+02
  -1.175  0.1948E-03  0.2000E+02
  -1.165  0.2181E-03  0.2000E+02
  -1.155  0.2440E-03  0.2000E+02
  -1.145  0.2727E-03  0.2000E+02
  -1.135  0.3045E-03  0.2000E+02
  -1.125  0.3395E-03  0.2000E+02
  -1.115  0.3782E-03  0.2000E+02
  -1.105  0.4209E-03  0.2000E+02
  -1.095  0.4679E-03  0.2000E+02
  -1.085  0.5196E-03  0.2000E+02
  -1.075  0.5764E-03  0.2000E+02
  -1.065  0.6387E-03  0.2000E+02
  -1.055  0.7071E-03  0.2000E+02
  -1.045  0.7819E-03  0.2000E+02
  -1.035  0.8637E-03  0.2000E+02
  -1.025  0.9531E-03  0.2000E+02
  -1.015  0.1051E-02  0.2000E+02
  -1.005  0.1157E-02  0.2000E+02
  -0.995  0.1273E-02  0.2000E+02
  -0.985  0.1399E-02  0.2000E+02
  -0.975  0.1536E-02  0.2000E+02
  -0.965  0.1684E-02  0.2000E+02
  -0.955  0.1845E-02  0.2000E+02
  -0.945  0.2019E-02  0.2000E+02
  -0.935  0.2207E-02  0.2000E+02
  -0.925  0.2411E-02  0.2000E+02
  -0.915  0.2631E-02  0.2000E+02
  -0.905  0.2867E-02  0.2000E+02
  -0.895  0.3122E-02  0.2000E+02
  -0.885  0.3396E-02  0.2000E+02
  -0.875  0.3690E-02  0.2000E+02
  -0.865  0.4006E-02  0.2000E+02
  -0.855  0.4345E-02  0.2000E+02
  -0.845  0.4707E-02  0.2000E+02
  -0.835  0.5095E-02  0.2000E+02
  -0.825  0.5509E-02  0.2000E+02
  -0.815  0.5951E-02  0.2000E+02
  -0.805  0.6422E-02  0.2000E+02
  -0.795  0.6923E-02  0.2000E+02
  -0.785  0.7456E-02  0.2000E+02
  -0.775  0.8023E-02  0.2000E+02
  -0.765  0.8624E-02  0.2000E+02
  -0.755  0.9261E-02  0.2000E+02
  -0.745  0.9936E-02  0.2000E+02
  -0.735  0.1065E-01  0.2000E+02
  -0.725  0.1140E-01  0.2000E+02
  -0.715  0.1220E-01  0.2000E+02
  -0.705  0.1304E-01  0.2000E+02
  -0.695  0.1392E-01  0.2000E+02
  -0.685  0.1485E-01  0.2000E+02
  -0.675  0.1583E-01  0.2000E+02
  -0.665  0.1685E-01  0.2000E+02
  -0.655  0.1793E-01  0.2000E+02
  -0.645  0.1906E-01  0.2000E+02
  -0.635  0.2024E-01  0.2000E+02
  -0.625  0.2147E-01  0.2000E+02
  -0.615  0.2275E-01  0.2000E+02
  -0.605  0.2410E-01  0.2000E+02
  -0.595  0.2549E-01  0.2000E+02
  -0.585  0.2695E-01  0.2000E+02
  -0.575  0.2846E-01  0.2000E+02
  -0.565  0.3004E-01  0.2000E+02
  -0.555  0.3167E-01  0.2001E+02
  -0.545  0.3336E-01  0.2001E+02
  -0.535  0.3511E-01  0.2001E+02
  -0.525  0.3692E-01  0.2001E+02
  -0.515  0.3880E-01  0.2001E+02
  -0.505  0.4073E-01  0.2001E+02
  -0.495  0.4272E-01  0.2001E+02
  -0.485  0.4478E-01  0.2001E+02
  -0.475  0.4689E-01  0.2001E+02
  -0.465  0.4907E-01  0.2001E+02
  -0.455  0.5130E-01  0.2001E+02
  -0.445  0.5360E-01  0.2001E+02
  -0.435  0.5595E-01  0.2001E+02
  -0.425  0.5836E-01  0.2001E+02
  -0.415  0.6083E-01  0.2001E+02
  -0.405  0.6335E-01  0.2001E+02
  -0.395  0.6593E-01  0.2001E+02
  -0.385  0.6856E-01  0.2001E+02
  -0.375  0.7125E-01  0.2001E+02
  -0.365  0.7398E-01  0.2001E+02
  -0.355  0.7677E-01  0.2002E+02
  -0.345  0.7960E-01  0.2002E+02
  -0.335  0.8248E-01  0.2002E+02
  -0.325  0.8540E-01  0.2002E+02
  -0.315  0.8837E-01  0.2002E+02
  -0.305  0.9138E-01  0.2002E+02
  -0.295  0.9442E-01  0.2002E+02
  -0.285  0.9751E-01  0.2002E+02
  -0.275  0.1006E+00  0.2002E+02
  -0.265  0.1038E+00  0.2002E+02
  -0.255  0.1070E+00  0.2003E+02
  -0.245  0.1102E+00  0.2003E+02
  -0.235  0.1134E+00  0.2003E+02
  -0.225  0.1167E+00  0.2003E+02
  -0.215  0.1200E+00  0.2003E+02
  -0.205  0.1233E+00  0.2003E+02
  -0.195  0.1266E+00  0.2003E+02
  -0.185  0.1299E+00  0.2003E+02
  -0.175  0.1333E+00  0.2003E+02
  -0.165  0.1367E+00  0.2004E+02
  -0.155  0.1400E+00  0.2004E+02
  -0.145  0.1434E+00  0.2004E+02
  -0.135  0.1468E+00  0.2004E+02
  -0.125  0.1502E+00  0.2004E+02
  -0.115  0.1536E+00  0.2004E+02
  -0.105  0.1570E+00  0.2005E+02
  -0.095  0.1604E+00  0.2005E+02
  -0.085  0.1638E+00  0.2005E+02
  -0.075  0.1672E+00  0.2005E+02
  -0.065  0.1706E+00  0.2005E+02
  -0.055  0.1740E+00  0.2005E+02
  -0.045  0.1773E+00  0.2006E+02
  -0.035  0.1807E+00  0.2006E+02
  -0.025  0.1840E+00  0.2006E+02
  -0.015  0.1873E+00  0.2006E+02
  -0.005  0.1906E+00  0.2006E+02
   0.005  0.1939E+00  0.2006E+02
   0.015  0.1971E+00  0.2007E+02
   0.025  0.2004E+00  0.2007E+02
   0.035  0.2036E+00  0.2007E+02
   0.045  0.2068E+00  0.2007E+02
   0.055  0.2100E+00  0.2007E+02
   0.065  0.2131E+00  0.2008E+02
   0.075  0.2162E+00  0.2008E+02
   0.085  0.2193E+00  0.2008E+02
   0.095  0.2223E+00  0.2008E+02
   0.105  0.2254E+00  0.2009E+02
   0.115  0.2284E+00  0.2009E+02
   0.125  0.2313E+00  0.2009E+02
   0.135  0.2342E+00  0.2009E+02
   0.145  0.2371E+00  0.2009E+02
   0.155  0.2400E+00  0.2010E+02
   0.165  0.2428E+00  0.2010E+02
   0.175  0.2456E+00  0.2010E+02
   0.185  0.2484E+00  0.2010E+02
   0.195  0.2511E+00  0.2011E+02
   0.205  0.2538E+00  0.2011E+02
   0.215  0.2565E+00  0.2011E+02
   0.225  0.2591E+00  0.2011E+02
   0.235  0.2617E+00  0.2012E+02
   0.245  0.2642E+00  0.2012E+02
   0.255  0.2668E+00  0.2012E+02
   0.265  0.2692E+00  0.2013E+02
   0.275  0.2717E+00  0.2013E+02
   0.285  0.2741E+00  0.2013E+02
   0.295  0.2765E+00  0.2013E+02
   0.305  0.2789E+00  0.2014E+02
   0.315  0.2813E+00  0.2014E+02
   0.325  0.2836E+00  0.2014E+02
   0.335  0.2859E+00  0.2015E+02
   0.345  0.2881E+00  0.2015E+02
   0.355  0.2904E+00  0.2015E+02
   0.365  0.2926E+00  0.2015E+02
   0.375  0.2948E+00  0.2016E+02
   0.385  0.2970E+00  0.2016E+02
   0.395  0.2992E+00  0.2016E+02
   0.405  0.3014E+00  0.2017E+02
   0.415  0.3035E+00  0.2017E+02
   0.425  0.3056E+00  0.2017E+02
   0.435  0.3078E+00  0.2017E+02
   0.445  0.3099E+00  0.2018E+02
   0.455  0.3120E+00  0.2018E+02
   0.465  0.3141E+00  0.2018E+02
   0.475  0.3162E+00  0.2019E+02
   0.485  0.3183E+00  0.2019E+02
   0.495  0.3204E+00  0.2019E+02
   0.505  0.3224E+00  0.2020E+02
   0.515  0.3245E+00  0.2020E+02
   0.525  0.3266E+00  0.2020E+02
   0.535  0.3287E+00  0.2021E+02
   0.545  0.3308E+00  0.2021E+02
   0.555  0.3329E+00  0.2021E+02
   0.565  0.3349E+00  0.2022E+02
   0.575  0.3370E+00  0.2022E+02
   0.585  0.3391E+00  0.2022E+02
   0.595  0.3412E+00  0.2023E+02
   0.605  0.3433E+00  0.2023E+02
   0.615  0.3454E+00  0.2023E+02
   0.625  0.3475E+00  0.2024E+02
   0.635  0.3496E+00  0.2024E+02
   0.645  0.3516E+00  0.2024E+02
   0.655  0.3537E+00  0.2025E+02
   0.665  0.3558E+00  0.2025E+02
   0.675  0.3579E+00  0.2026E+02
   0.685  0.3599E+00  0.2026E+02
   0.695  0.3620E+00  0.2026E+02
   0.705  0.3641E+00  0.2027E+02
   0.715  0.3661E+00  0.2027E+02
   0.725  0.3681E+00  0.2027E+02
   0.735  0.3702E+00  0.2028E+02
   0.745  0.3722E+00  0.2028E+02
   0.755  0.3742E+00  0.2028E+02
   0.765  0.3762E+00  0.2029E+02
   0.775  0.3781E+00  0.2029E+02
   0.785  0.3801E+00  0.2030E+02
   0.795  0.3820E+00  0.2030E+02
   0.805  0.3839E+00  0.2030E+02
   0.815  0.3858E+00  0.2031E+02
   0.825  0.3877E+00  0.2031E+02
   0.835  0.3895E+00  0.2032E+02
   0.845  0.3913E+00  0.2032E+02
   0.855  0.3931E+00  0.2032E+02
   0.865  0.3949E+00  0.2033E+02
   0.875  0.3967E+00  0.2033E+02
   0.885  0.3984E+00  0.2033E+02
   0.895  0.4001E+00  0.2034E+02
   0.905  0.4018E+00  0.2034E+02
   0.915  0.4035E+00  0.2035E+02
   0.925  0.4051E+00  0.2035E+02
   0.935  0.4068E+00  0.2035E+02
   0.945  0.4084E+00  0.2036E+02
   0.955  0.4100E+00  0.2036E+02
   0.965  0.4115E+00  0.2037E+02
   0.975  0.4131E+00  0.2037E+02
   0.985  0.4146E+00  0.2038E+02
   0.995  0.4162E+00  0.2038E+02
   1.005  0.4177E+00  0.2038E+02
   1.015  0.4192E+00  0.2039E+02
   1.025  0.4207E+00  0.2039E+02
   1.035  0.4221E+00  0.2040E+02
   1.045  0.4236E+00  0.2040E+02
   1.055  0.4251E+00  0.2040E+02
   1.065  0.4265E+00  0.2041E+02
   1.075  0.4280E+00  0.2041E+02
   1.085  0.4294E+00  0.2042E+02
   1.095  0.4309E+00  0.2042E+02
   1.105  0.4323E+00  0.2043E+02
   1.115  0.4338E+00  0.2043E+02
   1.125  0.4352E+00  0.2044E+02
   1.135  0.4366E+00  0.2044E+02
   1.145  0.4381E+00  0.2044E+02
   1.155  0.4395E+00  0.2045E+02
   1.165  0.4410E+00  0.2045E+02
   1.175  0.4425E+00  0.2046E+02
   1.185  0.4439E+00  0.2046E+02
   1.195  0.4454E+00  0.2047E+02
   1.205  0.4468E+00  0.2047E+02
   1.215  0.4483E+00  0.2047E+02
   1.225  0.4498E+00  0.2048E+02
   1.235  0.4513E+00  0.2048E+02
   1.245  0.4528E+00  0.2049E+02
   1.255  0.4543E+00  0.2049E+02
   1.265  0.4558E+00  0.2050E+02
   1.275  0.4572E+00  0.2050E+02
   1.285  0.4587E+00  0.2051E+02
   1.295  0.4602E+00  0.2051E+02
   1.305  0.4617E+00  0.2052E+02
   1.315  0.4633E+00  0.2052E+02
   1.325  0.4648E+00  0.2053E+02
   1.335  0.4663E+00  0.2053E+02
   1.345  0.4678E+00  0.2053E+02
   1.355  0.4693E+00  0.2054E+02
   1.365  0.4708E+00  0.2054E+02
   1.375  0.4723E+00  0.2055E+02
   1.385  0.4738E+00  0.2055E+02
   1.395  0.4752E+00  0.2056E+02
   1.405  0.4767E+00  0.2056E+02
   1.415  0.4782E+00  0.2057E+02
   1.425  0.4797E+00  0.2057E+02
   1.435  0.4812E+00  0.2058E+02
   1.445  0.4827E+00  0.2058E+02
   1.455  0.4841E+00  0.2059E+02
   1.465  0.4856E+00  0.2059E+02
   1.475  0.4871E+00  0.2060E+02
   1.485  0.4886E+00  0.2060E+02
   1.495  0.4900E+00  0.2061E+02
   1.505  0.4915E+00  0.2061E+02
   1.515  0.4930E+00  0.2062E+02
   1.525  0.4945E+00  0.2062E+02
   1.535  0.4959E+00  0.2063E+02
   1.545  0.4974E+00  0.2063E+02
   1.555  0.4989E+00  0.2064E+02
   1.565  0.5004E+00  0.2064E+02
   1.575  0.5019E+00  0.2065E+02
   1.585  0.5034E+00  0.2065E+02
   1.595  0.5050E+00  0.2066E+02
   1.605  0.5065E+00  0.2066E+02
   1.615  0.5081E+00  0.2067E+02
   1.625  0.5097E+00  0.2067E+02
   1.635  0.5113E+00  0.2068E+02
   1.645  0.5129E+00  0.2068E+02
   1.655  0.5145E+00  0.2069E+02
   1.665  0.5161E+00  0.2069E+02
   1.675  0.5178E+00  0.2070E+02
   1.685  0.5195E+00  0.2070E+02
   1.695  0.5212E+00  0.2071E+02
   1.705  0.5230E+00  0.2071E+02
   1.715  0.5248E+00  0.2072E+02
   1.725  0.5266E+00  0.2072E+02
   1.735  0.5284E+00  0.2073E+02
   1.745  0.5302E+00  0.2073E+02
   1.755  0.5321E+00  0.2074E+02
   1.765  0.5340E+00  0.2074E+02
   1.775  0.5360E+00  0.2075E+02
   1.785  0.5379E+00  0.2076E+02
   1.795  0.5399E+00  0.2076E+02
   1.805  0.5419E+00  0.2077E+02
   1.815  0.5439E+00  0.2077E+02
   1.825  0.5459E+00  0.2078E+02
   1.835  0.5480E+00  0.2078E+02
   1.845  0.5501E+00  0.2079E+02
   1.855  0.5522E+00  0.2079E+02
   1.865  0.5542E+00  0.2080E+02
   1.875  0.5563E+00  0.2080E+02
   1.885  0.5585E+00  0.2081E+02
   1.895  0.5606E+00  0.2082E+02
   1.905  0.5627E+00  0.2082E+02
   1.915  0.5648E+00  0.2083E+02
   1.925  0.5669E+00  0.2083E+02
   1.935  0.5690E+00  0.2084E+02
   1.945  0.5710E+00  0.2084E+02
   1.955  0.5731E+00  0.2085E+02
   1.965  0.5751E+00  0.2086E+02
   1.975  0.5771E+00  0.2086E+02
   1.985  0.5791E+00  0.2087E+02
   1.995  0.5810E+00  0.2087E+02
   2.005  0.5829E+00  0.2088E+02
   2.015  0.5848E+00  0.2088E+02
   2.025  0.5867E+00  0.2089E+02
   2.035  0.5884E+00  0.2090E+02
   2.045  0.5902E+00  0.2090E+02
   2.055  0.5919E+00  0.2091E+02
   2.065  0.5935E+00  0.2091E+02
   2.075  0.5951E+00  0.2092E+02
   2.085  0.5966E+00  0.2093E+02
   2.095  0.5981E+00  0.2093E+02
   2.105  0.5995E+00  0.2094E+02
   2.115  0.6009E+00  0.2094E+02
   2.125  0.6022E+00  0.2095E+02
   2.135  0.6034E+00  0.2096E+02
   2.145  0.6046E+00  0.2096E+02
   2.155  0.6057E+00  0.2097E+02
   2.165  0.6068E+00  0.2097E+02
   2.175  0.6078E+00  0.2098E+02
   2.185  0.6088E+00  0.2099E+02
   2.195  0.6097E+00  0.2099E+02
   2.205  0.6105E+00  0.2100E+02
   2.215  0.6113E+00  0.2100E+02
   2.225  0.6121E+00  0.2101E+02
   2.235  0.6128E+00  0.2102E+02
   2.245  0.6135E+00  0.2102E+02
   2.255  0.6141E+00  0.2103E+02
   2.265  0.6147E+00  0.2104E+02
   2.275  0.6153E+00  0.2104E+02
   2.285  0.6159E+00  0.2105E+02
   2.295  0.6164E+00  0.2105E+02
   2.305  0.6170E+00  0.2106E+02
   2.315  0.6175E+00  0.2107E+02
   2.325  0.6180E+00  0.2107E+02
   2.335  0.6186E+00  0.2108E+02
   2.345  0.6191E+00  0.2109E+02
   2.355  0.6197E+00  0.2109E+02
   2.365  0.6203E+00  0.2110E+02
   2.375  0.6210E+00  0.2110E+02
   2.385  0.6217E+00  0.2111E+02
   2.395  0.6224E+00  0.2112E+02
   2.405  0.6232E+00  0.2112E+02
   2.415  0.6240E+00  0.2113E+02
   2.425  0.6249E+00  0.2113E+02
   2.435  0.6259E+00  0.2114E+02
   2.445  0.6269E+00  0.2115E+02
   2.455  0.6281E+00  0.2115E+02
   2.465  0.6293E+00  0.2116E+02
   2.475  0.6306E+00  0.2117E+02
   2.485  0.6320E+00  0.2117E+02
   2.495  0.6335E+00  0.2118E+02
   2.505  0.6351E+00  0.2119E+02
   2.515  0.6368E+00  0.2119E+02
   2.525  0.6387E+00  0.2120E+02
   2.535  0.6406E+00  0.2120E+02
   2.545  0.6427E+00  0.2121E+02
   2.555  0.6449E+00  0.2122E+02
   2.565  0.6472E+00  0.2122E+02
   2.575  0.6496E+00  0.2123E+02
   2.585  0.6522E+00  0.2124E+02
   2.595  0.6549E+00  0.2124E+02
   2.605  0.6577E+00  0.2125E+02
   2.615  0.6606E+00  0.2126E+02
   2.625  0.6636E+00  0.2126E+02
   2.635  0.6668E+00  0.2127E+02
   2.645  0.6701E+00  0.2128E+02
   2.655  0.6735E+00  0.2128E+02
   2.665  0.6770E+00  0.2129E+02
   2.675  0.6806E+00  0.2130E+02
   2.685  0.6843E+00  0.2130E+02
   2.695  0.6881E+00  0.2131E+02
   2.705  0.6919E+00  0.2132E+02
   2.715  0.6959E+00  0.2132E+02
   2.725  0.6999E+00  0.2133E+02
   2.735  0.7040E+00  0.2134E+02
   2.745  0.7082E+00  0.2135E+02
   2.755  0.7124E+00  0.2135E+02
   2.765  0.7167E+00  0.2136E+02
   2.775  0.7210E+00  0.2137E+02
   2.785  0.7254E+00  0.2137E+02
   2.795  0.7297E+00  0.2138E+02
   2.805  0.7341E+00  0.2139E+02
   2.815  0.7385E+00  0.2140E+02
   2.825  0.7429E+00  0.2140E+02
   2.835  0.7473E+00  0.2141E+02
   2.845  0.7516E+00  0.2142E+02
   2.855  0.7559E+00  0.2143E+02
   2.865  0.7602E+00  0.2143E+02
   2.875  0.7644E+00  0.2144E+02
   2.885  0.7686E+00  0.2145E+02
   2.895  0.7727E+00  0.2146E+02
   2.905  0.7768E+00  0.2146E+02
   2.915  0.7808E+00  0.2147E+02
   2.925  0.7847E+00  0.2148E+02
   2.935  0.7885E+00  0.2149E+02
   2.945  0.7922E+00  0.2150E+02
   2.955  0.7958E+00  0.2150E+02
   2.965  0.7993E+00  0.2151E+02
   2.975  0.8027E+00  0.2152E+02
   2.985  0.8060E+00  0.2153E+02
   2.995  0.8091E+00  0.2154E+02
   3.005  0.8122E+00  0.2154E+02
   3.015  0.8151E+00  0.2155E+02
   3.025  0.8179E+00  0.2156E+02
   3.035  0.8206E+00  0.2157E+02
   3.045  0.8231E+00  0.2158E+02
   3.055  0.8255E+00  0.2159E+02
   3.065  0.8278E+00  0.2159E+02
   3.075  0.8300E+00  0.2160E+02
   3.085  0.8321E+00  0.2161E+02
   3.095  0.8340E+00  0.2162E+02
   3.105  0.8358E+00  0.2163E+02
   3.115  0.8375E+00  0.2164E+02
   3.125  0.8391E+00  0.2164E+02
   3.135  0.8406E+00  0.2165E+02
   3.145  0.8420E+00  0.2166E+02
   3.155  0.8433E+00  0.2167E+02
   3.165  0.8445E+00  0.2168E+02
   3.175  0.8456E+00  0.2169E+02
   3.185  0.8467E+00  0.2169E+02
   3.195  0.8476E+00  0.2170E+02
   3.205  0.8486E+00  0.2171E+02
   3.215  0.8494E+00  0.2172E+02
   3.225  0.8502E+00  0.2173E+02
   3.235  0.8510E+00  0.2174E+02
   3.245  0.8517E+00  0.2175E+02
   3.255  0.8525E+00  0.2175E+02
   3.265  0.8532E+00  0.2176E+02
   3.275  0.8538E+00  0.2177E+02
   3.285  0.8545E+00  0.2178E+02
   3.295  0.8552E+00  0.2179E+02
   3.305  0.8559E+00  0.2180E+02
   3.315  0.8566E+00  0.2181E+02
   3.325  0.8574E+00  0.2181E+02
   3.335  0.8582E+00  0.2182E+02
   3.345  0.8590E+00  0.2183E+02
   3.355  0.8599E+00  0.2184E+02
   3.365  0.8608E+00  0.2185E+02
   3.375  0.8618E+00  0.2186E+02
   3.385  0.8629E+00  0.2187E+02
   3.395  0.8640E+00  0.2187E+02
   3.405  0.8652E+00  0.2188E+02
   3.415  0.8665E+00  0.2189E+02
   3.425  0.8679E+00  0.2190E+02
   3.435  0.8694E+00  0.2191E+02
   3.445  0.8709E+00  0.2192E+02
   3.455  0.8726E+00  0.2193E+02
   3.465  0.8743E+00  0.2193E+02
   3.475  0.8762E+00  0.2194E+02
   3.485  0.8781E+00  0.2195E+02
   3.495  0.8802E+00  0.2196E+02
   3.505  0.8823E+00  0.2197E+02
   3.515  0.8846E+00  0.2198E+02
   3.525  0.8869E+00  0.2199E+02
   3.535  0.8894E+00  0.2200E+02
   3.545  0.8919E+00  0.2201E+02
   3.555  0.8945E+00  0.2201E+02
   3.565  0.8972E+00  0.2202E+02
   3.575  0.9000E+00  0.2203E+02
   3.585  0.9028E+00  0.2204E+02
   3.595  0.9057E+00  0.2205E+02
   3.605  0.9087E+00  0.2206E+02
   3.615  0.9117E+00  0.2207E+02
   3.625  0.9148E+00  0.2208E+02
   3.635  0.9179E+00  0.2209E+02
   3.645  0.9210E+00  0.2210E+02
   3.655  0.9241E+00  0.2211E+02
   3.665  0.9272E+00  0.2211E+02
   3.675  0.9303E+00  0.2212E+02
   3.685  0.9334E+00  0.2213E+02
   3.695  0.9365E+00  0.2214E+02
   3.705  0.9395E+00  0.2215E+02
   3.715  0.9424E+00  0.2216E+02
   3.725  0.9453E+00  0.2217E+02
   3.735  0.9481E+00  0.2218E+02
   3.745  0.9507E+00  0.2219E+02
   3.755  0.9533E+00  0.2220E+02
   3.765  0.9557E+00  0.2221E+02
   3.775  0.9580E+00  0.2222E+02
   3.785  0.9601E+00  0.2223E+02
   3.795  0.9621E+00  0.2224E+02
   3.805  0.9638E+00  0.2225E+02
   3.815  0.9654E+00  0.2226E+02
   3.825  0.9667E+00  0.2227E+02
   3.835  0.9679E+00  0.2228E+02
   3.845  0.9687E+00  0.2229E+02
   3.855  0.9693E+00  0.2230E+02
   3.865  0.9697E+00  0.2231E+02
   3.875  0.9698E+00  0.2232E+02
   3.885  0.9695E+00  0.2233E+02
   3.895  0.9690E+00  0.2233E+02
   3.905  0.9682E+00  0.2234E+02
   3.915  0.9671E+00  0.2235E+02
   3.925  0.9656E+00  0.2236E+02
   3.935  0.9638E+00  0.2237E+02
   3.945  0.9617E+00  0.2238E+02
   3.955  0.9593E+00  0.2239E+02
   3.965  0.9565E+00  0.2240E+02
   3.975  0.9533E+00  0.2241E+02
   3.985  0.9499E+00  0.2242E+02
   3.995  0.9460E+00  0.2243E+02
   4.005  0.9419E+00  0.2244E+02
   4.015  0.9374E+00  0.2245E+02
   4.025  0.9325E+00  0.2246E+02
   4.035  0.9273E+00  0.2247E+02
   4.045  0.9218E+00  0.2248E+02
   4.055  0.9160E+00  0.2249E+02
   4.065  0.9099E+00  0.2250E+02
   4.075  0.9035E+00  0.2250E+02
   4.085  0.8968E+00  0.2251E+02
   4.095  0.8898E+00  0.2252E+02
   4.105  0.8825E+00  0.2253E+02
   4.115  0.8750E+00  0.2254E+02
   4.125  0.8672E+00  0.2255E+02
   4.135  0.8593E+00  0.2256E+02
   4.145  0.8511E+00  0.2257E+02
   4.155  0.8427E+00  0.2257E+02
   4.165  0.8342E+00  0.2258E+02
   4.175  0.8254E+00  0.2259E+02
   4.185  0.8166E+00  0.2260E+02
   4.195  0.8076E+00  0.2261E+02
   4.205  0.7986E+00  0.2262E+02
   4.215  0.7894E+00  0.2262E+02
   4.225  0.7802E+00  0.2263E+02
   4.235  0.7710E+00  0.2264E+02
   4.245  0.7617E+00  0.2265E+02
   4.255  0.7524E+00  0.2265E+02
   4.265  0.7431E+00  0.2266E+02
   4.275  0.7339E+00  0.2267E+02
   4.285  0.7247E+00  0.2268E+02
   4.295  0.7156E+00  0.2268E+02
   4.305  0.7066E+00  0.2269E+02
   4.315  0.6978E+00  0.2270E+02
   4.325  0.6890E+00  0.2270E+02
   4.335  0.6804E+00  0.2271E+02
   4.345  0.6719E+00  0.2272E+02
   4.355  0.6637E+00  0.2272E+02
   4.365  0.6556E+00  0.2273E+02
   4.375  0.6477E+00  0.2274E+02
   4.385  0.6401E+00  0.2274E+02
   4.395  0.6327E+00  0.2275E+02
   4.405  0.6256E+00  0.2276E+02
   4.415  0.6187E+00  0.2276E+02
   4.425  0.6121E+00  0.2277E+02
   4.435  0.6057E+00  0.2277E+02
   4.445  0.5997E+00  0.2278E+02
   4.455  0.5939E+00  0.2279E+02
   4.465  0.5885E+00  0.2279E+02
   4.475  0.5833E+00  0.2280E+02
   4.485  0.5785E+00  0.2280E+02
   4.495  0.5740E+00  0.2281E+02
   4.505  0.5697E+00  0.2282E+02
   4.515  0.5658E+00  0.2282E+02
   4.525  0.5623E+00  0.2283E+02
   4.535  0.5590E+00  0.2283E+02
   4.545  0.5561E+00  0.2284E+02
   4.555  0.5534E+00  0.2284E+02
   4.565  0.5511E+00  0.2285E+02
   4.575  0.5490E+00  0.2285E+02
   4.585  0.5473E+00  0.2286E+02
   4.595  0.5458E+00  0.2287E+02
   4.605  0.5446E+00  0.2287E+02
   4.615  0.5437E+00  0.2288E+02
   4.625  0.5431E+00  0.2288E+02
   4.635  0.5427E+00  0.2289E+02
   4.645  0.5425E+00  0.2289E+02
   4.655  0.5426E+00  0.2290E+02
   4.665  0.5428E+00  0.2290E+02
   4.675  0.5433E+00  0.2291E+02
   4.685  0.5440E+00  0.2291E+02
   4.695  0.5448E+00  0.2292E+02
   4.705  0.5459E+00  0.2292E+02
   4.715  0.5470E+00  0.2293E+02
   4.725  0.5483E+00  0.2294E+02
   4.735  0.5498E+00  0.2294E+02
   4.745  0.5513E+00  0.2295E+02
   4.755  0.5529E+00  0.2295E+02
   4.765  0.5547E+00  0.2296E+02
   4.775  0.5565E+00  0.2296E+02
   4.785  0.5583E+00  0.2297E+02
   4.795  0.5602E+00  0.2297E+02
   4.805  0.5621E+00  0.2298E+02
   4.815  0.5640E+00  0.2299E+02
   4.825  0.5660E+00  0.2299E+02
   4.835  0.5679E+00  0.2300E+02
   4.845  0.5698E+00  0.2300E+02
   4.855  0.5717E+00  0.2301E+02
   4.865  0.5736E+00  0.2301E+02
   4.875  0.5754E+00  0.2302E+02
   4.885  0.5771E+00  0.2303E+02
   4.895  0.5788E+00  0.2303E+02
   4.905  0.5804E+00  0.2304E+02
   4.915  0.5819E+00  0.2304E+02
   4.925  0.5833E+00  0.2305E+02
   4.935  0.5846E+00  0.2306E+02
   4.945  0.5859E+00  0.2306E+02
   4.955  0.5870E+00  0.2307E+02
   4.965  0.5880E+00  0.2307E+02
   4.975  0.5889E+00  0.2308E+02
   4.985  0.5897E+00  0.2308E+02
   4.995  0.5903E+00  0.2309E+02
   5.005  0.5909E+00  0.2310E+02
   5.015  0.5913E+00  0.2310E+02
   5.025  0.5916E+00  0.2311E+02
   5.035  0.5917E+00  0.2311E+02
   5.045  0.5918E+00  0.2312E+02
   5.055  0.5917E+00  0.2313E+02
   5.065  0.5915E+00  0.2313E+02
   5.075  0.5912E+00  0.2314E+02
   5.085  0.5908E+00  0.2314E+02
   5.095  0.5902E+00  0.2315E+02
   5.105  0.5895E+00  0.2316E+02
   5.115  0.5888E+00  0.2316E+02
   5.125  0.5879E+00  0.2317E+02
   5.135  0.5869E+00  0.2317E+02
   5.145  0.5859E+00  0.2318E+02
   5.155  0.5847E+00  0.2318E+02
   5.165  0.5835E+00  0.2319E+02
   5.175  0.5822E+00  0.2320E+02
   5.185  0.5808E+00  0.2320E+02
   5.195  0.5793E+00  0.2321E+02
   5.205  0.5778E+00  0.2321E+02
   5.215  0.5763E+00  0.2322E+02
   5.225  0.5746E+00  0.2323E+02
   5.235  0.5730E+00  0.2323E+02
   5.245  0.5713E+00  0.2324E+02
   5.255  0.5695E+00  0.2324E+02
   5.265  0.5678E+00  0.2325E+02
   5.275  0.5660E+00  0.2325E+02
   5.285  0.5642E+00  0.2326E+02
   5.295  0.5624E+00  0.2327E+02
   5.305  0.5606E+00  0.2327E+02
   5.315  0.5588E+00  0.2328E+02
   5.325  0.5570E+00  0.2328E+02
   5.335  0.5552E+00  0.2329E+02
   5.345  0.5535E+00  0.2329E+02
   5.355  0.5517E+00  0.2330E+02
   5.365  0.5500E+00  0.2330E+02
   5.375  0.5484E+00  0.2331E+02
   5.385  0.5468E+00  0.2331E+02
   5.395  0.5452E+00  0.2332E+02
   5.405  0.5437E+00  0.2333E+02
   5.415  0.5422E+00  0.2333E+02
   5.425  0.5408E+00  0.2334E+02
   5.435  0.5394E+00  0.2334E+02
   5.445  0.5381E+00  0.2335E+02
   5.455  0.5368E+00  0.2335E+02
   5.465  0.5357E+00  0.2336E+02
   5.475  0.5346E+00  0.2336E+02
   5.485  0.5335E+00  0.2337E+02
   5.495  0.5325E+00  0.2337E+02
   5.505  0.5316E+00  0.2338E+02
   5.515  0.5308E+00  0.2338E+02
   5.525  0.5300E+00  0.2339E+02
   5.535  0.5293E+00  0.2340E+02
   5.545  0.5287E+00  0.2340E+02
   5.555  0.5281E+00  0.2341E+02
   5.565  0.5275E+00  0.2341E+02
   5.575  0.5271E+00  0.2342E+02
   5.585  0.5267E+00  0.2342E+02
   5.595  0.5263E+00  0.2343E+02
   5.605  0.5260E+00  0.2343E+02
   5.615  0.5257E+00  0.2344E+02
   5.625  0.5254E+00  0.2344E+02
   5.635  0.5252E+00  0.2345E+02
   5.645  0.5250E+00  0.2345E+02
   5.655  0.5248E+00  0.2346E+02
   5.665  0.5246E+00  0.2346E+02
   5.675  0.5245E+00  0.2347E+02
   5.685  0.5243E+00  0.2347E+02
   5.695  0.5241E+00  0.2348E+02
   5.705  0.5239E+00  0.2348E+02
   5.715  0.5237E+00  0.2349E+02
   5.725  0.5235E+00  0.2350E+02
   5.735  0.5232E+00  0.2350E+02
   5.745  0.5229E+00  0.2351E+02
   5.755  0.5226E+00  0.2351E+02
   5.765  0.5222E+00  0.2352E+02
   5.775  0.5217E+00  0.2352E+02
   5.785  0.5212E+00  0.2353E+02
   5.795  0.5206E+00  0.2353E+02
   5.805  0.5199E+00  0.2354E+02
   5.815  0.5191E+00  0.2354E+02
   5.825  0.5183E+00  0.2355E+02
   5.835  0.5174E+00  0.2355E+02
   5.845  0.5163E+00  0.2356E+02
   5.855  0.5152E+00  0.2356E+02
   5.865  0.5140E+00  0.2357E+02
   5.875  0.5127E+00  0.2357E+02
   5.885  0.5112E+00  0.2358E+02
   5.895  0.5097E+00  0.2358E+02
   5.905  0.5081E+00  0.2359E+02
   5.915  0.5063E+00  0.2359E+02
   5.925  0.5045E+00  0.2360E+02
   5.935  0.5026E+00  0.2360E+02
   5.945  0.5005E+00  0.2361E+02
   5.955  0.4984E+00  0.2361E+02
   5.965  0.4962E+00  0.2362E+02
   5.975  0.4938E+00  0.2362E+02
   5.985  0.4914E+00  0.2363E+02
   5.995  0.4890E+00  0.2363E+02
   6.005  0.4864E+00  0.2364E+02
   6.015  0.4838E+00  0.2364E+02
   6.025  0.4811E+00  0.2365E+02
   6.035  0.4784E+00  0.2365E+02
   6.045  0.4756E+00  0.2366E+02
   6.055  0.4728E+00  0.2366E+02
   6.065  0.4699E+00  0.2367E+02
   6.075  0.4670E+00  0.2367E+02
   6.085  0.4641E+00  0.2368E+02
   6.095  0.4612E+00  0.2368E+02
   6.105  0.4583E+00  0.2369E+02
   6.115  0.4555E+00  0.2369E+02
   6.125  0.4526E+00  0.2369E+02
   6.135  0.4498E+00  0.2370E+02
   6.145  0.4470E+00  0.2370E+02
   6.155  0.4443E+00  0.2371E+02
   6.165  0.4416E+00  0.2371E+02
   6.175  0.4390E+00  0.2372E+02
   6.185  0.4365E+00  0.2372E+02
   6.195  0.4341E+00  0.2373E+02
   6.205  0.4318E+00  0.2373E+02
   6.215  0.4295E+00  0.2373E+02
   6.225  0.4274E+00  0.2374E+02
   6.235  0.4254E+00  0.2374E+02
   6.245  0.4236E+00  0.2375E+02
   6.255  0.4219E+00  0.2375E+02
   6.265  0.4203E+00  0.2375E+02
   6.275  0.4188E+00  0.2376E+02
   6.285  0.4176E+00  0.2376E+02
   6.295  0.4164E+00  0.2377E+02
   6.305  0.4155E+00  0.2377E+02
   6.315  0.4147E+00  0.2378E+02
   6.325  0.4141E+00  0.2378E+02
   6.335  0.4136E+00  0.2378E+02
   6.345  0.4134E+00  0.2379E+02
   6.355  0.4133E+00  0.2379E+02
   6.365  0.4134E+00  0.2380E+02
   6.375  0.4137E+00  0.2380E+02
   6.385  0.4142E+00  0.2380E+02
   6.395  0.4149E+00  0.2381E+02
   6.405  0.4157E+00  0.2381E+02
   6.415  0.4168E+00  0.2382E+02
   6.425  0.4180E+00  0.2382E+02
   6.435  0.4194E+00  0.2383E+02
   6.445  0.4210E+00  0.2383E+02
   6.455  0.4228E+00  0.2383E+02
   6.465  0.4248E+00  0.2384E+02
   6.475  0.4269E+00  0.2384E+02
   6.485  0.4293E+00  0.2385E+02
   6.495  0.4318E+00  0.2385E+02
   6.505  0.4345E+00  0.2386E+02
   6.515  0.4373E+00  0.2386E+02
   6.525  0.4404E+00  0.2386E+02
   6.535  0.4435E+00  0.2387E+02
   6.545  0.4469E+00  0.2387E+02
   6.555  0.4504E+00  0.2388E+02
   6.565  0.4540E+00  0.2388E+02
   6.575  0.4578E+00  0.2389E+02
   6.585  0.4618E+00  0.2389E+02
   6.595  0.4659E+00  0.2390E+02
   6.605  0.4701E+00  0.2390E+02
   6.615  0.4744E+00  0.2391E+02
   6.625  0.4789E+00  0.2391E+02
   6.635  0.4835E+00  0.2392E+02
   6.645  0.4882E+00  0.2392E+02
   6.655  0.4930E+00  0.2392E+02
   6.665  0.4979E+00  0.2393E+02
   6.675  0.5030E+00  0.2393E+02
   6.685  0.5081E+00  0.2394E+02
   6.695  0.5133E+00  0.2395E+02
   6.705  0.5186E+00  0.2395E+02
   6.715  0.5240E+00  0.2396E+02
   6.725  0.5294E+00  0.2396E+02
   6.735  0.5350E+00  0.2397E+02
   6.745  0.5406E+00  0.2397E+02
   6.755  0.5463E+00  0.2398E+02
   6.765  0.5520E+00  0.2398E+02
   6.775  0.5578E+00  0.2399E+02
   6.785  0.5636E+00  0.2399E+02
   6.795  0.5695E+00  0.2400E+02
   6.805  0.5754E+00  0.2401E+02
   6.815  0.5814E+00  0.2401E+02
   6.825  0.5874E+00  0.2402E+02
   6.835  0.5934E+00  0.2402E+02
   6.845  0.5994E+00  0.2403E+02
   6.855  0.6055E+00  0.2403E+02
   6.865  0.6116E+00  0.2404E+02
   6.875  0.6177E+00  0.2405E+02
   6.885  0.6238E+00  0.2405E+02
   6.895  0.6299E+00  0.2406E+02
   6.905  0.6361E+00  0.2407E+02
   6.915  0.6422E+00  0.2407E+02
   6.925  0.6483E+00  0.2408E+02
   6.935  0.6544E+00  0.2409E+02
   6.945  0.6605E+00  0.2409E+02
   6.955  0.6666E+00  0.2410E+02
   6.965  0.6727E+00  0.2411E+02
   6.975  0.6787E+00  0.2411E+02
   6.985  0.6847E+00  0.2412E+02
   6.995  0.6907E+00  0.2413E+02
   7.005  0.6967E+00  0.2413E+02
   7.015  0.7027E+00  0.2414E+02
   7.025  0.7086E+00  0.2415E+02
   7.035  0.7144E+00  0.2415E+02
   7.045  0.7203E+00  0.2416E+02
   7.055  0.7261E+00  0.2417E+02
   7.065  0.7318E+00  0.2418E+02
   7.075  0.7375E+00  0.2418E+02
   7.085  0.7431E+00  0.2419E+02
   7.095  0.7487E+00  0.2420E+02
   7.105  0.7542E+00  0.2421E+02
   7.115  0.7597E+00  0.2421E+02
   7.125  0.7651E+00  0.2422E+02
   7.135  0.7704E+00  0.2423E+02
   7.145  0.7757E+00  0.2424E+02
   7.155  0.7809E+00  0.2424E+02
   7.165  0.7860E+00  0.2425E+02
   7.175  0.7910E+00  0.2426E+02
   7.185  0.7960E+00  0.2427E+02
   7.195  0.8008E+00  0.2428E+02
   7.205  0.8056E+00  0.2428E+02
   7.215  0.8103E+00  0.2429E+02
   7.225  0.8149E+00  0.2430E+02
   7.235  0.8194E+00  0.2431E+02
   7.245  0.8238E+00  0.2432E+02
   7.255  0.8280E+00  0.2433E+02
   7.265  0.8322E+00  0.2433E+02
   7.275  0.8363E+00  0.2434E+02
   7.285  0.8402E+00  0.2435E+02
   7.295  0.8441E+00  0.2436E+02
   7.305  0.8478E+00  0.2437E+02
   7.315  0.8514E+00  0.2438E+02
   7.325  0.8549E+00  0.2438E+02
   7.335  0.8582E+00  0.2439E+02
   7.345  0.8614E+00  0.2440E+02
   7.355  0.8645E+00  0.2441E+02
   7.365  0.8675E+00  0.2442E+02
   7.375  0.8703E+00  0.2443E+02
   7.385  0.8730E+00  0.2444E+02
   7.395  0.8755E+00  0.2444E+02
   7.405  0.8780E+00  0.2445E+02
   7.415  0.8802E+00  0.2446E+02
   7.425  0.8824E+00  0.2447E+02
   7.435  0.8844E+00  0.2448E+02
   7.445  0.8863E+00  0.2449E+02
   7.455  0.8880E+00  0.2450E+02
   7.465  0.8896E+00  0.2451E+02
   7.475  0.8911E+00  0.2452E+02
   7.485  0.8925E+00  0.2452E+02
   7.495  0.8937E+00  0.2453E+02
   7.505  0.8948E+00  0.2454E+02
   7.515  0.8957E+00  0.2455E+02
   7.525  0.8966E+00  0.2456E+02
   7.535  0.8973E+00  0.2457E+02
   7.545  0.8979E+00  0.2458E+02
   7.555  0.8984E+00  0.2459E+02
   7.565  0.8988E+00  0.2460E+02
   7.575  0.8991E+00  0.2461E+02
   7.585  0.8993E+00  0.2461E+02
   7.595  0.8994E+00  0.2462E+02
   7.605  0.8994E+00  0.2463E+02
   7.615  0.8993E+00  0.2464E+02
   7.625  0.8991E+00  0.2465E+02
   7.635  0.8989E+00  0.2466E+02
   7.645  0.8986E+00  0.2467E+02
   7.655  0.8983E+00  0.2468E+02
   7.665  0.8979E+00  0.2469E+02
   7.675  0.8975E+00  0.2470E+02
   7.685  0.8970E+00  0.2470E+02
   7.695  0.8965E+00  0.2471E+02
   7.705  0.8959E+00  0.2472E+02
   7.715  0.8954E+00  0.2473E+02
   7.725  0.8948E+00  0.2474E+02
   7.735  0.8943E+00  0.2475E+02
   7.745  0.8937E+00  0.2476E+02
   7.755  0.8932E+00  0.2477E+02
   7.765  0.8927E+00  0.2478E+02
   7.775  0.8922E+00  0.2478E+02
   7.785  0.8918E+00  0.2479E+02
   7.795  0.8914E+00  0.2480E+02
   7.805  0.8910E+00  0.2481E+02
   7.815  0.8907E+00  0.2482E+02
   7.825  0.8905E+00  0.2483E+02
   7.835  0.8903E+00  0.2484E+02
   7.845  0.8902E+00  0.2485E+02
   7.855  0.8902E+00  0.2486E+02
   7.865  0.8903E+00  0.2486E+02
   7.875  0.8904E+00  0.2487E+02
   7.885  0.8907E+00  0.2488E+02
   7.895  0.8910E+00  0.2489E+02
   7.905  0.8915E+00  0.2490E+02
   7.915  0.8921E+00  0.2491E+02
   7.925  0.8927E+00  0.2492E+02
   7.935  0.8935E+00  0.2493E+02
   7.945  0.8944E+00  0.2494E+02
   7.955  0.8953E+00  0.2495E+02
   7.965  0.8964E+00  0.2495E+02
   7.975  0.8976E+00  0.2496E+02
   7.985  0.8989E+00  0.2497E+02
   7.995  0.9003E+00  0.2498E+02
   8.005  0.9018E+00  0.2499E+02
   8.015  0.9034E+00  0.2500E+02
   8.025  0.9051E+00  0.2501E+02
   8.035  0.9069E+00  0.2502E+02
   8.045  0.9088E+00  0.2503E+02
   8.055  0.9108E+00  0.2504E+02
   8.065  0.9128E+00  0.2504E+02
   8.075  0.9149E+00  0.2505E+02
   8.085  0.9170E+00  0.2506E+02
   8.095  0.9192E+00  0.2507E+02
   8.105  0.9215E+00  0.2508E+02
   8.115  0.9238E+00  0.2509E+02
   8.125  0.9261E+00  0.2510E+02
   8.135  0.9284E+00  0.2511E+02
   8.145  0.9308E+00  0.2512E+02
   8.155  0.9331E+00  0.2513E+02
   8.165  0.9355E+00  0.2514E+02
   8.175  0.9378E+00  0.2515E+02
   8.185  0.9401E+00  0.2516E+02
   8.195  0.9424E+00  0.2517E+02
   8.205  0.9447E+00  0.2517E+02
   8.215  0.9469E+00  0.2518E+02
   8.225  0.9490E+00  0.2519E+02
   8.235  0.9511E+00  0.2520E+02
   8.245  0.9531E+00  0.2521E+02
   8.255  0.9551E+00  0.2522E+02
   8.265  0.9569E+00  0.2523E+02
   8.275  0.9587E+00  0.2524E+02
   8.285  0.9604E+00  0.2525E+02
   8.295  0.9619E+00  0.2526E+02
   8.305  0.9634E+00  0.2527E+02
   8.315  0.9648E+00  0.2528E+02
   8.325  0.9661E+00  0.2529E+02
   8.335  0.9672E+00  0.2530E+02
   8.345  0.9683E+00  0.2531E+02
   8.355  0.9693E+00  0.2532E+02
   8.365  0.9701E+00  0.2533E+02
   8.375  0.9709E+00  0.2534E+02
   8.385  0.9715E+00  0.2535E+02
   8.395  0.9721E+00  0.2536E+02
   8.405  0.9726E+00  0.2537E+02
   8.415  0.9729E+00  0.2538E+02
   8.425  0.9732E+00  0.2539E+02
   8.435  0.9735E+00  0.2540E+02
   8.445  0.9736E+00  0.2541E+02
   8.455  0.9737E+00  0.2542E+02
   8.465  0.9738E+00  0.2543E+02
   8.475  0.9738E+00  0.2544E+02
   8.485  0.9738E+00  0.2545E+02
   8.495  0.9737E+00  0.2545E+02
   8.505  0.9736E+00  0.2546E+02
   8.515  0.9736E+00  0.2547E+02
   8.525  0.9735E+00  0.2548E+02
   8.535  0.9735E+00  0.2549E+02
   8.545  0.9735E+00  0.2550E+02
   8.555  0.9735E+00  0.2551E+02
   8.565  0.9736E+00  0.2552E+02
   8.575  0.9738E+00  0.2553E+02
   8.585  0.9740E+00  0.2554E+02
   8.595  0.9743E+00  0.2555E+02
   8.605  0.9748E+00  0.2556E+02
   8.615  0.9753E+00  0.2557E+02
   8.625  0.9759E+00  0.2558E+02
   8.635  0.9767E+00  0.2559E+02
   8.645  0.9776E+00  0.2560E+02
   8.655  0.9786E+00  0.2561E+02
   8.665  0.9798E+00  0.2562E+02
   8.675  0.9812E+00  0.2563E+02
   8.685  0.9827E+00  0.2564E+02
   8.695  0.9844E+00  0.2565E+02
   8.705  0.9863E+00  0.2566E+02
   8.715  0.9883E+00  0.2567E+02
   8.725  0.9906E+00  0.2568E+02
   8.735  0.9930E+00  0.2569E+02
   8.745  0.9956E+00  0.2570E+02
   8.755  0.9984E+00  0.2571E+02
   8.765  0.1001E+01  0.2572E+02
   8.775  0.1005E+01  0.2573E+02
   8.785  0.1008E+01  0.2574E+02
   8.795  0.1011E+01  0.2575E+02
   8.805  0.1015E+01  0.2576E+02
   8.815  0.1019E+01  0.2577E+02
   8.825  0.1023E+01  0.2578E+02
   8.835  0.1027E+01  0.2579E+02
   8.845  0.1032E+01  0.2580E+02
   8.855  0.1036E+01  0.2581E+02
   8.865  0.1041E+01  0.2582E+02
   8.875  0.1046E+01  0.2583E+02
   8.885  0.1051E+01  0.2584E+02
   8.895  0.1056E+01  0.2585E+02
   8.905  0.1062E+01  0.2586E+02
   8.915  0.1067E+01  0.2587E+02
   8.925  0.1072E+01  0.2589E+02
   8.935  0.1078E+01  0.2590E+02
   8.945  0.1084E+01  0.2591E+02
   8.955  0.1089E+01  0.2592E+02
   8.965  0.1095E+01  0.2593E+02
   8.975  0.1101E+01  0.2594E+02
   8.985  0.1107E+01  0.2595E+02
   8.995  0.1113E+01  0.2596E+02
   9.005  0.1119E+01  0.2597E+02
   9.015  0.1125E+01  0.2598E+02
   9.025  0.1131E+01  0.2600E+02
   9.035  0.1137E+01  0.2601E+02
   9.045  0.1143E+01  0.2602E+02
   9.055  0.1149E+01  0.2603E+02
   9.065  0.1155E+01  0.2604E+02
   9.075  0.1161E+01  0.2605E+02
   9.085  0.1166E+01  0.2606E+02
   9.095  0.1172E+01  0.2608E+02
   9.105  0.1178E+01  0.2609E+02
   9.115  0.1183E+01  0.2610E+02
   9.125  0.1189E+01  0.2611E+02
   9.135  0.1194E+01  0.2612E+02
   9.145  0.1199E+01  0.2614E+02
   9.155  0.1204E+01  0.2615E+02
   9.165  0.1209E+01  0.2616E+02
   9.175  0.1214E+01  0.2617E+02
   9.185  0.1219E+01  0.2618E+02
   9.195  0.1224E+01  0.2620E+02
   9.205  0.1228E+01  0.2621E+02
   9.215  0.1232E+01  0.2622E+02
   9.225  0.1236E+01  0.2623E+02
   9.235  0.1240E+01  0.2625E+02
   9.245  0.1244E+01  0.2626E+02
   9.255  0.1248E+01  0.2627E+02
   9.265  0.1251E+01  0.2628E+02
   9.275  0.1254E+01  0.2630E+02
   9.285  0.1257E+01  0.2631E+02
   9.295  0.1260E+01  0.2632E+02
   9.305  0.1263E+01  0.2633E+02
   9.315  0.1265E+01  0.2635E+02
   9.325  0.1267E+01  0.2636E+02
   9.335  0.1269E+01  0.2637E+02
   9.345  0.1271E+01  0.2638E+02
   9.355  0.1273E+01  0.2640E+02
   9.365  0.1274E+01  0.2641E+02
   9.375  0.1275E+01  0.2642E+02
   9.385  0.1276E+01  0.2644E+02
   9.395  0.1277E+01  0.2645E+02
   9.405  0.1278E+01  0.2646E+02
   9.415  0.1278E+01  0.2647E+02
   9.425  0.1279E+01  0.2649E+02
   9.435  0.1279E+01  0.2650E+02
   9.445  0.1278E+01  0.2651E+02
   9.455  0.1278E+01  0.2653E+02
   9.465  0.1278E+01  0.2654E+02
   9.475  0.1277E+01  0.2655E+02
   9.485  0.1276E+01  0.2656E+02
   9.495  0.1275E+01  0.2658E+02
   9.505  0.1274E+01  0.2659E+02
   9.515  0.1273E+01  0.2660E+02
   9.525  0.1271E+01  0.2661E+02
   9.535  0.1270E+01  0.2663E+02
   9.545  0.1268E+01  0.2664E+02
   9.555  0.1266E+01  0.2665E+02
   9.565  0.1264E+01  0.2667E+02
   9.575  0.1262E+01  0.2668E+02
   9.585  0.1260E+01  0.2669E+02
   9.595  0.1258E+01  0.2670E+02
   9.605  0.1255E+01  0.2672E+02
   9.615  0.1253E+01  0.2673E+02
   9.625  0.1250E+01  0.2674E+02
   9.635  0.1247E+01  0.2675E+02
   9.645  0.1245E+01  0.2677E+02
   9.655  0.1242E+01  0.2678E+02
   9.665  0.1239E+01  0.2679E+02
   9.675  0.1236E+01  0.2680E+02
   9.685  0.1233E+01  0.2681E+02
   9.695  0.1230E+01  0.2683E+02
   9.705  0.1227E+01  0.2684E+02
   9.715  0.1223E+01  0.2685E+02
   9.725  0.1220E+01  0.2686E+02
   9.735  0.1217E+01  0.2688E+02
   9.745  0.1214E+01  0.2689E+02
   9.755  0.1211E+01  0.2690E+02
   9.765  0.1207E+01  0.2691E+02
   9.775  0.1204E+01  0.2692E+02
   9.785  0.1201E+01  0.2694E+02
   9.795  0.1198E+01  0.2695E+02
   9.805  0.1194E+01  0.2696E+02
   9.815  0.1191E+01  0.2697E+02
   9.825  0.1188E+01  0.2698E+02
   9.835  0.1185E+01  0.2700E+02
   9.845  0.1181E+01  0.2701E+02
   9.855  0.1178E+01  0.2702E+02
   9.865  0.1175E+01  0.2703E+02
   9.875  0.1172E+01  0.2704E+02
   9.885  0.1169E+01  0.2705E+02
   9.895  0.1166E+01  0.2707E+02
   9.905  0.1163E+01  0.2708E+02
   9.915  0.1160E+01  0.2709E+02
   9.925  0.1157E+01  0.2710E+02
   9.935  0.1154E+01  0.2711E+02
   9.945  0.1151E+01  0.2712E+02
   9.955  0.1148E+01  0.2714E+02
   9.965  0.1145E+01  0.2715E+02
   9.975  0.1142E+01  0.2716E+02
   9.985  0.1139E+01  0.2717E+02
   9.995  0.1136E+01  0.2718E+02
  10.005  0.1133E+01  0.2719E+02
  10.015  0.1130E+01  0.2720E+02
  10.025  0.1127E+01  0.2722E+02
  10.035  0.1124E+01  0.2723E+02
  10.045  0.1121E+01  0.2724E+02
  10.055  0.1118E+01  0.2725E+02
  10.065  0.1115E+01  0.2726E+02
  10.075  0.1112E+01  0.2727E+02
  10.085  0.1110E+01  0.2728E+02
  10.095  0.1107E+01  0.2729E+02
  10.105  0.1104E+01  0.2730E+02
  10.115  0.1101E+01  0.2732E+02
  10.125  0.1097E+01  0.2733E+02
  10.135  0.1094E+01  0.2734E+02
  10.145  0.1091E+01  0.2735E+02
  10.155  0.1088E+01  0.2736E+02
  10.165  0.1085E+01  0.2737E+02
  10.175  0.1082E+01  0.2738E+02
  10.185  0.1079E+01  0.2739E+02
  10.195  0.1075E+01  0.2740E+02
  10.205  0.1072E+01  0.2741E+02
  10.215  0.1069E+01  0.2742E+02
  10.225  0.1066E+01  0.2743E+02
  10.235  0.1062E+01  0.2744E+02
  10.245  0.1059E+01  0.2746E+02
  10.255  0.1055E+01  0.2747E+02
  10.265  0.1052E+01  0.2748E+02
  10.275  0.1049E+01  0.2749E+02
  10.285  0.1045E+01  0.2750E+02
  10.295  0.1042E+01  0.2751E+02
  10.305  0.1038E+01  0.2752E+02
  10.315  0.1035E+01  0.2753E+02
  10.325  0.1031E+01  0.2754E+02
  10.335  0.1028E+01  0.2755E+02
  10.345  0.1024E+01  0.2756E+02
  10.355  0.1021E+01  0.2757E+02
  10.365  0.1018E+01  0.2758E+02
  10.375  0.1014E+01  0.2759E+02
  10.385  0.1011E+01  0.2760E+02
  10.395  0.1008E+01  0.2761E+02
  10.405  0.1004E+01  0.2762E+02
  10.415  0.1001E+01  0.2763E+02
  10.425  0.9981E+00  0.2764E+02
  10.435  0.9950E+00  0.2765E+02
  10.445  0.9920E+00  0.2766E+02
  10.455  0.9890E+00  0.2767E+02
  10.465  0.9861E+00  0.2768E+02
  10.475  0.9833E+00  0.2769E+02
  10.485  0.9805E+00  0.2770E+02
  10.495  0.9779E+00  0.2771E+02
  10.505  0.9753E+00  0.2772E+02
  10.515  0.9728E+00  0.2773E+02
  10.525  0.9704E+00  0.2774E+02
  10.535  0.9681E+00  0.2775E+02
  10.545  0.9658E+00  0.2776E+02
  10.555  0.9637E+00  0.2777E+02
  10.565  0.9616E+00  0.2778E+02
  10.575  0.9596E+00  0.2779E+02
  10.585  0.9577E+00  0.2780E+02
  10.595  0.9559E+00  0.2781E+02
  10.605  0.9541E+00  0.2782E+02
  10.615  0.9525E+00  0.2782E+02
  10.625  0.9509E+00  0.2783E+02
  10.635  0.9494E+00  0.2784E+02
  10.645  0.9480E+00  0.2785E+02
  10.655  0.9466E+00  0.2786E+02
  10.665  0.9453E+00  0.2787E+02
  10.675  0.9441E+00  0.2788E+02
  10.685  0.9429E+00  0.2789E+02
  10.695  0.9418E+00  0.2790E+02
  10.705  0.9407E+00  0.2791E+02
  10.715  0.9397E+00  0.2792E+02
  10.725  0.9387E+00  0.2793E+02
  10.735  0.9378E+00  0.2794E+02
  10.745  0.9369E+00  0.2795E+02
  10.755  0.9360E+00  0.2796E+02
  10.765  0.9352E+00  0.2797E+02
  10.775  0.9344E+00  0.2798E+02
  10.785  0.9336E+00  0.2798E+02
  10.795  0.9328E+00  0.2799E+02
  10.805  0.9321E+00  0.2800E+02
  10.815  0.9313E+00  0.2801E+02
  10.825  0.9306E+00  0.2802E+02
  10.835  0.9299E+00  0.2803E+02
  10.845  0.9292E+00  0.2804E+02
  10.855  0.9285E+00  0.2805E+02
  10.865  0.9278E+00  0.2806E+02
  10.875  0.9271E+00  0.2807E+02
  10.885  0.9264E+00  0.2808E+02
  10.895  0.9258E+00  0.2809E+02
  10.905  0.9251E+00  0.2810E+02
  10.915  0.9245E+00  0.2811E+02
  10.925  0.9238E+00  0.2811E+02
  10.935  0.9232E+00  0.2812E+02
  10.945  0.9227E+00  0.2813E+02
  10.955  0.9221E+00  0.2814E+02
  10.965  0.9215E+00  0.2815E+02
  10.975  0.9210E+00  0.2816E+02
  10.985  0.9205E+00  0.2817E+02
  10.995  0.9201E+00  0.2818E+02
  11.005  0.9197E+00  0.2819E+02
  11.015  0.9193E+00  0.2820E+02
  11.025  0.9190E+00  0.2821E+02
  11.035  0.9187E+00  0.2822E+02
  11.045  0.9185E+00  0.2823E+02
  11.055  0.9184E+00  0.2823E+02
  11.065  0.9183E+00  0.2824E+02
  11.075  0.9183E+00  0.2825E+02
  11.085  0.9183E+00  0.2826E+02
  11.095  0.9185E+00  0.2827E+02
  11.105  0.9187E+00  0.2828E+02
  11.115  0.9189E+00  0.2829E+02
  11.125  0.9193E+00  0.2830E+02
  11.135  0.9198E+00  0.2831E+02
  11.145  0.9203E+00  0.2832E+02
  11.155  0.9209E+00  0.2833E+02
  11.165  0.9217E+00  0.2834E+02
  11.175  0.9225E+00  0.2834E+02
  11.185  0.9234E+00  0.2835E+02
  11.195  0.9244E+00  0.2836E+02
  11.205  0.9255E+00  0.2837E+02
  11.215  0.9267E+00  0.2838E+02
  11.225  0.9280E+00  0.2839E+02
  11.235  0.9294E+00  0.2840E+02
  11.245  0.9308E+00  0.2841E+02
  11.255  0.9324E+00  0.2842E+02
  11.265  0.9340E+00  0.2843E+02
  11.275  0.9357E+00  0.2844E+02
  11.285  0.9375E+00  0.2845E+02
  11.295  0.9393E+00  0.2846E+02
  11.305  0.9412E+00  0.2847E+02
  11.315  0.9432E+00  0.2848E+02
  11.325  0.9453E+00  0.2848E+02
  11.335  0.9474E+00  0.2849E+02
  11.345  0.9495E+00  0.2850E+02
  11.355  0.9517E+00  0.2851E+02
  11.365  0.9539E+00  0.2852E+02
  11.375  0.9561E+00  0.2853E+02
  11.385  0.9584E+00  0.2854E+02
  11.395  0.9606E+00  0.2855E+02
  11.405  0.9629E+00  0.2856E+02
  11.415  0.9652E+00  0.2857E+02
  11.425  0.9675E+00  0.2858E+02
  11.435  0.9698E+00  0.2859E+02
  11.445  0.9720E+00  0.2860E+02
  11.455  0.9743E+00  0.2861E+02
  11.465  0.9765E+00  0.2862E+02
  11.475  0.9787E+00  0.2863E+02
  11.485  0.9809E+00  0.2864E+02
  11.495  0.9830E+00  0.2865E+02
  11.505  0.9851E+00  0.2866E+02
  11.515  0.9871E+00  0.2867E+02
  11.525  0.9891E+00  0.2868E+02
  11.535  0.9910E+00  0.2869E+02
  11.545  0.9929E+00  0.2870E+02
  11.555  0.9947E+00  0.2871E+02
  11.565  0.9965E+00  0.2872E+02
  11.575  0.9982E+00  0.2873E+02
  11.585  0.9999E+00  0.2874E+02
  11.595  0.1001E+01  0.2875E+02
  11.605  0.1003E+01  0.2876E+02
  11.615  0.1005E+01  0.2877E+02
  11.625  0.1006E+01  0.2878E+02
  11.635  0.1007E+01  0.2879E+02
  11.645  0.1009E+01  0.2880E+02
  11.655  0.1010E+01  0.2881E+02
  11.665  0.1011E+01  0.2882E+02
  11.675  0.1012E+01  0.2883E+02
  11.685  0.1013E+01  0.2884E+02
  11.695  0.1014E+01  0.2885E+02
  11.705  0.1015E+01  0.2886E+02
  11.715  0.1016E+01  0.2887E+02
  11.725  0.1017E+01  0.2888E+02
  11.735  0.1018E+01  0.2889E+02
  11.745  0.1019E+01  0.2890E+02
  11.755  0.1020E+01  0.2891E+02
  11.765  0.1021E+01  0.2892E+02
  11.775  0.1022E+01  0.2893E+02
  11.785  0.1022E+01  0.2894E+02
  11.795  0.1023E+01  0.2895E+02
  11.805  0.1024E+01  0.2896E+02
  11.815  0.1024E+01  0.2897E+02
  11.825  0.1025E+01  0.2898E+02
  11.835  0.1025E+01  0.2899E+02
  11.845  0.1026E+01  0.2900E+02
  11.855  0.1027E+01  0.2901E+02
  11.865  0.1027E+01  0.2902E+02
  11.875  0.1028E+01  0.2903E+02
  11.885  0.1028E+01  0.2904E+02
  11.895  0.1028E+01  0.2905E+02
  11.905  0.1029E+01  0.2906E+02
  11.915  0.1029E+01  0.2907E+02
  11.925  0.1029E+01  0.2908E+02
  11.935  0.1030E+01  0.2909E+02
  11.945  0.1030E+01  0.2911E+02
  11.955  0.1030E+01  0.2912E+02
  11.965  0.1030E+01  0.2913E+02
  11.975  0.1030E+01  0.2914E+02
  11.985  0.1030E+01  0.2915E+02
  11.995  0.1030E+01  0.2916E+02
  12.005  0.1029E+01  0.2917E+02
  12.015  0.1029E+01  0.2918E+02
  12.025  0.1029E+01  0.2919E+02
  12.035  0.1028E+01  0.2920E+02
  12.045  0.1028E+01  0.2921E+02
  12.055  0.1027E+01  0.2922E+02
  12.065  0.1026E+01  0.2923E+02
  12.075  0.1025E+01  0.2924E+02
  12.085  0.1024E+01  0.2925E+02
  12.095  0.1023E+01  0.2926E+02
  12.105  0.1022E+01  0.2927E+02
  12.115  0.1021E+01  0.2928E+02
  12.125  0.1020E+01  0.2929E+02
  12.135  0.1018E+01  0.2930E+02
  12.145  0.1017E+01  0.2931E+02
  12.155  0.1015E+01  0.2932E+02
  12.165  0.1013E+01  0.2933E+02
  12.175  0.1011E+01  0.2934E+02
  12.185  0.1009E+01  0.2935E+02
  12.195  0.1007E+01  0.2936E+02
  12.205  0.1005E+01  0.2937E+02
  12.215  0.1003E+01  0.2938E+02
  12.225  0.1000E+01  0.2939E+02
  12.235  0.9979E+00  0.2940E+02
  12.245  0.9954E+00  0.2941E+02
  12.255  0.9928E+00  0.2942E+02
  12.265  0.9901E+00  0.2943E+02
  12.275  0.9874E+00  0.2944E+02
  12.285  0.9847E+00  0.2945E+02
  12.295  0.9819E+00  0.2946E+02
  12.305  0.9790E+00  0.2947E+02
  12.315  0.9761E+00  0.2948E+02
  12.325  0.9732E+00  0.2949E+02
  12.335  0.9703E+00  0.2950E+02
  12.345  0.9674E+00  0.2951E+02
  12.355  0.9644E+00  0.2952E+02
  12.365  0.9615E+00  0.2953E+02
  12.375  0.9586E+00  0.2954E+02
  12.385  0.9557E+00  0.2955E+02
  12.395  0.9528E+00  0.2956E+02
  12.405  0.9499E+00  0.2957E+02
  12.415  0.9471E+00  0.2958E+02
  12.425  0.9443E+00  0.2959E+02
  12.435  0.9416E+00  0.2959E+02
  12.445  0.9389E+00  0.2960E+02
  12.455  0.9363E+00  0.2961E+02
  12.465  0.9337E+00  0.2962E+02
  12.475  0.9313E+00  0.2963E+02
  12.485  0.9289E+00  0.2964E+02
  12.495  0.9265E+00  0.2965E+02
  12.505  0.9243E+00  0.2966E+02
  12.515  0.9222E+00  0.2967E+02
  12.525  0.9201E+00  0.2968E+02
  12.535  0.9182E+00  0.2969E+02
  12.545  0.9163E+00  0.2970E+02
  12.555  0.9146E+00  0.2971E+02
  12.565  0.9130E+00  0.2971E+02
  12.575  0.9115E+00  0.2972E+02
  12.585  0.9101E+00  0.2973E+02
  12.595  0.9088E+00  0.2974E+02
  12.605  0.9076E+00  0.2975E+02
  12.615  0.9066E+00  0.2976E+02
  12.625  0.9057E+00  0.2977E+02
  12.635  0.9049E+00  0.2978E+02
  12.645  0.9043E+00  0.2979E+02
  12.655  0.9038E+00  0.2980E+02
  12.665  0.9034E+00  0.2981E+02
  12.675  0.9032E+00  0.2981E+02
  12.685  0.9031E+00  0.2982E+02
  12.695  0.9031E+00  0.2983E+02
  12.705  0.9033E+00  0.2984E+02
  12.715  0.9036E+00  0.2985E+02
  12.725  0.9041E+00  0.2986E+02
  12.735  0.9047E+00  0.2987E+02
  12.745  0.9054E+00  0.2988E+02
  12.755  0.9063E+00  0.2989E+02
  12.765  0.9073E+00  0.2990E+02
  12.775  0.9085E+00  0.2991E+02
  12.785  0.9099E+00  0.2991E+02
  12.795  0.9113E+00  0.2992E+02
  12.805  0.9129E+00  0.2993E+02
  12.815  0.9147E+00  0.2994E+02
  12.825  0.9166E+00  0.2995E+02
  12.835  0.9186E+00  0.2996E+02
  12.845  0.9208E+00  0.2997E+02
  12.855  0.9231E+00  0.2998E+02
  12.865  0.9256E+00  0.2999E+02
  12.875  0.9281E+00  0.3000E+02
  12.885  0.9308E+00  0.3001E+02
  12.895  0.9337E+00  0.3002E+02
  12.905  0.9366E+00  0.3002E+02
  12.915  0.9397E+00  0.3003E+02
  12.925  0.9429E+00  0.3004E+02
  12.935  0.9462E+00  0.3005E+02
  12.945  0.9496E+00  0.3006E+02
  12.955  0.9531E+00  0.3007E+02
  12.965  0.9566E+00  0.3008E+02
  12.975  0.9603E+00  0.3009E+02
  12.985  0.9641E+00  0.3010E+02
  12.995  0.9679E+00  0.3011E+02
  13.005  0.9718E+00  0.3012E+02
  13.015  0.9758E+00  0.3013E+02
  13.025  0.9798E+00  0.3014E+02
  13.035  0.9839E+00  0.3015E+02
  13.045  0.9880E+00  0.3016E+02
  13.055  0.9921E+00  0.3017E+02
  13.065  0.9963E+00  0.3018E+02
  13.075  0.1001E+01  0.3019E+02
  13.085  0.1005E+01  0.3020E+02
  13.095  0.1009E+01  0.3021E+02
  13.105  0.1013E+01  0.3022E+02
  13.115  0.1017E+01  0.3023E+02
  13.125  0.1022E+01  0.3024E+02
  13.135  0.1026E+01  0.3025E+02
  13.145  0.1030E+01  0.3026E+02
  13.155  0.1034E+01  0.3027E+02
  13.165  0.1038E+01  0.3028E+02
  13.175  0.1042E+01  0.3029E+02
  13.185  0.1046E+01  0.3030E+02
  13.195  0.1050E+01  0.3031E+02
  13.205  0.1054E+01  0.3032E+02
  13.215  0.1058E+01  0.3033E+02
  13.225  0.1062E+01  0.3034E+02
  13.235  0.1065E+01  0.3036E+02
  13.245  0.1069E+01  0.3037E+02
  13.255  0.1073E+01  0.3038E+02
  13.265  0.1076E+01  0.3039E+02
  13.275  0.1080E+01  0.3040E+02
  13.285  0.1083E+01  0.3041E+02
  13.295  0.1086E+01  0.3042E+02
  13.305  0.1090E+01  0.3043E+02
  13.315  0.1093E+01  0.3044E+02
  13.325  0.1096E+01  0.3045E+02
  13.335  0.1099E+01  0.3046E+02
  13.345  0.1102E+01  0.3047E+02
  13.355  0.1105E+01  0.3049E+02
  13.365  0.1108E+01  0.3050E+02
  13.375  0.1111E+01  0.3051E+02
  13.385  0.1113E+01  0.3052E+02
  13.395  0.1116E+01  0.3053E+02
  13.405  0.1119E+01  0.3054E+02
  13.415  0.1121E+01  0.3055E+02
  13.425  0.1124E+01  0.3056E+02
  13.435  0.1127E+01  0.3058E+02
  13.445  0.1129E+01  0.3059E+02
  13.455  0.1132E+01  0.3060E+02
  13.465  0.1135E+01  0.3061E+02
  13.475  0.1137E+01  0.3062E+02
  13.485  0.1140E+01  0.3063E+02
  13.495  0.1143E+01  0.3064E+02
  13.505  0.1146E+01  0.3065E+02
  13.515  0.1148E+01  0.3067E+02
  13.525  0.1151E+01  0.3068E+02
  13.535  0.1154E+01  0.3069E+02
  13.545  0.1157E+01  0.3070E+02
  13.555  0.1160E+01  0.3071E+02
  13.565  0.1163E+01  0.3072E+02
  13.575  0.1166E+01  0.3074E+02
  13.585  0.1169E+01  0.3075E+02
  13.595  0.1172E+01  0.3076E+02
  13.605  0.1176E+01  0.3077E+02
  13.615  0.1179E+01  0.3078E+02
  13.625  0.1183E+01  0.3079E+02
  13.635  0.1186E+01  0.3081E+02
  13.645  0.1190E+01  0.3082E+02
  13.655  0.1194E+01  0.3083E+02
  13.665  0.1198E+01  0.3084E+02
  13.675  0.1202E+01  0.3085E+02
  13.685  0.1206E+01  0.3087E+02
  13.695  0.1210E+01  0.3088E+02
  13.705  0.1214E+01  0.3089E+02
  13.715  0.1219E+01  0.3090E+02
  13.725  0.1223E+01  0.3092E+02
  13.735  0.1228E+01  0.3093E+02
  13.745  0.1233E+01  0.3094E+02
  13.755  0.1237E+01  0.3095E+02
  13.765  0.1242E+01  0.3096E+02
  13.775  0.1247E+01  0.3098E+02
  13.785  0.1252E+01  0.3099E+02
  13.795  0.1257E+01  0.3100E+02
  13.805  0.1262E+01  0.3101E+02
  13.815  0.1267E+01  0.3103E+02
  13.825  0.1272E+01  0.3104E+02
  13.835  0.1277E+01  0.3105E+02
  13.845  0.1282E+01  0.3107E+02
  13.855  0.1287E+01  0.3108E+02
  13.865  0.1293E+01  0.3109E+02
  13.875  0.1298E+01  0.3110E+02
  13.885  0.1303E+01  0.3112E+02
  13.895  0.1308E+01  0.3113E+02
  13.905  0.1312E+01  0.3114E+02
  13.915  0.1317E+01  0.3116E+02
  13.925  0.1322E+01  0.3117E+02
  13.935  0.1327E+01  0.3118E+02
  13.945  0.1331E+01  0.3120E+02
  13.955  0.1335E+01  0.3121E+02
  13.965  0.1340E+01  0.3122E+02
  13.975  0.1344E+01  0.3124E+02
  13.985  0.1348E+01  0.3125E+02
  13.995  0.1351E+01  0.3126E+02
  14.005  0.1355E+01  0.3128E+02
  14.015  0.1358E+01  0.3129E+02
  14.025  0.1361E+01  0.3130E+02
  14.035  0.1364E+01  0.3132E+02
  14.045  0.1367E+01  0.3133E+02
  14.055  0.1369E+01  0.3135E+02
  14.065  0.1371E+01  0.3136E+02
  14.075  0.1373E+01  0.3137E+02
  14.085  0.1374E+01  0.3139E+02
  14.095  0.1376E+01  0.3140E+02
  14.105  0.1377E+01  0.3141E+02
  14.115  0.1378E+01  0.3143E+02
  14.125  0.1378E+01  0.3144E+02
  14.135  0.1378E+01  0.3146E+02
  14.145  0.1378E+01  0.3147E+02
  14.155  0.1378E+01  0.3148E+02
  14.165  0.1377E+01  0.3150E+02
  14.175  0.1377E+01  0.3151E+02
  14.185  0.1375E+01  0.3152E+02
  14.195  0.1374E+01  0.3154E+02
  14.205  0.1373E+01  0.3155E+02
  14.215  0.1371E+01  0.3157E+02
  14.225  0.1369E+01  0.3158E+02
  14.235  0.1367E+01  0.3159E+02
  14.245  0.1364E+01  0.3161E+02
  14.255  0.1362E+01  0.3162E+02
  14.265  0.1359E+01  0.3163E+02
  14.275  0.1356E+01  0.3165E+02
  14.285  0.1353E+01  0.3166E+02
  14.295  0.1350E+01  0.3167E+02
  14.305  0.1347E+01  0.3169E+02
  14.315  0.1344E+01  0.3170E+02
  14.325  0.1341E+01  0.3171E+02
  14.335  0.1337E+01  0.3173E+02
  14.345  0.1334E+01  0.3174E+02
  14.355  0.1331E+01  0.3175E+02
  14.365  0.1328E+01  0.3177E+02
  14.375  0.1325E+01  0.3178E+02
  14.385  0.1322E+01  0.3179E+02
  14.395  0.1319E+01  0.3181E+02
  14.405  0.1317E+01  0.3182E+02
  14.415  0.1314E+01  0.3183E+02
  14.425  0.1312E+01  0.3185E+02
  14.435  0.1310E+01  0.3186E+02
  14.445  0.1308E+01  0.3187E+02
  14.455  0.1307E+01  0.3189E+02
  14.465  0.1305E+01  0.3190E+02
  14.475  0.1304E+01  0.3191E+02
  14.485  0.1303E+01  0.3193E+02
  14.495  0.1303E+01  0.3194E+02
  14.505  0.1303E+01  0.3195E+02
  14.515  0.1303E+01  0.3196E+02
  14.525  0.1303E+01  0.3198E+02
  14.535  0.1304E+01  0.3199E+02
  14.545  0.1305E+01  0.3200E+02
  14.555  0.1307E+01  0.3202E+02
  14.565  0.1308E+01  0.3203E+02
  14.575  0.1311E+01  0.3204E+02
  14.585  0.1313E+01  0.3206E+02
  14.595  0.1316E+01  0.3207E+02
  14.605  0.1319E+01  0.3208E+02
  14.615  0.1322E+01  0.3210E+02
  14.625  0.1326E+01  0.3211E+02
  14.635  0.1330E+01  0.3212E+02
  14.645  0.1335E+01  0.3214E+02
  14.655  0.1339E+01  0.3215E+02
  14.665  0.1344E+01  0.3216E+02
  14.675  0.1349E+01  0.3218E+02
  14.685  0.1355E+01  0.3219E+02
  14.695  0.1360E+01  0.3220E+02
  14.705  0.1366E+01  0.3222E+02
  14.715  0.1372E+01  0.3223E+02
  14.725  0.1378E+01  0.3224E+02
  14.735  0.1385E+01  0.3226E+02
  14.745  0.1391E+01  0.3227E+02
  14.755  0.1397E+01  0.3229E+02
  14.765  0.1404E+01  0.3230E+02
  14.775  0.1410E+01  0.3231E+02
  14.785  0.1417E+01  0.3233E+02
  14.795  0.1423E+01  0.3234E+02
  14.805  0.1430E+01  0.3236E+02
  14.815  0.1436E+01  0.3237E+02
  14.825  0.1443E+01  0.3239E+02
  14.835  0.1449E+01  0.3240E+02
  14.845  0.1455E+01  0.3241E+02
  14.855  0.1461E+01  0.3243E+02
  14.865  0.1467E+01  0.3244E+02
  14.875  0.1473E+01  0.3246E+02
  14.885  0.1479E+01  0.3247E+02
  14.895  0.1484E+01  0.3249E+02
  14.905  0.1489E+01  0.3250E+02
  14.915  0.1494E+01  0.3252E+02
  14.925  0.1498E+01  0.3253E+02
  14.935  0.1503E+01  0.3255E+02
  14.945  0.1507E+01  0.3256E+02
  14.955  0.1511E+01  0.3258E+02
  14.965  0.1514E+01  0.3259E+02
  14.975  0.1517E+01  0.3261E+02
  14.985  0.1520E+01  0.3262E+02
  14.995  0.1523E+01  0.3264E+02
  15.005  0.1525E+01  0.3265E+02
  15.015  0.1527E+01  0.3267E+02
  15.025  0.1529E+01  0.3268E+02
  15.035  0.1530E+01  0.3270E+02
  15.045  0.1531E+01  0.3272E+02
  15.055  0.1532E+01  0.3273E+02
  15.065  0.1532E+01  0.3275E+02
  15.075  0.1532E+01  0.3276E+02
  15.085  0.1532E+01  0.3278E+02
  15.095  0.1532E+01  0.3279E+02
  15.105  0.1531E+01  0.3281E+02
  15.115  0.1530E+01  0.3282E+02
  15.125  0.1529E+01  0.3284E+02
  15.135  0.1528E+01  0.3285E+02
  15.145  0.1526E+01  0.3287E+02
  15.155  0.1524E+01  0.3288E+02
  15.165  0.1522E+01  0.3290E+02
  15.175  0.1520E+01  0.3291E+02
  15.185  0.1518E+01  0.3293E+02
  15.195  0.1515E+01  0.3294E+02
  15.205  0.1513E+01  0.3296E+02
  15.215  0.1510E+01  0.3297E+02
  15.225  0.1507E+01  0.3299E+02
  15.235  0.1504E+01  0.3300E+02
  15.245  0.1501E+01  0.3302E+02
  15.255  0.1497E+01  0.3303E+02
  15.265  0.1494E+01  0.3305E+02
  15.275  0.1491E+01  0.3306E+02
  15.285  0.1487E+01  0.3308E+02
  15.295  0.1484E+01  0.3309E+02
  15.305  0.1480E+01  0.3311E+02
  15.315  0.1476E+01  0.3312E+02
  15.325  0.1473E+01  0.3314E+02
  15.335  0.1469E+01  0.3315E+02
  15.345  0.1466E+01  0.3317E+02
  15.355  0.1462E+01  0.3318E+02
  15.365  0.1458E+01  0.3320E+02
  15.375  0.1455E+01  0.3321E+02
  15.385  0.1451E+01  0.3323E+02
  15.395  0.1447E+01  0.3324E+02
  15.405  0.1444E+01  0.3326E+02
  15.415  0.1440E+01  0.3327E+02
  15.425  0.1437E+01  0.3328E+02
  15.435  0.1433E+01  0.3330E+02
  15.445  0.1429E+01  0.3331E+02
  15.455  0.1426E+01  0.3333E+02
  15.465  0.1423E+01  0.3334E+02
  15.475  0.1419E+01  0.3336E+02
  15.485  0.1416E+01  0.3337E+02
  15.495  0.1412E+01  0.3338E+02
  15.505  0.1409E+01  0.3340E+02
  15.515  0.1406E+01  0.3341E+02
  15.525  0.1403E+01  0.3343E+02
  15.535  0.1399E+01  0.3344E+02
  15.545  0.1396E+01  0.3345E+02
  15.555  0.1393E+01  0.3347E+02
  15.565  0.1390E+01  0.3348E+02
  15.575  0.1387E+01  0.3350E+02
  15.585  0.1384E+01  0.3351E+02
  15.595  0.1381E+01  0.3352E+02
  15.605  0.1378E+01  0.3354E+02
  15.615  0.1376E+01  0.3355E+02
  15.625  0.1373E+01  0.3356E+02
  15.635  0.1370E+01  0.3358E+02
  15.645  0.1368E+01  0.3359E+02
  15.655  0.1365E+01  0.3361E+02
  15.665  0.1362E+01  0.3362E+02
  15.675  0.1360E+01  0.3363E+02
  15.685  0.1358E+01  0.3365E+02
  15.695  0.1355E+01  0.3366E+02
  15.705  0.1353E+01  0.3367E+02
  15.715  0.1351E+01  0.3369E+02
  15.725  0.1349E+01  0.3370E+02
  15.735  0.1347E+01  0.3371E+02
  15.745  0.1345E+01  0.3373E+02
  15.755  0.1343E+01  0.3374E+02
  15.765  0.1341E+01  0.3375E+02
  15.775  0.1340E+01  0.3377E+02
  15.785  0.1338E+01  0.3378E+02
  15.795  0.1336E+01  0.3379E+02
  15.805  0.1335E+01  0.3381E+02
  15.815  0.1333E+01  0.3382E+02
  15.825  0.1332E+01  0.3383E+02
  15.835  0.1331E+01  0.3385E+02
  15.845  0.1330E+01  0.3386E+02
  15.855  0.1328E+01  0.3387E+02
  15.865  0.1327E+01  0.3389E+02
  15.875  0.1326E+01  0.3390E+02
  15.885  0.1325E+01  0.3391E+02
  15.895  0.1324E+01  0.3393E+02
  15.905  0.1323E+01  0.3394E+02
  15.915  0.1322E+01  0.3395E+02
  15.925  0.1322E+01  0.3397E+02
  15.935  0.1321E+01  0.3398E+02
  15.945  0.1320E+01  0.3399E+02
  15.955  0.1319E+01  0.3401E+02
  15.965  0.1318E+01  0.3402E+02
  15.975  0.1317E+01  0.3403E+02
  15.985  0.1317E+01  0.3405E+02
  15.995  0.1316E+01  0.3406E+02
  16.005  0.1315E+01  0.3407E+02
  16.015  0.1314E+01  0.3409E+02
  16.025  0.1313E+01  0.3410E+02
  16.035  0.1312E+01  0.3411E+02
  16.045  0.1311E+01  0.3412E+02
  16.055  0.1310E+01  0.3414E+02
  16.065  0.1309E+01  0.3415E+02
  16.075  0.1308E+01  0.3416E+02
  16.085  0.1307E+01  0.3418E+02
  16.095  0.1306E+01  0.3419E+02
  16.105  0.1305E+01  0.3420E+02
  16.115  0.1303E+01  0.3422E+02
  16.125  0.1302E+01  0.3423E+02
  16.135  0.1301E+01  0.3424E+02
  16.145  0.1299E+01  0.3426E+02
  16.155  0.1298E+01  0.3427E+02
  16.165  0.1296E+01  0.3428E+02
  16.175  0.1295E+01  0.3429E+02
  16.185  0.1293E+01  0.3431E+02
  16.195  0.1291E+01  0.3432E+02
  16.205  0.1290E+01  0.3433E+02
  16.215  0.1288E+01  0.3435E+02
  16.225  0.1286E+01  0.3436E+02
  16.235  0.1284E+01  0.3437E+02
  16.245  0.1283E+01  0.3438E+02
  16.255  0.1281E+01  0.3440E+02
  16.265  0.1279E+01  0.3441E+02
  16.275  0.1277E+01  0.3442E+02
  16.285  0.1275E+01  0.3444E+02
  16.295  0.1274E+01  0.3445E+02
  16.305  0.1272E+01  0.3446E+02
  16.315  0.1270E+01  0.3447E+02
  16.325  0.1268E+01  0.3449E+02
  16.335  0.1267E+01  0.3450E+02
  16.345  0.1265E+01  0.3451E+02
  16.355  0.1264E+01  0.3452E+02
  16.365  0.1262E+01  0.3454E+02
  16.375  0.1261E+01  0.3455E+02
  16.385  0.1260E+01  0.3456E+02
  16.395  0.1259E+01  0.3457E+02
  16.405  0.1258E+01  0.3459E+02
  16.415  0.1257E+01  0.3460E+02
  16.425  0.1256E+01  0.3461E+02
  16.435  0.1255E+01  0.3462E+02
  16.445  0.1255E+01  0.3464E+02
  16.455  0.1254E+01  0.3465E+02
  16.465  0.1254E+01  0.3466E+02
  16.475  0.1254E+01  0.3467E+02
  16.485  0.1254E+01  0.3469E+02
  16.495  0.1254E+01  0.3470E+02
  16.505  0.1254E+01  0.3471E+02
  16.515  0.1254E+01  0.3473E+02
  16.525  0.1255E+01  0.3474E+02
  16.535  0.1256E+01  0.3475E+02
  16.545  0.1256E+01  0.3476E+02
  16.555  0.1257E+01  0.3478E+02
  16.565  0.1258E+01  0.3479E+02
  16.575  0.1260E+01  0.3480E+02
  16.585  0.1261E+01  0.3481E+02
  16.595  0.1263E+01  0.3483E+02
  16.605  0.1264E+01  0.3484E+02
  16.615  0.1266E+01  0.3485E+02
  16.625  0.1268E+01  0.3486E+02
  16.635  0.1270E+01  0.3488E+02
  16.645  0.1272E+01  0.3489E+02
  16.655  0.1274E+01  0.3490E+02
  16.665  0.1277E+01  0.3491E+02
  16.675  0.1279E+01  0.3493E+02
  16.685  0.1282E+01  0.3494E+02
  16.695  0.1284E+01  0.3495E+02
  16.705  0.1287E+01  0.3497E+02
  16.715  0.1289E+01  0.3498E+02
  16.725  0.1292E+01  0.3499E+02
  16.735  0.1295E+01  0.3500E+02
  16.745  0.1298E+01  0.3502E+02
  16.755  0.1300E+01  0.3503E+02
  16.765  0.1303E+01  0.3504E+02
  16.775  0.1306E+01  0.3506E+02
  16.785  0.1309E+01  0.3507E+02
  16.795  0.1311E+01  0.3508E+02
  16.805  0.1314E+01  0.3510E+02
  16.815  0.1316E+01  0.3511E+02
  16.825  0.1319E+01  0.3512E+02
  16.835  0.1321E+01  0.3514E+02
  16.845  0.1324E+01  0.3515E+02
  16.855  0.1326E+01  0.3516E+02
  16.865  0.1328E+01  0.3518E+02
  16.875  0.1330E+01  0.3519E+02
  16.885  0.1332E+01  0.3520E+02
  16.895  0.1333E+01  0.3522E+02
  16.905  0.1335E+01  0.3523E+02
  16.915  0.1336E+01  0.3524E+02
  16.925  0.1338E+01  0.3526E+02
  16.935  0.1339E+01  0.3527E+02
  16.945  0.1340E+01  0.3528E+02
  16.955  0.1340E+01  0.3530E+02
  16.965  0.1341E+01  0.3531E+02
  16.975  0.1341E+01  0.3532E+02
  16.985  0.1341E+01  0.3534E+02
  16.995  0.1341E+01  0.3535E+02
  17.005  0.1341E+01  0.3536E+02
  17.015  0.1341E+01  0.3538E+02
  17.025  0.1340E+01  0.3539E+02
  17.035  0.1339E+01  0.3540E+02
  17.045  0.1338E+01  0.3542E+02
  17.055  0.1337E+01  0.3543E+02
  17.065  0.1335E+01  0.3544E+02
  17.075  0.1334E+01  0.3546E+02
  17.085  0.1332E+01  0.3547E+02
  17.095  0.1330E+01  0.3548E+02
  17.105  0.1327E+01  0.3550E+02
  17.115  0.1325E+01  0.3551E+02
  17.125  0.1322E+01  0.3552E+02
  17.135  0.1320E+01  0.3554E+02
  17.145  0.1317E+01  0.3555E+02
  17.155  0.1314E+01  0.3556E+02
  17.165  0.1311E+01  0.3558E+02
  17.175  0.1307E+01  0.3559E+02
  17.185  0.1304E+01  0.3560E+02
  17.195  0.1300E+01  0.3561E+02
  17.205  0.1297E+01  0.3563E+02
  17.215  0.1293E+01  0.3564E+02
  17.225  0.1289E+01  0.3565E+02
  17.235  0.1285E+01  0.3567E+02
  17.245  0.1281E+01  0.3568E+02
  17.255  0.1277E+01  0.3569E+02
  17.265  0.1273E+01  0.3570E+02
  17.275  0.1269E+01  0.3572E+02
  17.285  0.1265E+01  0.3573E+02
  17.295  0.1261E+01  0.3574E+02
  17.305  0.1257E+01  0.3575E+02
  17.315  0.1253E+01  0.3577E+02
  17.325  0.1250E+01  0.3578E+02
  17.335  0.1246E+01  0.3579E+02
  17.345  0.1242E+01  0.3580E+02
  17.355  0.1238E+01  0.3582E+02
  17.365  0.1235E+01  0.3583E+02
  17.375  0.1231E+01  0.3584E+02
  17.385  0.1228E+01  0.3585E+02
  17.395  0.1224E+01  0.3587E+02
  17.405  0.1221E+01  0.3588E+02
  17.415  0.1218E+01  0.3589E+02
  17.425  0.1215E+01  0.3590E+02
  17.435  0.1213E+01  0.3592E+02
  17.445  0.1210E+01  0.3593E+02
  17.455  0.1207E+01  0.3594E+02
  17.465  0.1205E+01  0.3595E+02
  17.475  0.1203E+01  0.3596E+02
  17.485  0.1201E+01  0.3598E+02
  17.495  0.1199E+01  0.3599E+02
  17.505  0.1198E+01  0.3600E+02
  17.515  0.1196E+01  0.3601E+02
  17.525  0.1195E+01  0.3602E+02
  17.535  0.1194E+01  0.3604E+02
  17.545  0.1193E+01  0.3605E+02
  17.555  0.1192E+01  0.3606E+02
  17.565  0.1191E+01  0.3607E+02
  17.575  0.1191E+01  0.3608E+02
  17.585  0.1190E+01  0.3609E+02
  17.595  0.1190E+01  0.3611E+02
  17.605  0.1190E+01  0.3612E+02
  17.615  0.1190E+01  0.3613E+02
  17.625  0.1190E+01  0.3614E+02
  17.635  0.1190E+01  0.3615E+02
  17.645  0.1191E+01  0.3617E+02
  17.655  0.1191E+01  0.3618E+02
  17.665  0.1191E+01  0.3619E+02
  17.675  0.1192E+01  0.3620E+02
  17.685  0.1192E+01  0.3621E+02
  17.695  0.1193E+01  0.3623E+02
  17.705  0.1193E+01  0.3624E+02
  17.715  0.1194E+01  0.3625E+02
  17.725  0.1194E+01  0.3626E+02
  17.735  0.1195E+01  0.3627E+02
  17.745  0.1195E+01  0.3629E+02
  17.755  0.1195E+01  0.3630E+02
  17.765  0.1196E+01  0.3631E+02
  17.775  0.1196E+01  0.3632E+02
  17.785  0.1196E+01  0.3633E+02
  17.795  0.1196E+01  0.3635E+02
  17.805  0.1196E+01  0.3636E+02
  17.815  0.1195E+01  0.3637E+02
  17.825  0.1195E+01  0.3638E+02
  17.835  0.1194E+01  0.3639E+02
  17.845  0.1194E+01  0.3640E+02
  17.855  0.1193E+01  0.3642E+02
  17.865  0.1192E+01  0.3643E+02
  17.875  0.1191E+01  0.3644E+02
  17.885  0.1189E+01  0.3645E+02
  17.895  0.1188E+01  0.3646E+02
  17.905  0.1186E+01  0.3648E+02
  17.915  0.1184E+01  0.3649E+02
  17.925  0.1182E+01  0.3650E+02
  17.935  0.1180E+01  0.3651E+02
  17.945  0.1177E+01  0.3652E+02
  17.955  0.1175E+01  0.3654E+02
  17.965  0.1172E+01  0.3655E+02
  17.975  0.1169E+01  0.3656E+02
  17.985  0.1166E+01  0.3657E+02
  17.995  0.1162E+01  0.3658E+02
  18.005  0.1159E+01  0.3659E+02
  18.015  0.1155E+01  0.3661E+02
  18.025  0.1151E+01  0.3662E+02
  18.035  0.1148E+01  0.3663E+02
  18.045  0.1144E+01  0.3664E+02
  18.055  0.1139E+01  0.3665E+02
  18.065  0.1135E+01  0.3666E+02
  18.075  0.1131E+01  0.3667E+02
  18.085  0.1127E+01  0.3668E+02
  18.095  0.1122E+01  0.3670E+02
  18.105  0.1118E+01  0.3671E+02
  18.115  0.1113E+01  0.3672E+02
  18.125  0.1109E+01  0.3673E+02
  18.135  0.1104E+01  0.3674E+02
  18.145  0.1100E+01  0.3675E+02
  18.155  0.1095E+01  0.3676E+02
  18.165  0.1091E+01  0.3677E+02
  18.175  0.1087E+01  0.3678E+02
  18.185  0.1083E+01  0.3680E+02
  18.195  0.1078E+01  0.3681E+02
  18.205  0.1074E+01  0.3682E+02
  18.215  0.1070E+01  0.3683E+02
  18.225  0.1067E+01  0.3684E+02
  18.235  0.1063E+01  0.3685E+02
  18.245  0.1060E+01  0.3686E+02
  18.255  0.1056E+01  0.3687E+02
  18.265  0.1053E+01  0.3688E+02
  18.275  0.1050E+01  0.3689E+02
  18.285  0.1048E+01  0.3690E+02
  18.295  0.1045E+01  0.3691E+02
  18.305  0.1043E+01  0.3692E+02
  18.315  0.1041E+01  0.3693E+02
  18.325  0.1039E+01  0.3694E+02
  18.335  0.1038E+01  0.3695E+02
  18.345  0.1037E+01  0.3696E+02
  18.355  0.1036E+01  0.3697E+02
  18.365  0.1035E+01  0.3698E+02
  18.375  0.1035E+01  0.3699E+02
  18.385  0.1034E+01  0.3701E+02
  18.395  0.1034E+01  0.3702E+02
  18.405  0.1035E+01  0.3703E+02
  18.415  0.1036E+01  0.3704E+02
  18.425  0.1036E+01  0.3705E+02
  18.435  0.1038E+01  0.3706E+02
  18.445  0.1039E+01  0.3707E+02
  18.455  0.1041E+01  0.3708E+02
  18.465  0.1043E+01  0.3709E+02
  18.475  0.1045E+01  0.3710E+02
  18.485  0.1047E+01  0.3711E+02
  18.495  0.1050E+01  0.3712E+02
  18.505  0.1053E+01  0.3713E+02
  18.515  0.1056E+01  0.3714E+02
  18.525  0.1059E+01  0.3715E+02
  18.535  0.1063E+01  0.3716E+02
  18.545  0.1067E+01  0.3717E+02
  18.555  0.1070E+01  0.3718E+02
  18.565  0.1074E+01  0.3719E+02
  18.575  0.1079E+01  0.3720E+02
  18.585  0.1083E+01  0.3722E+02
  18.595  0.1087E+01  0.3723E+02
  18.605  0.1092E+01  0.3724E+02
  18.615  0.1096E+01  0.3725E+02
  18.625  0.1101E+01  0.3726E+02
  18.635  0.1106E+01  0.3727E+02
  18.645  0.1111E+01  0.3728E+02
  18.655  0.1116E+01  0.3729E+02
  18.665  0.1121E+01  0.3730E+02
  18.675  0.1126E+01  0.3732E+02
  18.685  0.1131E+01  0.3733E+02
  18.695  0.1136E+01  0.3734E+02
  18.705  0.1140E+01  0.3735E+02
  18.715  0.1145E+01  0.3736E+02
  18.725  0.1150E+01  0.3737E+02
  18.735  0.1155E+01  0.3738E+02
  18.745  0.1160E+01  0.3740E+02
  18.755  0.1164E+01  0.3741E+02
  18.765  0.1169E+01  0.3742E+02
  18.775  0.1174E+01  0.3743E+02
  18.785  0.1178E+01  0.3744E+02
  18.795  0.1182E+01  0.3745E+02
  18.805  0.1187E+01  0.3747E+02
  18.815  0.1191E+01  0.3748E+02
  18.825  0.1195E+01  0.3749E+02
  18.835  0.1198E+01  0.3750E+02
  18.845  0.1202E+01  0.3751E+02
  18.855  0.1206E+01  0.3753E+02
  18.865  0.1209E+01  0.3754E+02
  18.875  0.1213E+01  0.3755E+02
  18.885  0.1216E+01  0.3756E+02
  18.895  0.1219E+01  0.3757E+02
  18.905  0.1222E+01  0.3759E+02
  18.915  0.1225E+01  0.3760E+02
  18.925  0.1227E+01  0.3761E+02
  18.935  0.1230E+01  0.3762E+02
  18.945  0.1232E+01  0.3764E+02
  18.955  0.1235E+01  0.3765E+02
  18.965  0.1237E+01  0.3766E+02
  18.975  0.1239E+01  0.3767E+02
  18.985  0.1241E+01  0.3769E+02
  18.995  0.1243E+01  0.3770E+02
  19.005  0.1244E+01  0.3771E+02
  19.015  0.1246E+01  0.3772E+02
  19.025  0.1247E+01  0.3774E+02
  19.035  0.1249E+01  0.3775E+02
  19.045  0.1250E+01  0.3776E+02
  19.055  0.1252E+01  0.3777E+02
  19.065  0.1253E+01  0.3779E+02
  19.075  0.1254E+01  0.3780E+02
  19.085  0.1255E+01  0.3781E+02
  19.095  0.1256E+01  0.3782E+02
  19.105  0.1257E+01  0.3784E+02
  19.115  0.1257E+01  0.3785E+02
  19.125  0.1258E+01  0.3786E+02
  19.135  0.1259E+01  0.3787E+02
  19.145  0.1260E+01  0.3789E+02
  19.155  0.1260E+01  0.3790E+02
  19.165  0.1261E+01  0.3791E+02
  19.175  0.1261E+01  0.3792E+02
  19.185  0.1262E+01  0.3794E+02
  19.195  0.1262E+01  0.3795E+02
  19.205  0.1263E+01  0.3796E+02
  19.215  0.1263E+01  0.3797E+02
  19.225  0.1263E+01  0.3799E+02
  19.235  0.1263E+01  0.3800E+02
  19.245  0.1264E+01  0.3801E+02
  19.255  0.1264E+01  0.3802E+02
  19.265  0.1264E+01  0.3804E+02
  19.275  0.1264E+01  0.3805E+02
  19.285  0.1264E+01  0.3806E+02
  19.295  0.1264E+01  0.3808E+02
  19.305  0.1264E+01  0.3809E+02
  19.315  0.1264E+01  0.3810E+02
  19.325  0.1264E+01  0.3811E+02
  19.335  0.1263E+01  0.3813E+02
  19.345  0.1263E+01  0.3814E+02
  19.355  0.1263E+01  0.3815E+02
  19.365  0.1262E+01  0.3816E+02
  19.375  0.1262E+01  0.3818E+02
  19.385  0.1262E+01  0.3819E+02
  19.395  0.1261E+01  0.3820E+02
  19.405  0.1260E+01  0.3821E+02
  19.415  0.1260E+01  0.3823E+02
  19.425  0.1259E+01  0.3824E+02
  19.435  0.1258E+01  0.3825E+02
  19.445  0.1257E+01  0.3826E+02
  19.455  0.1256E+01  0.3828E+02
  19.465  0.1255E+01  0.3829E+02
  19.475  0.1254E+01  0.3830E+02
  19.485  0.1253E+01  0.3831E+02
  19.495  0.1252E+01  0.3833E+02
  19.505  0.1250E+01  0.3834E+02
  19.515  0.1249E+01  0.3835E+02
  19.525  0.1248E+01  0.3836E+02
  19.535  0.1246E+01  0.3838E+02
  19.545  0.1245E+01  0.3839E+02
  19.555  0.1243E+01  0.3840E+02
  19.565  0.1241E+01  0.3841E+02
  19.575  0.1240E+01  0.3843E+02
  19.585  0.1238E+01  0.3844E+02
  19.595  0.1236E+01  0.3845E+02
  19.605  0.1234E+01  0.3846E+02
  19.615  0.1233E+01  0.3848E+02
  19.625  0.1231E+01  0.3849E+02
  19.635  0.1229E+01  0.3850E+02
  19.645  0.1227E+01  0.3851E+02
  19.655  0.1225E+01  0.3853E+02
  19.665  0.1223E+01  0.3854E+02
  19.675  0.1222E+01  0.3855E+02
  19.685  0.1220E+01  0.3856E+02
  19.695  0.1218E+01  0.3857E+02
  19.705  0.1216E+01  0.3859E+02
  19.715  0.1215E+01  0.3860E+02
  19.725  0.1213E+01  0.3861E+02
  19.735  0.1212E+01  0.3862E+02
  19.745  0.1210E+01  0.3863E+02
  19.755  0.1209E+01  0.3865E+02
  19.765  0.1208E+01  0.3866E+02
  19.775  0.1207E+01  0.3867E+02
  19.785  0.1206E+01  0.3868E+02
  19.795  0.1205E+01  0.3869E+02
  19.805  0.1204E+01  0.3871E+02
  19.815  0.1203E+01  0.3872E+02
  19.825  0.1203E+01  0.3873E+02
  19.835  0.1203E+01  0.3874E+02
  19.845  0.1203E+01  0.3876E+02
  19.855  0.1203E+01  0.3877E+02
  19.865  0.1203E+01  0.3878E+02
  19.875  0.1204E+01  0.3879E+02
  19.885  0.1204E+01  0.3880E+02
  19.895  0.1205E+01  0.3882E+02
  19.905  0.1206E+01  0.3883E+02
  19.915  0.1208E+01  0.3884E+02
  19.925  0.1209E+01  0.3885E+02
  19.935  0.1211E+01  0.3886E+02
  19.945  0.1213E+01  0.3888E+02
  19.955  0.1215E+01  0.3889E+02
  19.965  0.1217E+01  0.3890E+02
  19.975  0.1220E+01  0.3891E+02
  19.985  0.1223E+01  0.3892E+02
  19.995  0.1226E+01  0.3894E+02
  20.005  0.1229E+01  0.3895E+02
  20.015  0.1232E+01  0.3896E+02
  20.025  0.1236E+01  0.3897E+02
  20.035  0.1240E+01  0.3899E+02
  20.045  0.1243E+01  0.3900E+02
  20.055  0.1248E+01  0.3901E+02
  20.065  0.1252E+01  0.3902E+02
  20.075  0.1256E+01  0.3904E+02
  20.085  0.1261E+01  0.3905E+02
  20.095  0.1266E+01  0.3906E+02
  20.105  0.1270E+01  0.3907E+02
  20.115  0.1275E+01  0.3909E+02
  20.125  0.1281E+01  0.3910E+02
  20.135  0.1286E+01  0.3911E+02
  20.145  0.1291E+01  0.3913E+02
  20.155  0.1296E+01  0.3914E+02
  20.165  0.1302E+01  0.3915E+02
  20.175  0.1307E+01  0.3916E+02
  20.185  0.1313E+01  0.3918E+02
  20.195  0.1319E+01  0.3919E+02
  20.205  0.1324E+01  0.3920E+02
  20.215  0.1330E+01  0.3922E+02
  20.225  0.1335E+01  0.3923E+02
  20.235  0.1341E+01  0.3924E+02
  20.245  0.1347E+01  0.3926E+02
  20.255  0.1352E+01  0.3927E+02
  20.265  0.1358E+01  0.3928E+02
  20.275  0.1364E+01  0.3930E+02
  20.285  0.1369E+01  0.3931E+02
  20.295  0.1375E+01  0.3933E+02
  20.305  0.1380E+01  0.3934E+02
  20.315  0.1386E+01  0.3935E+02
  20.325  0.1391E+01  0.3937E+02
  20.335  0.1396E+01  0.3938E+02
  20.345  0.1402E+01  0.3940E+02
  20.355  0.1407E+01  0.3941E+02
  20.365  0.1412E+01  0.3942E+02
  20.375  0.1417E+01  0.3944E+02
  20.385  0.1422E+01  0.3945E+02
  20.395  0.1427E+01  0.3947E+02
  20.405  0.1432E+01  0.3948E+02
  20.415  0.1436E+01  0.3949E+02
  20.425  0.1441E+01  0.3951E+02
  20.435  0.1445E+01  0.3952E+02
  20.445  0.1450E+01  0.3954E+02
  20.455  0.1454E+01  0.3955E+02
  20.465  0.1458E+01  0.3957E+02
  20.475  0.1463E+01  0.3958E+02
  20.485  0.1467E+01  0.3960E+02
  20.495  0.1471E+01  0.3961E+02
  20.505  0.1474E+01  0.3963E+02
  20.515  0.1478E+01  0.3964E+02
  20.525  0.1482E+01  0.3966E+02
  20.535  0.1485E+01  0.3967E+02
  20.545  0.1489E+01  0.3969E+02
  20.555  0.1492E+01  0.3970E+02
  20.565  0.1495E+01  0.3972E+02
  20.575  0.1499E+01  0.3973E+02
  20.585  0.1502E+01  0.3975E+02
  20.595  0.1505E+01  0.3976E+02
  20.605  0.1507E+01  0.3978E+02
  20.615  0.1510E+01  0.3979E+02
  20.625  0.1513E+01  0.3981E+02
  20.635  0.1515E+01  0.3982E+02
  20.645  0.1518E+01  0.3984E+02
  20.655  0.1520E+01  0.3985E+02
  20.665  0.1522E+01  0.3987E+02
  20.675  0.1525E+01  0.3988E+02
  20.685  0.1527E+01  0.3990E+02
  20.695  0.1528E+01  0.3991E+02
  20.705  0.1530E+01  0.3993E+02
  20.715  0.1532E+01  0.3994E+02
  20.725  0.1534E+01  0.3996E+02
  20.735  0.1535E+01  0.3997E+02
  20.745  0.1536E+01  0.3999E+02
  20.755  0.1538E+01  0.4000E+02
  20.765  0.1539E+01  0.4002E+02
  20.775  0.1540E+01  0.4003E+02
  20.785  0.1541E+01  0.4005E+02
  20.795  0.1542E+01  0.4007E+02
  20.805  0.1543E+01  0.4008E+02
  20.815  0.1544E+01  0.4010E+02
  20.825  0.1544E+01  0.4011E+02
  20.835  0.1545E+01  0.4013E+02
  20.845  0.1545E+01  0.4014E+02
  20.855  0.1546E+01  0.4016E+02
  20.865  0.1546E+01  0.4017E+02
  20.875  0.1547E+01  0.4019E+02
  20.885  0.1547E+01  0.4020E+02
  20.895  0.1547E+01  0.4022E+02
  20.905  0.1547E+01  0.4024E+02
  20.915  0.1547E+01  0.4025E+02
  20.925  0.1548E+01  0.4027E+02
  20.935  0.1548E+01  0.4028E+02
  20.945  0.1548E+01  0.4030E+02
  20.955  0.1548E+01  0.4031E+02
  20.965  0.1548E+01  0.4033E+02
  20.975  0.1548E+01  0.4034E+02
  20.985  0.1548E+01  0.4036E+02
  20.995  0.1548E+01  0.4038E+02
  21.005  0.1548E+01  0.4039E+02
  21.015  0.1548E+01  0.4041E+02
  21.025  0.1549E+01  0.4042E+02
  21.035  0.1549E+01  0.4044E+02
  21.045  0.1549E+01  0.4045E+02
  21.055  0.1549E+01  0.4047E+02
  21.065  0.1550E+01  0.4048E+02
  21.075  0.1550E+01  0.4050E+02
  21.085  0.1551E+01  0.4051E+02
  21.095  0.1551E+01  0.4053E+02
  21.105  0.1552E+01  0.4055E+02
  21.115  0.1553E+01  0.4056E+02
  21.125  0.1554E+01  0.4058E+02
  21.135  0.1554E+01  0.4059E+02
  21.145  0.1555E+01  0.4061E+02
  21.155  0.1556E+01  0.4062E+02
  21.165  0.1558E+01  0.4064E+02
  21.175  0.1559E+01  0.4065E+02
  21.185  0.1560E+01  0.4067E+02
  21.195  0.1561E+01  0.4069E+02
  21.205  0.1563E+01  0.4070E+02
  21.215  0.1564E+01  0.4072E+02
  21.225  0.1566E+01  0.4073E+02
  21.235  0.1568E+01  0.4075E+02
  21.245  0.1569E+01  0.4076E+02
  21.255  0.1571E+01  0.4078E+02
  21.265  0.1573E+01  0.4080E+02
  21.275  0.1575E+01  0.4081E+02
  21.285  0.1577E+01  0.4083E+02
  21.295  0.1579E+01  0.4084E+02
  21.305  0.1581E+01  0.4086E+02
  21.315  0.1583E+01  0.4087E+02
  21.325  0.1585E+01  0.4089E+02
  21.335  0.1587E+01  0.4091E+02
  21.345  0.1589E+01  0.4092E+02
  21.355  0.1591E+01  0.4094E+02
  21.365  0.1593E+01  0.4095E+02
  21.375  0.1595E+01  0.4097E+02
  21.385  0.1597E+01  0.4099E+02
  21.395  0.1599E+01  0.4100E+02
  21.405  0.1602E+01  0.4102E+02
  21.415  0.1604E+01  0.4103E+02
  21.425  0.1605E+01  0.4105E+02
  21.435  0.1607E+01  0.4107E+02
  21.445  0.1609E+01  0.4108E+02
  21.455  0.1611E+01  0.4110E+02
  21.465  0.1613E+01  0.4111E+02
  21.475  0.1615E+01  0.4113E+02
  21.485  0.1616E+01  0.4115E+02
  21.495  0.1618E+01  0.4116E+02
  21.505  0.1619E+01  0.4118E+02
  21.515  0.1621E+01  0.4120E+02
  21.525  0.1622E+01  0.4121E+02
  21.535  0.1623E+01  0.4123E+02
  21.545  0.1624E+01  0.4124E+02
  21.555  0.1626E+01  0.4126E+02
  21.565  0.1627E+01  0.4128E+02
  21.575  0.1628E+01  0.4129E+02
  21.585  0.1629E+01  0.4131E+02
  21.595  0.1629E+01  0.4133E+02
  21.605  0.1630E+01  0.4134E+02
  21.615  0.1631E+01  0.4136E+02
  21.625  0.1631E+01  0.4137E+02
  21.635  0.1632E+01  0.4139E+02
  21.645  0.1632E+01  0.4141E+02
  21.655  0.1633E+01  0.4142E+02
  21.665  0.1633E+01  0.4144E+02
  21.675  0.1634E+01  0.4146E+02
  21.685  0.1634E+01  0.4147E+02
  21.695  0.1634E+01  0.4149E+02
  21.705  0.1635E+01  0.4150E+02
  21.715  0.1635E+01  0.4152E+02
  21.725  0.1635E+01  0.4154E+02
  21.735  0.1635E+01  0.4155E+02
  21.745  0.1635E+01  0.4157E+02
  21.755  0.1635E+01  0.4159E+02
  21.765  0.1636E+01  0.4160E+02
  21.775  0.1636E+01  0.4162E+02
  21.785  0.1636E+01  0.4164E+02
  21.795  0.1636E+01  0.4165E+02
  21.805  0.1636E+01  0.4167E+02
  21.815  0.1636E+01  0.4168E+02
  21.825  0.1636E+01  0.4170E+02
  21.835  0.1636E+01  0.4172E+02
  21.845  0.1637E+01  0.4173E+02
  21.855  0.1637E+01  0.4175E+02
  21.865  0.1637E+01  0.4177E+02
  21.875  0.1637E+01  0.4178E+02
  21.885  0.1637E+01  0.4180E+02
  21.895  0.1637E+01  0.4182E+02
  21.905  0.1637E+01  0.4183E+02
  21.915  0.1637E+01  0.4185E+02
  21.925  0.1637E+01  0.4186E+02
  21.935  0.1637E+01  0.4188E+02
  21.945  0.1637E+01  0.4190E+02
  21.955  0.1637E+01  0.4191E+02
  21.965  0.1637E+01  0.4193E+02
  21.975  0.1637E+01  0.4195E+02
  21.985  0.1637E+01  0.4196E+02
  21.995  0.1637E+01  0.4198E+02
  22.005  0.1637E+01  0.4200E+02
  22.015  0.1637E+01  0.4201E+02
  22.025  0.1636E+01  0.4203E+02
  22.035  0.1636E+01  0.4204E+02
  22.045  0.1635E+01  0.4206E+02
  22.055  0.1635E+01  0.4208E+02
  22.065  0.1634E+01  0.4209E+02
  22.075  0.1634E+01  0.4211E+02
  22.085  0.1633E+01  0.4213E+02
  22.095  0.1632E+01  0.4214E+02
  22.105  0.1631E+01  0.4216E+02
  22.115  0.1630E+01  0.4218E+02
  22.125  0.1628E+01  0.4219E+02
  22.135  0.1627E+01  0.4221E+02
  22.145  0.1626E+01  0.4222E+02
  22.155  0.1624E+01  0.4224E+02
  22.165  0.1623E+01  0.4226E+02
  22.175  0.1621E+01  0.4227E+02
  22.185  0.1619E+01  0.4229E+02
  22.195  0.1617E+01  0.4231E+02
  22.205  0.1615E+01  0.4232E+02
  22.215  0.1613E+01  0.4234E+02
  22.225  0.1611E+01  0.4235E+02
  22.235  0.1609E+01  0.4237E+02
  22.245  0.1606E+01  0.4239E+02
  22.255  0.1604E+01  0.4240E+02
  22.265  0.1601E+01  0.4242E+02
  22.275  0.1599E+01  0.4243E+02
  22.285  0.1596E+01  0.4245E+02
  22.295  0.1594E+01  0.4247E+02
  22.305  0.1591E+01  0.4248E+02
  22.315  0.1588E+01  0.4250E+02
  22.325  0.1586E+01  0.4251E+02
  22.335  0.1583E+01  0.4253E+02
  22.345  0.1580E+01  0.4255E+02
  22.355  0.1578E+01  0.4256E+02
  22.365  0.1575E+01  0.4258E+02
  22.375  0.1573E+01  0.4259E+02
  22.385  0.1570E+01  0.4261E+02
  22.395  0.1568E+01  0.4262E+02
  22.405  0.1566E+01  0.4264E+02
  22.415  0.1563E+01  0.4266E+02
  22.425  0.1561E+01  0.4267E+02
  22.435  0.1559E+01  0.4269E+02
  22.445  0.1558E+01  0.4270E+02
  22.455  0.1556E+01  0.4272E+02
  22.465  0.1554E+01  0.4273E+02
  22.475  0.1553E+01  0.4275E+02
  22.485  0.1552E+01  0.4276E+02
  22.495  0.1551E+01  0.4278E+02
  22.505  0.1550E+01  0.4279E+02
  22.515  0.1550E+01  0.4281E+02
  22.525  0.1549E+01  0.4283E+02
  22.535  0.1549E+01  0.4284E+02
  22.545  0.1549E+01  0.4286E+02
  22.555  0.1550E+01  0.4287E+02
  22.565  0.1550E+01  0.4289E+02
  22.575  0.1551E+01  0.4290E+02
  22.585  0.1552E+01  0.4292E+02
  22.595  0.1554E+01  0.4293E+02
  22.605  0.1555E+01  0.4295E+02
  22.615  0.1557E+01  0.4297E+02
  22.625  0.1559E+01  0.4298E+02
  22.635  0.1562E+01  0.4300E+02
  22.645  0.1564E+01  0.4301E+02
  22.655  0.1567E+01  0.4303E+02
  22.665  0.1570E+01  0.4304E+02
  22.675  0.1573E+01  0.4306E+02
  22.685  0.1577E+01  0.4308E+02
  22.695  0.1581E+01  0.4309E+02
  22.705  0.1585E+01  0.4311E+02
  22.715  0.1589E+01  0.4312E+02
  22.725  0.1593E+01  0.4314E+02
  22.735  0.1598E+01  0.4315E+02
  22.745  0.1603E+01  0.4317E+02
  22.755  0.1608E+01  0.4319E+02
  22.765  0.1613E+01  0.4320E+02
  22.775  0.1618E+01  0.4322E+02
  22.785  0.1623E+01  0.4324E+02
  22.795  0.1628E+01  0.4325E+02
  22.805  0.1634E+01  0.4327E+02
  22.815  0.1639E+01  0.4328E+02
  22.825  0.1645E+01  0.4330E+02
  22.835  0.1650E+01  0.4332E+02
  22.845  0.1656E+01  0.4333E+02
  22.855  0.1661E+01  0.4335E+02
  22.865  0.1667E+01  0.4337E+02
  22.875  0.1672E+01  0.4338E+02
  22.885  0.1677E+01  0.4340E+02
  22.895  0.1683E+01  0.4342E+02
  22.905  0.1688E+01  0.4343E+02
  22.915  0.1693E+01  0.4345E+02
  22.925  0.1698E+01  0.4347E+02
  22.935  0.1703E+01  0.4349E+02
  22.945  0.1707E+01  0.4350E+02
  22.955  0.1712E+01  0.4352E+02
  22.965  0.1716E+01  0.4354E+02
  22.975  0.1720E+01  0.4355E+02
  22.985  0.1724E+01  0.4357E+02
  22.995  0.1727E+01  0.4359E+02
  23.005  0.1731E+01  0.4361E+02
  23.015  0.1734E+01  0.4362E+02
  23.025  0.1737E+01  0.4364E+02
  23.035  0.1739E+01  0.4366E+02
  23.045  0.1742E+01  0.4368E+02
  23.055  0.1744E+01  0.4369E+02
  23.065  0.1745E+01  0.4371E+02
  23.075  0.1747E+01  0.4373E+02
  23.085  0.1748E+01  0.4375E+02
  23.095  0.1749E+01  0.4376E+02
  23.105  0.1750E+01  0.4378E+02
  23.115  0.1750E+01  0.4380E+02
  23.125  0.1751E+01  0.4382E+02
  23.135  0.1751E+01  0.4383E+02
  23.145  0.1751E+01  0.4385E+02
  23.155  0.1750E+01  0.4387E+02
  23.165  0.1749E+01  0.4389E+02
  23.175  0.1749E+01  0.4390E+02
  23.185  0.1747E+01  0.4392E+02
  23.195  0.1746E+01  0.4394E+02
  23.205  0.1745E+01  0.4395E+02
  23.215  0.1743E+01  0.4397E+02
  23.225  0.1742E+01  0.4399E+02
  23.235  0.1740E+01  0.4401E+02
  23.245  0.1738E+01  0.4402E+02
  23.255  0.1736E+01  0.4404E+02
  23.265  0.1734E+01  0.4406E+02
  23.275  0.1732E+01  0.4408E+02
  23.285  0.1731E+01  0.4409E+02
  23.295  0.1729E+01  0.4411E+02
  23.305  0.1727E+01  0.4413E+02
  23.315  0.1725E+01  0.4415E+02
  23.325  0.1723E+01  0.4416E+02
  23.335  0.1721E+01  0.4418E+02
  23.345  0.1720E+01  0.4420E+02
  23.355  0.1718E+01  0.4421E+02
  23.365  0.1717E+01  0.4423E+02
  23.375  0.1716E+01  0.4425E+02
  23.385  0.1715E+01  0.4427E+02
  23.395  0.1714E+01  0.4428E+02
  23.405  0.1714E+01  0.4430E+02
  23.415  0.1713E+01  0.4432E+02
  23.425  0.1713E+01  0.4433E+02
  23.435  0.1713E+01  0.4435E+02
  23.445  0.1714E+01  0.4437E+02
  23.455  0.1714E+01  0.4439E+02
  23.465  0.1715E+01  0.4440E+02
  23.475  0.1717E+01  0.4442E+02
  23.485  0.1718E+01  0.4444E+02
