#  E (eV)   dos(E)     Int dos(E) EFermi =  10.793 eV
 -12.841  0.3602E-03  0.3602E-05
 -12.831  0.3957E-03  0.7559E-05
 -12.821  0.4345E-03  0.1190E-04
 -12.811  0.4770E-03  0.1667E-04
 -12.801  0.5234E-03  0.2191E-04
 -12.791  0.5740E-03  0.2765E-04
 -12.781  0.6293E-03  0.3394E-04
 -12.771  0.6896E-03  0.4084E-04
 -12.761  0.7554E-03  0.4839E-04
 -12.751  0.8272E-03  0.5666E-04
 -12.741  0.9053E-03  0.6572E-04
 -12.731  0.9904E-03  0.7562E-04
 -12.721  0.1083E-02  0.8645E-04
 -12.711  0.1184E-02  0.9829E-04
 -12.701  0.1294E-02  0.1112E-03
 -12.691  0.1413E-02  0.1254E-03
 -12.681  0.1543E-02  0.1408E-03
 -12.671  0.1683E-02  0.1576E-03
 -12.661  0.1836E-02  0.1760E-03
 -12.651  0.2002E-02  0.1960E-03
 -12.641  0.2182E-02  0.2178E-03
 -12.631  0.2378E-02  0.2416E-03
 -12.621  0.2589E-02  0.2675E-03
 -12.611  0.2819E-02  0.2957E-03
 -12.601  0.3067E-02  0.3264E-03
 -12.591  0.3336E-02  0.3597E-03
 -12.581  0.3627E-02  0.3960E-03
 -12.571  0.3942E-02  0.4354E-03
 -12.561  0.4282E-02  0.4782E-03
 -12.551  0.4650E-02  0.5247E-03
 -12.541  0.5047E-02  0.5752E-03
 -12.531  0.5475E-02  0.6299E-03
 -12.521  0.5938E-02  0.6893E-03
 -12.511  0.6437E-02  0.7537E-03
 -12.501  0.6975E-02  0.8235E-03
 -12.491  0.7555E-02  0.8990E-03
 -12.481  0.8180E-02  0.9808E-03
 -12.471  0.8853E-02  0.1069E-02
 -12.461  0.9577E-02  0.1165E-02
 -12.451  0.1036E-01  0.1269E-02
 -12.441  0.1119E-01  0.1381E-02
 -12.431  0.1209E-01  0.1502E-02
 -12.421  0.1306E-01  0.1632E-02
 -12.411  0.1410E-01  0.1773E-02
 -12.401  0.1522E-01  0.1925E-02
 -12.391  0.1641E-01  0.2089E-02
 -12.381  0.1770E-01  0.2266E-02
 -12.371  0.1907E-01  0.2457E-02
 -12.361  0.2055E-01  0.2663E-02
 -12.351  0.2213E-01  0.2884E-02
 -12.341  0.2382E-01  0.3122E-02
 -12.331  0.2563E-01  0.3378E-02
 -12.321  0.2756E-01  0.3654E-02
 -12.311  0.2963E-01  0.3950E-02
 -12.301  0.3184E-01  0.4269E-02
 -12.291  0.3420E-01  0.4611E-02
 -12.281  0.3673E-01  0.4978E-02
 -12.271  0.3942E-01  0.5372E-02
 -12.261  0.4229E-01  0.5795E-02
 -12.251  0.4535E-01  0.6249E-02
 -12.241  0.4861E-01  0.6735E-02
 -12.231  0.5209E-01  0.7256E-02
 -12.221  0.5579E-01  0.7813E-02
 -12.211  0.5973E-01  0.8411E-02
 -12.201  0.6392E-01  0.9050E-02
 -12.191  0.6838E-01  0.9734E-02
 -12.181  0.7312E-01  0.1047E-01
 -12.171  0.7815E-01  0.1125E-01
 -12.161  0.8350E-01  0.1208E-01
 -12.151  0.8917E-01  0.1297E-01
 -12.141  0.9519E-01  0.1393E-01
 -12.131  0.1016E+00  0.1494E-01
 -12.121  0.1083E+00  0.1602E-01
 -12.111  0.1155E+00  0.1718E-01
 -12.101  0.1231E+00  0.1841E-01
 -12.091  0.1312E+00  0.1972E-01
 -12.081  0.1397E+00  0.2112E-01
 -12.071  0.1487E+00  0.2261E-01
 -12.061  0.1582E+00  0.2419E-01
 -12.051  0.1682E+00  0.2587E-01
 -12.041  0.1788E+00  0.2766E-01
 -12.031  0.1900E+00  0.2956E-01
 -12.021  0.2019E+00  0.3158E-01
 -12.011  0.2143E+00  0.3372E-01
 -12.001  0.2275E+00  0.3599E-01
 -11.991  0.2413E+00  0.3841E-01
 -11.981  0.2559E+00  0.4097E-01
 -11.971  0.2713E+00  0.4368E-01
 -11.961  0.2875E+00  0.4655E-01
 -11.951  0.3045E+00  0.4960E-01
 -11.941  0.3223E+00  0.5282E-01
 -11.931  0.3411E+00  0.5623E-01
 -11.921  0.3608E+00  0.5984E-01
 -11.911  0.3815E+00  0.6366E-01
 -11.901  0.4033E+00  0.6769E-01
 -11.891  0.4261E+00  0.7195E-01
 -11.881  0.4500E+00  0.7645E-01
 -11.871  0.4750E+00  0.8120E-01
 -11.861  0.5012E+00  0.8621E-01
 -11.851  0.5287E+00  0.9150E-01
 -11.841  0.5574E+00  0.9707E-01
 -11.831  0.5875E+00  0.1029E+00
 -11.821  0.6189E+00  0.1091E+00
 -11.811  0.6517E+00  0.1157E+00
 -11.801  0.6860E+00  0.1225E+00
 -11.791  0.7217E+00  0.1297E+00
 -11.781  0.7591E+00  0.1373E+00
 -11.771  0.7980E+00  0.1453E+00
 -11.761  0.8386E+00  0.1537E+00
 -11.751  0.8809E+00  0.1625E+00
 -11.741  0.9249E+00  0.1717E+00
 -11.731  0.9708E+00  0.1815E+00
 -11.721  0.1018E+01  0.1916E+00
 -11.711  0.1068E+01  0.2023E+00
 -11.701  0.1120E+01  0.2135E+00
 -11.691  0.1173E+01  0.2252E+00
 -11.681  0.1229E+01  0.2375E+00
 -11.671  0.1286E+01  0.2504E+00
 -11.661  0.1346E+01  0.2639E+00
 -11.651  0.1408E+01  0.2779E+00
 -11.641  0.1473E+01  0.2927E+00
 -11.631  0.1539E+01  0.3081E+00
 -11.621  0.1608E+01  0.3241E+00
 -11.611  0.1680E+01  0.3409E+00
 -11.601  0.1753E+01  0.3585E+00
 -11.591  0.1830E+01  0.3768E+00
 -11.581  0.1908E+01  0.3959E+00
 -11.571  0.1990E+01  0.4158E+00
 -11.561  0.2074E+01  0.4365E+00
 -11.551  0.2160E+01  0.4581E+00
 -11.541  0.2250E+01  0.4806E+00
 -11.531  0.2342E+01  0.5040E+00
 -11.521  0.2437E+01  0.5284E+00
 -11.511  0.2534E+01  0.5537E+00
 -11.501  0.2635E+01  0.5801E+00
 -11.491  0.2738E+01  0.6075E+00
 -11.481  0.2844E+01  0.6359E+00
 -11.471  0.2953E+01  0.6654E+00
 -11.461  0.3066E+01  0.6961E+00
 -11.451  0.3180E+01  0.7279E+00
 -11.441  0.3298E+01  0.7609E+00
 -11.431  0.3419E+01  0.7951E+00
 -11.421  0.3543E+01  0.8305E+00
 -11.411  0.3670E+01  0.8672E+00
 -11.401  0.3800E+01  0.9052E+00
 -11.391  0.3932E+01  0.9445E+00
 -11.381  0.4068E+01  0.9852E+00
 -11.371  0.4207E+01  0.1027E+01
 -11.361  0.4348E+01  0.1071E+01
 -11.351  0.4493E+01  0.1116E+01
 -11.341  0.4640E+01  0.1162E+01
 -11.331  0.4790E+01  0.1210E+01
 -11.321  0.4944E+01  0.1259E+01
 -11.311  0.5099E+01  0.1310E+01
 -11.301  0.5258E+01  0.1363E+01
 -11.291  0.5419E+01  0.1417E+01
 -11.281  0.5583E+01  0.1473E+01
 -11.271  0.5750E+01  0.1531E+01
 -11.261  0.5919E+01  0.1590E+01
 -11.251  0.6091E+01  0.1651E+01
 -11.241  0.6265E+01  0.1713E+01
 -11.231  0.6441E+01  0.1778E+01
 -11.221  0.6619E+01  0.1844E+01
 -11.211  0.6800E+01  0.1912E+01
 -11.201  0.6983E+01  0.1982E+01
 -11.191  0.7167E+01  0.2053E+01
 -11.181  0.7354E+01  0.2127E+01
 -11.171  0.7542E+01  0.2202E+01
 -11.161  0.7732E+01  0.2280E+01
 -11.151  0.7923E+01  0.2359E+01
 -11.141  0.8116E+01  0.2440E+01
 -11.131  0.8310E+01  0.2523E+01
 -11.121  0.8505E+01  0.2608E+01
 -11.111  0.8702E+01  0.2695E+01
 -11.101  0.8899E+01  0.2784E+01
 -11.091  0.9097E+01  0.2875E+01
 -11.081  0.9295E+01  0.2968E+01
 -11.071  0.9494E+01  0.3063E+01
 -11.061  0.9693E+01  0.3160E+01
 -11.051  0.9892E+01  0.3259E+01
 -11.041  0.1009E+02  0.3360E+01
 -11.031  0.1029E+02  0.3463E+01
 -11.021  0.1049E+02  0.3568E+01
 -11.011  0.1069E+02  0.3674E+01
 -11.001  0.1088E+02  0.3783E+01
 -10.991  0.1108E+02  0.3894E+01
 -10.981  0.1127E+02  0.4007E+01
 -10.971  0.1147E+02  0.4122E+01
 -10.961  0.1166E+02  0.4238E+01
 -10.951  0.1185E+02  0.4357E+01
 -10.941  0.1204E+02  0.4477E+01
 -10.931  0.1223E+02  0.4599E+01
 -10.921  0.1241E+02  0.4723E+01
 -10.911  0.1259E+02  0.4849E+01
 -10.901  0.1277E+02  0.4977E+01
 -10.891  0.1295E+02  0.5107E+01
 -10.881  0.1312E+02  0.5238E+01
 -10.871  0.1330E+02  0.5371E+01
 -10.861  0.1346E+02  0.5505E+01
 -10.851  0.1363E+02  0.5642E+01
 -10.841  0.1379E+02  0.5780E+01
 -10.831  0.1394E+02  0.5919E+01
 -10.821  0.1410E+02  0.6060E+01
 -10.811  0.1424E+02  0.6202E+01
 -10.801  0.1439E+02  0.6346E+01
 -10.791  0.1453E+02  0.6492E+01
 -10.781  0.1466E+02  0.6638E+01
 -10.771  0.1479E+02  0.6786E+01
 -10.761  0.1492E+02  0.6935E+01
 -10.751  0.1504E+02  0.7086E+01
 -10.741  0.1515E+02  0.7237E+01
 -10.731  0.1526E+02  0.7390E+01
 -10.721  0.1536E+02  0.7543E+01
 -10.711  0.1546E+02  0.7698E+01
 -10.701  0.1555E+02  0.7854E+01
 -10.691  0.1564E+02  0.8010E+01
 -10.681  0.1572E+02  0.8167E+01
 -10.671  0.1579E+02  0.8325E+01
 -10.661  0.1586E+02  0.8484E+01
 -10.651  0.1592E+02  0.8643E+01
 -10.641  0.1598E+02  0.8803E+01
 -10.631  0.1603E+02  0.8963E+01
 -10.621  0.1607E+02  0.9124E+01
 -10.611  0.1611E+02  0.9285E+01
 -10.601  0.1614E+02  0.9446E+01
 -10.591  0.1616E+02  0.9608E+01
 -10.581  0.1618E+02  0.9770E+01
 -10.571  0.1618E+02  0.9932E+01
 -10.561  0.1619E+02  0.1009E+02
 -10.551  0.1618E+02  0.1026E+02
 -10.541  0.1617E+02  0.1042E+02
 -10.531  0.1616E+02  0.1058E+02
 -10.521  0.1613E+02  0.1074E+02
 -10.511  0.1610E+02  0.1090E+02
 -10.501  0.1607E+02  0.1106E+02
 -10.491  0.1602E+02  0.1122E+02
 -10.481  0.1597E+02  0.1138E+02
 -10.471  0.1592E+02  0.1154E+02
 -10.461  0.1585E+02  0.1170E+02
 -10.451  0.1579E+02  0.1186E+02
 -10.441  0.1571E+02  0.1201E+02
 -10.431  0.1563E+02  0.1217E+02
 -10.421  0.1554E+02  0.1233E+02
 -10.411  0.1545E+02  0.1248E+02
 -10.401  0.1535E+02  0.1263E+02
 -10.391  0.1525E+02  0.1279E+02
 -10.381  0.1514E+02  0.1294E+02
 -10.371  0.1502E+02  0.1309E+02
 -10.361  0.1490E+02  0.1324E+02
 -10.351  0.1478E+02  0.1338E+02
 -10.341  0.1464E+02  0.1353E+02
 -10.331  0.1451E+02  0.1368E+02
 -10.321  0.1437E+02  0.1382E+02
 -10.311  0.1422E+02  0.1396E+02
 -10.301  0.1408E+02  0.1410E+02
 -10.291  0.1392E+02  0.1424E+02
 -10.281  0.1377E+02  0.1438E+02
 -10.271  0.1360E+02  0.1452E+02
 -10.261  0.1344E+02  0.1465E+02
 -10.251  0.1327E+02  0.1478E+02
 -10.241  0.1310E+02  0.1491E+02
 -10.231  0.1293E+02  0.1504E+02
 -10.221  0.1275E+02  0.1517E+02
 -10.211  0.1257E+02  0.1530E+02
 -10.201  0.1239E+02  0.1542E+02
 -10.191  0.1220E+02  0.1554E+02
 -10.181  0.1201E+02  0.1566E+02
 -10.171  0.1182E+02  0.1578E+02
 -10.161  0.1163E+02  0.1590E+02
 -10.151  0.1144E+02  0.1601E+02
 -10.141  0.1125E+02  0.1612E+02
 -10.131  0.1105E+02  0.1623E+02
 -10.121  0.1086E+02  0.1634E+02
 -10.111  0.1066E+02  0.1645E+02
 -10.101  0.1046E+02  0.1655E+02
 -10.091  0.1026E+02  0.1666E+02
 -10.081  0.1006E+02  0.1676E+02
 -10.071  0.9863E+01  0.1686E+02
 -10.061  0.9664E+01  0.1695E+02
 -10.051  0.9465E+01  0.1705E+02
 -10.041  0.9266E+01  0.1714E+02
 -10.031  0.9068E+01  0.1723E+02
 -10.021  0.8870E+01  0.1732E+02
 -10.011  0.8673E+01  0.1741E+02
 -10.001  0.8476E+01  0.1749E+02
  -9.991  0.8281E+01  0.1757E+02
  -9.981  0.8087E+01  0.1765E+02
  -9.971  0.7895E+01  0.1773E+02
  -9.961  0.7703E+01  0.1781E+02
  -9.951  0.7514E+01  0.1789E+02
  -9.941  0.7326E+01  0.1796E+02
  -9.931  0.7139E+01  0.1803E+02
  -9.921  0.6955E+01  0.1810E+02
  -9.911  0.6772E+01  0.1817E+02
  -9.901  0.6592E+01  0.1823E+02
  -9.891  0.6414E+01  0.1830E+02
  -9.881  0.6238E+01  0.1836E+02
  -9.871  0.6064E+01  0.1842E+02
  -9.861  0.5893E+01  0.1848E+02
  -9.851  0.5724E+01  0.1854E+02
  -9.841  0.5558E+01  0.1859E+02
  -9.831  0.5394E+01  0.1865E+02
  -9.821  0.5233E+01  0.1870E+02
  -9.811  0.5075E+01  0.1875E+02
  -9.801  0.4919E+01  0.1880E+02
  -9.791  0.4766E+01  0.1885E+02
  -9.781  0.4616E+01  0.1889E+02
  -9.771  0.4469E+01  0.1894E+02
  -9.761  0.4325E+01  0.1898E+02
  -9.751  0.4184E+01  0.1902E+02
  -9.741  0.4046E+01  0.1906E+02
  -9.731  0.3910E+01  0.1910E+02
  -9.721  0.3778E+01  0.1914E+02
  -9.711  0.3649E+01  0.1918E+02
  -9.701  0.3522E+01  0.1921E+02
  -9.691  0.3399E+01  0.1925E+02
  -9.681  0.3278E+01  0.1928E+02
  -9.671  0.3161E+01  0.1931E+02
  -9.661  0.3046E+01  0.1934E+02
  -9.651  0.2935E+01  0.1937E+02
  -9.641  0.2826E+01  0.1940E+02
  -9.631  0.2720E+01  0.1942E+02
  -9.621  0.2617E+01  0.1945E+02
  -9.611  0.2517E+01  0.1948E+02
  -9.601  0.2420E+01  0.1950E+02
  -9.591  0.2326E+01  0.1952E+02
  -9.581  0.2234E+01  0.1955E+02
  -9.571  0.2145E+01  0.1957E+02
  -9.561  0.2059E+01  0.1959E+02
  -9.551  0.1975E+01  0.1961E+02
  -9.541  0.1894E+01  0.1963E+02
  -9.531  0.1816E+01  0.1964E+02
  -9.521  0.1740E+01  0.1966E+02
  -9.511  0.1667E+01  0.1968E+02
  -9.501  0.1596E+01  0.1969E+02
  -9.491  0.1527E+01  0.1971E+02
  -9.481  0.1461E+01  0.1972E+02
  -9.471  0.1397E+01  0.1974E+02
  -9.461  0.1335E+01  0.1975E+02
  -9.451  0.1276E+01  0.1976E+02
  -9.441  0.1218E+01  0.1978E+02
  -9.431  0.1163E+01  0.1979E+02
  -9.421  0.1110E+01  0.1980E+02
  -9.411  0.1059E+01  0.1981E+02
  -9.401  0.1009E+01  0.1982E+02
  -9.391  0.9620E+00  0.1983E+02
  -9.381  0.9165E+00  0.1984E+02
  -9.371  0.8727E+00  0.1985E+02
  -9.361  0.8307E+00  0.1986E+02
  -9.351  0.7904E+00  0.1986E+02
  -9.341  0.7518E+00  0.1987E+02
  -9.331  0.7147E+00  0.1988E+02
  -9.321  0.6792E+00  0.1989E+02
  -9.311  0.6452E+00  0.1989E+02
  -9.301  0.6126E+00  0.1990E+02
  -9.291  0.5815E+00  0.1990E+02
  -9.281  0.5517E+00  0.1991E+02
  -9.271  0.5232E+00  0.1991E+02
  -9.261  0.4959E+00  0.1992E+02
  -9.251  0.4699E+00  0.1992E+02
  -9.241  0.4451E+00  0.1993E+02
  -9.231  0.4214E+00  0.1993E+02
  -9.221  0.3988E+00  0.1994E+02
  -9.211  0.3773E+00  0.1994E+02
  -9.201  0.3567E+00  0.1994E+02
  -9.191  0.3372E+00  0.1995E+02
  -9.181  0.3186E+00  0.1995E+02
  -9.171  0.3009E+00  0.1995E+02
  -9.161  0.2840E+00  0.1996E+02
  -9.151  0.2680E+00  0.1996E+02
  -9.141  0.2528E+00  0.1996E+02
  -9.131  0.2384E+00  0.1996E+02
  -9.121  0.2247E+00  0.1997E+02
  -9.111  0.2116E+00  0.1997E+02
  -9.101  0.1993E+00  0.1997E+02
  -9.091  0.1876E+00  0.1997E+02
  -9.081  0.1765E+00  0.1997E+02
  -9.071  0.1660E+00  0.1998E+02
  -9.061  0.1561E+00  0.1998E+02
  -9.051  0.1467E+00  0.1998E+02
  -9.041  0.1378E+00  0.1998E+02
  -9.031  0.1294E+00  0.1998E+02
  -9.021  0.1214E+00  0.1998E+02
  -9.011  0.1139E+00  0.1998E+02
  -9.001  0.1068E+00  0.1999E+02
  -8.991  0.1001E+00  0.1999E+02
  -8.981  0.9383E-01  0.1999E+02
  -8.971  0.8788E-01  0.1999E+02
  -8.961  0.8228E-01  0.1999E+02
  -8.951  0.7700E-01  0.1999E+02
  -8.941  0.7203E-01  0.1999E+02
  -8.931  0.6735E-01  0.1999E+02
  -8.921  0.6295E-01  0.1999E+02
  -8.911  0.5882E-01  0.1999E+02
  -8.901  0.5493E-01  0.1999E+02
  -8.891  0.5128E-01  0.1999E+02
  -8.881  0.4785E-01  0.1999E+02
  -8.871  0.4463E-01  0.1999E+02
  -8.861  0.4161E-01  0.1999E+02
  -8.851  0.3878E-01  0.2000E+02
  -8.841  0.3613E-01  0.2000E+02
  -8.831  0.3364E-01  0.2000E+02
  -8.821  0.3131E-01  0.2000E+02
  -8.811  0.2913E-01  0.2000E+02
  -8.801  0.2709E-01  0.2000E+02
  -8.791  0.2519E-01  0.2000E+02
  -8.781  0.2341E-01  0.2000E+02
  -8.771  0.2174E-01  0.2000E+02
  -8.761  0.2019E-01  0.2000E+02
  -8.751  0.1874E-01  0.2000E+02
  -8.741  0.1738E-01  0.2000E+02
  -8.731  0.1612E-01  0.2000E+02
  -8.721  0.1494E-01  0.2000E+02
  -8.711  0.1384E-01  0.2000E+02
  -8.701  0.1282E-01  0.2000E+02
  -8.691  0.1187E-01  0.2000E+02
  -8.681  0.1098E-01  0.2000E+02
  -8.671  0.1016E-01  0.2000E+02
  -8.661  0.9394E-02  0.2000E+02
  -8.651  0.8683E-02  0.2000E+02
  -8.641  0.8022E-02  0.2000E+02
  -8.631  0.7408E-02  0.2000E+02
  -8.621  0.6838E-02  0.2000E+02
  -8.611  0.6310E-02  0.2000E+02
  -8.601  0.5819E-02  0.2000E+02
  -8.591  0.5365E-02  0.2000E+02
  -8.581  0.4944E-02  0.2000E+02
  -8.571  0.4555E-02  0.2000E+02
  -8.561  0.4194E-02  0.2000E+02
  -8.551  0.3860E-02  0.2000E+02
  -8.541  0.3551E-02  0.2000E+02
  -8.531  0.3266E-02  0.2000E+02
  -8.521  0.3002E-02  0.2000E+02
  -8.511  0.2759E-02  0.2000E+02
  -8.501  0.2534E-02  0.2000E+02
  -8.491  0.2326E-02  0.2000E+02
  -8.481  0.2135E-02  0.2000E+02
  -8.471  0.1958E-02  0.2000E+02
  -8.461  0.1796E-02  0.2000E+02
  -8.451  0.1646E-02  0.2000E+02
  -8.441  0.1508E-02  0.2000E+02
  -8.431  0.1381E-02  0.2000E+02
  -8.421  0.1264E-02  0.2000E+02
  -8.411  0.1157E-02  0.2000E+02
  -8.401  0.1058E-02  0.2000E+02
  -8.391  0.9675E-03  0.2000E+02
  -8.381  0.8842E-03  0.2000E+02
  -8.371  0.8077E-03  0.2000E+02
  -8.361  0.7375E-03  0.2000E+02
  -8.351  0.6732E-03  0.2000E+02
  -8.341  0.6142E-03  0.2000E+02
  -8.331  0.5602E-03  0.2000E+02
  -8.321  0.5107E-03  0.2000E+02
  -8.311  0.4653E-03  0.2000E+02
  -8.301  0.4239E-03  0.2000E+02
  -8.291  0.3859E-03  0.2000E+02
  -8.281  0.3512E-03  0.2000E+02
  -8.271  0.3195E-03  0.2000E+02
  -8.261  0.2905E-03  0.2000E+02
  -8.251  0.2641E-03  0.2000E+02
  -8.241  0.2400E-03  0.2000E+02
  -8.231  0.2179E-03  0.2000E+02
  -8.221  0.1978E-03  0.2000E+02
  -8.211  0.1795E-03  0.2000E+02
  -8.201  0.1628E-03  0.2000E+02
  -8.191  0.1476E-03  0.2000E+02
  -8.181  0.1338E-03  0.2000E+02
  -8.171  0.1212E-03  0.2000E+02
  -8.161  0.1098E-03  0.2000E+02
  -8.151  0.9937E-04  0.2000E+02
  -8.141  0.8991E-04  0.2000E+02
  -8.131  0.8131E-04  0.2000E+02
  -8.121  0.7351E-04  0.2000E+02
  -8.111  0.6643E-04  0.2000E+02
  -8.101  0.6000E-04  0.2000E+02
  -8.091  0.5418E-04  0.2000E+02
  -8.081  0.4890E-04  0.2000E+02
  -8.071  0.4411E-04  0.2000E+02
  -8.061  0.3978E-04  0.2000E+02
  -8.051  0.3586E-04  0.2000E+02
  -8.041  0.3231E-04  0.2000E+02
  -8.031  0.2910E-04  0.2000E+02
  -8.021  0.2620E-04  0.2000E+02
  -8.011  0.2357E-04  0.2000E+02
  -8.001  0.2120E-04  0.2000E+02
  -7.991  0.1907E-04  0.2000E+02
  -7.981  0.1714E-04  0.2000E+02
  -7.971  0.1539E-04  0.2000E+02
  -7.961  0.1382E-04  0.2000E+02
  -7.951  0.1241E-04  0.2000E+02
  -7.941  0.1113E-04  0.2000E+02
  -7.931  0.9986E-05  0.2000E+02
  -7.921  0.8953E-05  0.2000E+02
  -7.911  0.8023E-05  0.2000E+02
  -7.901  0.7187E-05  0.2000E+02
  -7.891  0.6435E-05  0.2000E+02
  -7.881  0.5759E-05  0.2000E+02
  -7.871  0.5152E-05  0.2000E+02
  -7.861  0.4608E-05  0.2000E+02
  -7.851  0.4119E-05  0.2000E+02
  -7.841  0.3680E-05  0.2000E+02
  -7.831  0.3287E-05  0.2000E+02
  -7.821  0.2934E-05  0.2000E+02
  -7.811  0.2619E-05  0.2000E+02
  -7.801  0.2336E-05  0.2000E+02
  -7.791  0.2083E-05  0.2000E+02
  -7.781  0.1856E-05  0.2000E+02
  -7.771  0.1654E-05  0.2000E+02
  -7.761  0.1473E-05  0.2000E+02
  -7.751  0.1311E-05  0.2000E+02
  -7.741  0.1166E-05  0.2000E+02
  -7.731  0.1037E-05  0.2000E+02
  -7.721  0.9223E-06  0.2000E+02
  -7.711  0.8196E-06  0.2000E+02
  -7.701  0.7281E-06  0.2000E+02
  -7.691  0.6465E-06  0.2000E+02
  -7.681  0.5738E-06  0.2000E+02
  -7.671  0.5090E-06  0.2000E+02
  -7.661  0.4514E-06  0.2000E+02
  -7.651  0.4001E-06  0.2000E+02
  -7.641  0.3545E-06  0.2000E+02
  -7.631  0.3140E-06  0.2000E+02
  -7.621  0.2780E-06  0.2000E+02
  -7.611  0.2460E-06  0.2000E+02
  -7.601  0.2176E-06  0.2000E+02
  -7.591  0.1924E-06  0.2000E+02
  -7.581  0.1701E-06  0.2000E+02
  -7.571  0.1502E-06  0.2000E+02
  -7.561  0.1327E-06  0.2000E+02
  -7.551  0.1171E-06  0.2000E+02
  -7.541  0.1033E-06  0.2000E+02
  -7.531  0.9114E-07  0.2000E+02
  -7.521  0.8035E-07  0.2000E+02
  -7.511  0.7081E-07  0.2000E+02
  -7.501  0.6237E-07  0.2000E+02
  -7.491  0.5492E-07  0.2000E+02
  -7.481  0.4834E-07  0.2000E+02
  -7.471  0.4252E-07  0.2000E+02
  -7.461  0.3739E-07  0.2000E+02
  -7.451  0.3287E-07  0.2000E+02
  -7.441  0.2888E-07  0.2000E+02
  -7.431  0.2537E-07  0.2000E+02
  -7.421  0.2227E-07  0.2000E+02
  -7.411  0.1954E-07  0.2000E+02
  -7.401  0.1714E-07  0.2000E+02
  -7.391  0.1503E-07  0.2000E+02
  -7.381  0.1317E-07  0.2000E+02
  -7.371  0.1154E-07  0.2000E+02
  -7.361  0.1011E-07  0.2000E+02
  -7.351  0.8846E-08  0.2000E+02
  -7.341  0.7740E-08  0.2000E+02
  -7.331  0.6770E-08  0.2000E+02
  -7.321  0.5918E-08  0.2000E+02
  -7.311  0.5172E-08  0.2000E+02
  -7.301  0.4518E-08  0.2000E+02
  -7.291  0.3944E-08  0.2000E+02
  -7.281  0.3443E-08  0.2000E+02
  -7.271  0.3003E-08  0.2000E+02
  -7.261  0.2619E-08  0.2000E+02
  -7.251  0.2283E-08  0.2000E+02
  -7.241  0.1989E-08  0.2000E+02
  -7.231  0.1732E-08  0.2000E+02
  -7.221  0.1508E-08  0.2000E+02
  -7.211  0.1312E-08  0.2000E+02
  -7.201  0.1142E-08  0.2000E+02
  -7.191  0.9925E-09  0.2000E+02
  -7.181  0.8626E-09  0.2000E+02
  -7.171  0.7494E-09  0.2000E+02
  -7.161  0.6507E-09  0.2000E+02
  -7.151  0.5648E-09  0.2000E+02
  -7.141  0.4901E-09  0.2000E+02
  -7.131  0.4250E-09  0.2000E+02
  -7.121  0.3685E-09  0.2000E+02
  -7.111  0.3193E-09  0.2000E+02
  -7.101  0.2766E-09  0.2000E+02
  -7.091  0.2395E-09  0.2000E+02
  -7.081  0.2072E-09  0.2000E+02
  -7.071  0.1793E-09  0.2000E+02
  -7.061  0.1550E-09  0.2000E+02
  -7.051  0.1340E-09  0.2000E+02
  -7.041  0.1158E-09  0.2000E+02
  -7.031  0.9999E-10  0.2000E+02
  -7.021  0.8632E-10  0.2000E+02
  -7.011  0.7448E-10  0.2000E+02
  -7.001  0.6425E-10  0.2000E+02
  -6.991  0.5539E-10  0.2000E+02
  -6.981  0.4774E-10  0.2000E+02
  -6.971  0.4112E-10  0.2000E+02
  -6.961  0.3541E-10  0.2000E+02
  -6.951  0.3048E-10  0.2000E+02
  -6.941  0.2622E-10  0.2000E+02
  -6.931  0.2255E-10  0.2000E+02
  -6.921  0.1939E-10  0.2000E+02
  -6.911  0.1666E-10  0.2000E+02
  -6.901  0.1431E-10  0.2000E+02
  -6.891  0.1228E-10  0.2000E+02
  -6.881  0.1054E-10  0.2000E+02
  -6.871  0.9044E-11  0.2000E+02
  -6.861  0.7755E-11  0.2000E+02
  -6.851  0.6647E-11  0.2000E+02
  -6.841  0.5695E-11  0.2000E+02
  -6.831  0.4877E-11  0.2000E+02
  -6.821  0.4175E-11  0.2000E+02
  -6.811  0.3572E-11  0.2000E+02
  -6.801  0.3055E-11  0.2000E+02
  -6.791  0.2612E-11  0.2000E+02
  -6.781  0.2232E-11  0.2000E+02
  -6.771  0.1907E-11  0.2000E+02
  -6.761  0.1628E-11  0.2000E+02
  -6.751  0.1390E-11  0.2000E+02
  -6.741  0.1186E-11  0.2000E+02
  -6.731  0.1011E-11  0.2000E+02
  -6.721  0.8619E-12  0.2000E+02
  -6.711  0.7344E-12  0.2000E+02
  -6.701  0.6255E-12  0.2000E+02
  -6.691  0.5325E-12  0.2000E+02
  -6.681  0.4532E-12  0.2000E+02
  -6.671  0.3855E-12  0.2000E+02
  -6.661  0.3278E-12  0.2000E+02
  -6.651  0.2786E-12  0.2000E+02
  -6.641  0.2367E-12  0.2000E+02
  -6.631  0.2010E-12  0.2000E+02
  -6.621  0.1706E-12  0.2000E+02
  -6.611  0.1447E-12  0.2000E+02
  -6.601  0.1228E-12  0.2000E+02
  -6.591  0.1041E-12  0.2000E+02
  -6.581  0.8819E-13  0.2000E+02
  -6.571  0.7470E-13  0.2000E+02
  -6.561  0.6325E-13  0.2000E+02
  -6.551  0.5353E-13  0.2000E+02
  -6.541  0.4528E-13  0.2000E+02
  -6.531  0.3829E-13  0.2000E+02
  -6.521  0.3237E-13  0.2000E+02
  -6.511  0.2735E-13  0.2000E+02
  -6.501  0.2310E-13  0.2000E+02
  -6.491  0.1950E-13  0.2000E+02
  -6.481  0.1645E-13  0.2000E+02
  -6.471  0.1388E-13  0.2000E+02
  -6.461  0.1170E-13  0.2000E+02
  -6.451  0.9861E-14  0.2000E+02
  -6.441  0.8307E-14  0.2000E+02
  -6.431  0.6995E-14  0.2000E+02
  -6.421  0.5888E-14  0.2000E+02
  -6.411  0.4954E-14  0.2000E+02
  -6.401  0.4166E-14  0.2000E+02
  -6.391  0.3502E-14  0.2000E+02
  -6.381  0.2943E-14  0.2000E+02
  -6.371  0.2472E-14  0.2000E+02
  -6.361  0.2075E-14  0.2000E+02
  -6.351  0.1741E-14  0.2000E+02
  -6.341  0.1461E-14  0.2000E+02
  -6.331  0.1225E-14  0.2000E+02
  -6.321  0.1027E-14  0.2000E+02
  -6.311  0.8602E-15  0.2000E+02
  -6.301  0.7203E-15  0.2000E+02
  -6.291  0.6030E-15  0.2000E+02
  -6.281  0.5045E-15  0.2000E+02
  -6.271  0.4220E-15  0.2000E+02
  -6.261  0.3528E-15  0.2000E+02
  -6.251  0.2948E-15  0.2000E+02
  -6.241  0.2463E-15  0.2000E+02
  -6.231  0.2056E-15  0.2000E+02
  -6.221  0.1716E-15  0.2000E+02
  -6.211  0.1432E-15  0.2000E+02
  -6.201  0.1194E-15  0.2000E+02
  -6.191  0.9952E-16  0.2000E+02
  -6.181  0.8292E-16  0.2000E+02
  -6.171  0.6906E-16  0.2000E+02
  -6.161  0.5750E-16  0.2000E+02
  -6.151  0.4784E-16  0.2000E+02
  -6.141  0.3980E-16  0.2000E+02
  -6.131  0.3309E-16  0.2000E+02
  -6.121  0.2750E-16  0.2000E+02
  -6.111  0.2285E-16  0.2000E+02
  -6.101  0.1897E-16  0.2000E+02
  -6.091  0.1575E-16  0.2000E+02
  -6.081  0.1306E-16  0.2000E+02
  -6.071  0.1083E-16  0.2000E+02
  -6.061  0.8982E-17  0.2000E+02
  -6.051  0.7443E-17  0.2000E+02
  -6.041  0.6165E-17  0.2000E+02
  -6.031  0.5104E-17  0.2000E+02
  -6.021  0.4224E-17  0.2000E+02
  -6.011  0.3494E-17  0.2000E+02
  -6.001  0.2889E-17  0.2000E+02
  -5.991  0.2388E-17  0.2000E+02
  -5.981  0.1973E-17  0.2000E+02
  -5.971  0.1629E-17  0.2000E+02
  -5.961  0.1345E-17  0.2000E+02
  -5.951  0.1110E-17  0.2000E+02
  -5.941  0.9154E-18  0.2000E+02
  -5.931  0.7547E-18  0.2000E+02
  -5.921  0.6219E-18  0.2000E+02
  -5.911  0.5123E-18  0.2000E+02
  -5.901  0.4218E-18  0.2000E+02
  -5.891  0.3472E-18  0.2000E+02
  -5.881  0.2856E-18  0.2000E+02
  -5.871  0.2349E-18  0.2000E+02
  -5.861  0.1931E-18  0.2000E+02
  -5.851  0.1586E-18  0.2000E+02
  -5.841  0.1303E-18  0.2000E+02
  -5.831  0.1070E-18  0.2000E+02
  -5.821  0.8777E-19  0.2000E+02
  -5.811  0.7199E-19  0.2000E+02
  -5.801  0.5903E-19  0.2000E+02
  -5.791  0.4838E-19  0.2000E+02
  -5.781  0.3963E-19  0.2000E+02
  -5.771  0.3245E-19  0.2000E+02
  -5.761  0.2656E-19  0.2000E+02
  -5.751  0.2173E-19  0.2000E+02
  -5.741  0.1777E-19  0.2000E+02
  -5.731  0.1453E-19  0.2000E+02
  -5.721  0.1187E-19  0.2000E+02
  -5.711  0.9697E-20  0.2000E+02
  -5.701  0.7917E-20  0.2000E+02
  -5.691  0.6461E-20  0.2000E+02
  -5.681  0.5271E-20  0.2000E+02
  -5.671  0.4298E-20  0.2000E+02
  -5.661  0.3503E-20  0.2000E+02
  -5.651  0.2854E-20  0.2000E+02
  -5.641  0.2324E-20  0.2000E+02
  -5.631  0.1892E-20  0.2000E+02
  -5.621  0.1539E-20  0.2000E+02
  -5.611  0.1252E-20  0.2000E+02
  -5.601  0.1018E-20  0.2000E+02
  -5.591  0.8272E-21  0.2000E+02
  -5.581  0.6719E-21  0.2000E+02
  -5.571  0.5456E-21  0.2000E+02
  -5.561  0.4428E-21  0.2000E+02
  -5.551  0.3592E-21  0.2000E+02
  -5.541  0.2913E-21  0.2000E+02
  -5.531  0.2361E-21  0.2000E+02
  -5.521  0.1913E-21  0.2000E+02
  -5.511  0.1549E-21  0.2000E+02
  -5.501  0.1254E-21  0.2000E+02
  -5.491  0.1015E-21  0.2000E+02
  -5.481  0.8210E-22  0.2000E+02
  -5.471  0.6638E-22  0.2000E+02
  -5.461  0.5364E-22  0.2000E+02
  -5.451  0.4333E-22  0.2000E+02
  -5.441  0.3499E-22  0.2000E+02
  -5.431  0.2824E-22  0.2000E+02
  -5.421  0.2279E-22  0.2000E+02
  -5.411  0.1838E-22  0.2000E+02
  -5.401  0.1482E-22  0.2000E+02
  -5.391  0.1194E-22  0.2000E+02
  -5.381  0.9620E-23  0.2000E+02
  -5.371  0.7748E-23  0.2000E+02
  -5.361  0.6239E-23  0.2000E+02
  -5.351  0.5023E-23  0.2000E+02
  -5.341  0.4045E-23  0.2000E+02
  -5.331  0.3258E-23  0.2000E+02
  -5.321  0.2626E-23  0.2000E+02
  -5.311  0.2119E-23  0.2000E+02
  -5.301  0.1715E-23  0.2000E+02
  -5.291  0.1392E-23  0.2000E+02
  -5.281  0.1137E-23  0.2000E+02
  -5.271  0.9369E-24  0.2000E+02
  -5.261  0.7821E-24  0.2000E+02
  -5.251  0.6653E-24  0.2000E+02
  -5.241  0.5808E-24  0.2000E+02
  -5.231  0.5242E-24  0.2000E+02
  -5.221  0.4928E-24  0.2000E+02
  -5.211  0.4848E-24  0.2000E+02
  -5.201  0.4996E-24  0.2000E+02
  -5.191  0.5376E-24  0.2000E+02
  -5.181  0.6001E-24  0.2000E+02
  -5.171  0.6897E-24  0.2000E+02
  -5.161  0.8100E-24  0.2000E+02
  -5.151  0.9661E-24  0.2000E+02
  -5.141  0.1165E-23  0.2000E+02
  -5.131  0.1414E-23  0.2000E+02
  -5.121  0.1724E-23  0.2000E+02
  -5.111  0.2108E-23  0.2000E+02
  -5.101  0.2582E-23  0.2000E+02
  -5.091  0.3165E-23  0.2000E+02
  -5.081  0.3883E-23  0.2000E+02
  -5.071  0.4764E-23  0.2000E+02
  -5.061  0.5844E-23  0.2000E+02
  -5.051  0.7169E-23  0.2000E+02
  -5.041  0.8791E-23  0.2000E+02
  -5.031  0.1078E-22  0.2000E+02
  -5.021  0.1321E-22  0.2000E+02
  -5.011  0.1618E-22  0.2000E+02
  -5.001  0.1981E-22  0.2000E+02
  -4.991  0.2425E-22  0.2000E+02
  -4.981  0.2967E-22  0.2000E+02
  -4.971  0.3629E-22  0.2000E+02
  -4.961  0.4436E-22  0.2000E+02
  -4.951  0.5421E-22  0.2000E+02
  -4.941  0.6622E-22  0.2000E+02
  -4.931  0.8085E-22  0.2000E+02
  -4.921  0.9867E-22  0.2000E+02
  -4.911  0.1204E-21  0.2000E+02
  -4.901  0.1468E-21  0.2000E+02
  -4.891  0.1789E-21  0.2000E+02
  -4.881  0.2180E-21  0.2000E+02
  -4.871  0.2655E-21  0.2000E+02
  -4.861  0.3232E-21  0.2000E+02
  -4.851  0.3933E-21  0.2000E+02
  -4.841  0.4783E-21  0.2000E+02
  -4.831  0.5816E-21  0.2000E+02
  -4.821  0.7068E-21  0.2000E+02
  -4.811  0.8585E-21  0.2000E+02
  -4.801  0.1042E-20  0.2000E+02
  -4.791  0.1265E-20  0.2000E+02
  -4.781  0.1535E-20  0.2000E+02
  -4.771  0.1862E-20  0.2000E+02
  -4.761  0.2257E-20  0.2000E+02
  -4.751  0.2735E-20  0.2000E+02
  -4.741  0.3312E-20  0.2000E+02
  -4.731  0.4010E-20  0.2000E+02
  -4.721  0.4852E-20  0.2000E+02
  -4.711  0.5870E-20  0.2000E+02
  -4.701  0.7097E-20  0.2000E+02
  -4.691  0.8578E-20  0.2000E+02
  -4.681  0.1036E-19  0.2000E+02
  -4.671  0.1251E-19  0.2000E+02
  -4.661  0.1511E-19  0.2000E+02
  -4.651  0.1823E-19  0.2000E+02
  -4.641  0.2198E-19  0.2000E+02
  -4.631  0.2650E-19  0.2000E+02
  -4.621  0.3194E-19  0.2000E+02
  -4.611  0.3847E-19  0.2000E+02
  -4.601  0.4632E-19  0.2000E+02
  -4.591  0.5575E-19  0.2000E+02
  -4.581  0.6707E-19  0.2000E+02
  -4.571  0.8065E-19  0.2000E+02
  -4.561  0.9694E-19  0.2000E+02
  -4.551  0.1165E-18  0.2000E+02
  -4.541  0.1399E-18  0.2000E+02
  -4.531  0.1679E-18  0.2000E+02
  -4.521  0.2015E-18  0.2000E+02
  -4.511  0.2417E-18  0.2000E+02
  -4.501  0.2898E-18  0.2000E+02
  -4.491  0.3473E-18  0.2000E+02
  -4.481  0.4161E-18  0.2000E+02
  -4.471  0.4983E-18  0.2000E+02
  -4.461  0.5964E-18  0.2000E+02
  -4.451  0.7136E-18  0.2000E+02
  -4.441  0.8534E-18  0.2000E+02
  -4.431  0.1020E-17  0.2000E+02
  -4.421  0.1219E-17  0.2000E+02
  -4.411  0.1456E-17  0.2000E+02
  -4.401  0.1738E-17  0.2000E+02
  -4.391  0.2075E-17  0.2000E+02
  -4.381  0.2475E-17  0.2000E+02
  -4.371  0.2951E-17  0.2000E+02
  -4.361  0.3518E-17  0.2000E+02
  -4.351  0.4191E-17  0.2000E+02
  -4.341  0.4992E-17  0.2000E+02
  -4.331  0.5942E-17  0.2000E+02
  -4.321  0.7071E-17  0.2000E+02
  -4.311  0.8410E-17  0.2000E+02
  -4.301  0.9999E-17  0.2000E+02
  -4.291  0.1188E-16  0.2000E+02
  -4.281  0.1412E-16  0.2000E+02
  -4.271  0.1676E-16  0.2000E+02
  -4.261  0.1990E-16  0.2000E+02
  -4.251  0.2361E-16  0.2000E+02
  -4.241  0.2799E-16  0.2000E+02
  -4.231  0.3319E-16  0.2000E+02
  -4.221  0.3932E-16  0.2000E+02
  -4.211  0.4658E-16  0.2000E+02
  -4.201  0.5514E-16  0.2000E+02
  -4.191  0.6526E-16  0.2000E+02
  -4.181  0.7720E-16  0.2000E+02
  -4.171  0.9129E-16  0.2000E+02
  -4.161  0.1079E-15  0.2000E+02
  -4.151  0.1275E-15  0.2000E+02
  -4.141  0.1506E-15  0.2000E+02
  -4.131  0.1777E-15  0.2000E+02
  -4.121  0.2097E-15  0.2000E+02
  -4.111  0.2474E-15  0.2000E+02
  -4.101  0.2916E-15  0.2000E+02
  -4.091  0.3437E-15  0.2000E+02
  -4.081  0.4049E-15  0.2000E+02
  -4.071  0.4767E-15  0.2000E+02
  -4.061  0.5611E-15  0.2000E+02
  -4.051  0.6602E-15  0.2000E+02
  -4.041  0.7764E-15  0.2000E+02
  -4.031  0.9127E-15  0.2000E+02
  -4.021  0.1073E-14  0.2000E+02
  -4.011  0.1260E-14  0.2000E+02
  -4.001  0.1479E-14  0.2000E+02
  -3.991  0.1736E-14  0.2000E+02
  -3.981  0.2036E-14  0.2000E+02
  -3.971  0.2388E-14  0.2000E+02
  -3.961  0.2799E-14  0.2000E+02
  -3.951  0.3279E-14  0.2000E+02
  -3.941  0.3840E-14  0.2000E+02
  -3.931  0.4496E-14  0.2000E+02
  -3.921  0.5261E-14  0.2000E+02
  -3.911  0.6153E-14  0.2000E+02
  -3.901  0.7194E-14  0.2000E+02
  -3.891  0.8408E-14  0.2000E+02
  -3.881  0.9823E-14  0.2000E+02
  -3.871  0.1147E-13  0.2000E+02
  -3.861  0.1339E-13  0.2000E+02
  -3.851  0.1562E-13  0.2000E+02
  -3.841  0.1822E-13  0.2000E+02
  -3.831  0.2124E-13  0.2000E+02
  -3.821  0.2475E-13  0.2000E+02
  -3.811  0.2883E-13  0.2000E+02
  -3.801  0.3357E-13  0.2000E+02
  -3.791  0.3907E-13  0.2000E+02
  -3.781  0.4545E-13  0.2000E+02
  -3.771  0.5285E-13  0.2000E+02
  -3.761  0.6143E-13  0.2000E+02
  -3.751  0.7138E-13  0.2000E+02
  -3.741  0.8290E-13  0.2000E+02
  -3.731  0.9624E-13  0.2000E+02
  -3.721  0.1117E-12  0.2000E+02
  -3.711  0.1296E-12  0.2000E+02
  -3.701  0.1502E-12  0.2000E+02
  -3.691  0.1741E-12  0.2000E+02
  -3.681  0.2017E-12  0.2000E+02
  -3.671  0.2336E-12  0.2000E+02
  -3.661  0.2704E-12  0.2000E+02
  -3.651  0.3129E-12  0.2000E+02
  -3.641  0.3619E-12  0.2000E+02
  -3.631  0.4184E-12  0.2000E+02
  -3.621  0.4835E-12  0.2000E+02
  -3.611  0.5585E-12  0.2000E+02
  -3.601  0.6449E-12  0.2000E+02
  -3.591  0.7444E-12  0.2000E+02
  -3.581  0.8589E-12  0.2000E+02
  -3.571  0.9905E-12  0.2000E+02
  -3.561  0.1142E-11  0.2000E+02
  -3.551  0.1316E-11  0.2000E+02
  -3.541  0.1516E-11  0.2000E+02
  -3.531  0.1745E-11  0.2000E+02
  -3.521  0.2008E-11  0.2000E+02
  -3.511  0.2310E-11  0.2000E+02
  -3.501  0.2657E-11  0.2000E+02
  -3.491  0.3054E-11  0.2000E+02
  -3.481  0.3509E-11  0.2000E+02
  -3.471  0.4030E-11  0.2000E+02
  -3.461  0.4626E-11  0.2000E+02
  -3.451  0.5309E-11  0.2000E+02
  -3.441  0.6089E-11  0.2000E+02
  -3.431  0.6982E-11  0.2000E+02
  -3.421  0.8003E-11  0.2000E+02
  -3.411  0.9168E-11  0.2000E+02
  -3.401  0.1050E-10  0.2000E+02
  -3.391  0.1202E-10  0.2000E+02
  -3.381  0.1375E-10  0.2000E+02
  -3.371  0.1573E-10  0.2000E+02
  -3.361  0.1798E-10  0.2000E+02
  -3.351  0.2055E-10  0.2000E+02
  -3.341  0.2348E-10  0.2000E+02
  -3.331  0.2681E-10  0.2000E+02
  -3.321  0.3060E-10  0.2000E+02
  -3.311  0.3491E-10  0.2000E+02
  -3.301  0.3982E-10  0.2000E+02
  -3.291  0.4539E-10  0.2000E+02
  -3.281  0.5173E-10  0.2000E+02
  -3.271  0.5892E-10  0.2000E+02
  -3.261  0.6709E-10  0.2000E+02
  -3.251  0.7636E-10  0.2000E+02
  -3.241  0.8687E-10  0.2000E+02
  -3.231  0.9879E-10  0.2000E+02
  -3.221  0.1123E-09  0.2000E+02
  -3.211  0.1276E-09  0.2000E+02
  -3.201  0.1449E-09  0.2000E+02
  -3.191  0.1645E-09  0.2000E+02
  -3.181  0.1867E-09  0.2000E+02
  -3.171  0.2118E-09  0.2000E+02
  -3.161  0.2402E-09  0.2000E+02
  -3.151  0.2723E-09  0.2000E+02
  -3.141  0.3085E-09  0.2000E+02
  -3.131  0.3494E-09  0.2000E+02
  -3.121  0.3955E-09  0.2000E+02
  -3.111  0.4476E-09  0.2000E+02
  -3.101  0.5063E-09  0.2000E+02
  -3.091  0.5725E-09  0.2000E+02
  -3.081  0.6470E-09  0.2000E+02
  -3.071  0.7310E-09  0.2000E+02
  -3.061  0.8255E-09  0.2000E+02
  -3.051  0.9319E-09  0.2000E+02
  -3.041  0.1052E-08  0.2000E+02
  -3.031  0.1186E-08  0.2000E+02
  -3.021  0.1337E-08  0.2000E+02
  -3.011  0.1507E-08  0.2000E+02
  -3.001  0.1698E-08  0.2000E+02
  -2.991  0.1912E-08  0.2000E+02
  -2.981  0.2152E-08  0.2000E+02
  -2.971  0.2421E-08  0.2000E+02
  -2.961  0.2723E-08  0.2000E+02
  -2.951  0.3062E-08  0.2000E+02
  -2.941  0.3441E-08  0.2000E+02
  -2.931  0.3865E-08  0.2000E+02
  -2.921  0.4340E-08  0.2000E+02
  -2.911  0.4871E-08  0.2000E+02
  -2.901  0.5465E-08  0.2000E+02
  -2.891  0.6129E-08  0.2000E+02
  -2.881  0.6871E-08  0.2000E+02
  -2.871  0.7700E-08  0.2000E+02
  -2.861  0.8625E-08  0.2000E+02
  -2.851  0.9657E-08  0.2000E+02
  -2.841  0.1081E-07  0.2000E+02
  -2.831  0.1209E-07  0.2000E+02
  -2.821  0.1352E-07  0.2000E+02
  -2.811  0.1512E-07  0.2000E+02
  -2.801  0.1689E-07  0.2000E+02
  -2.791  0.1887E-07  0.2000E+02
  -2.781  0.2107E-07  0.2000E+02
  -2.771  0.2351E-07  0.2000E+02
  -2.761  0.2623E-07  0.2000E+02
  -2.751  0.2925E-07  0.2000E+02
  -2.741  0.3261E-07  0.2000E+02
  -2.731  0.3633E-07  0.2000E+02
  -2.721  0.4046E-07  0.2000E+02
  -2.711  0.4505E-07  0.2000E+02
  -2.701  0.5014E-07  0.2000E+02
  -2.691  0.5578E-07  0.2000E+02
  -2.681  0.6202E-07  0.2000E+02
  -2.671  0.6894E-07  0.2000E+02
  -2.661  0.7660E-07  0.2000E+02
  -2.651  0.8508E-07  0.2000E+02
  -2.641  0.9445E-07  0.2000E+02
  -2.631  0.1048E-06  0.2000E+02
  -2.621  0.1163E-06  0.2000E+02
  -2.611  0.1289E-06  0.2000E+02
  -2.601  0.1429E-06  0.2000E+02
  -2.591  0.1583E-06  0.2000E+02
  -2.581  0.1754E-06  0.2000E+02
  -2.571  0.1942E-06  0.2000E+02
  -2.561  0.2149E-06  0.2000E+02
  -2.551  0.2377E-06  0.2000E+02
  -2.541  0.2628E-06  0.2000E+02
  -2.531  0.2905E-06  0.2000E+02
  -2.521  0.3209E-06  0.2000E+02
  -2.511  0.3544E-06  0.2000E+02
  -2.501  0.3913E-06  0.2000E+02
  -2.491  0.4318E-06  0.2000E+02
  -2.481  0.4763E-06  0.2000E+02
  -2.471  0.5252E-06  0.2000E+02
  -2.461  0.5789E-06  0.2000E+02
  -2.451  0.6378E-06  0.2000E+02
  -2.441  0.7024E-06  0.2000E+02
  -2.431  0.7733E-06  0.2000E+02
  -2.421  0.8509E-06  0.2000E+02
  -2.411  0.9360E-06  0.2000E+02
  -2.401  0.1029E-05  0.2000E+02
  -2.391  0.1131E-05  0.2000E+02
  -2.381  0.1243E-05  0.2000E+02
  -2.371  0.1365E-05  0.2000E+02
  -2.361  0.1498E-05  0.2000E+02
  -2.351  0.1644E-05  0.2000E+02
  -2.341  0.1804E-05  0.2000E+02
  -2.331  0.1978E-05  0.2000E+02
  -2.321  0.2168E-05  0.2000E+02
  -2.311  0.2375E-05  0.2000E+02
  -2.301  0.2601E-05  0.2000E+02
  -2.291  0.2848E-05  0.2000E+02
  -2.281  0.3116E-05  0.2000E+02
  -2.271  0.3409E-05  0.2000E+02
  -2.261  0.3727E-05  0.2000E+02
  -2.251  0.4074E-05  0.2000E+02
  -2.241  0.4451E-05  0.2000E+02
  -2.231  0.4861E-05  0.2000E+02
  -2.221  0.5307E-05  0.2000E+02
  -2.211  0.5791E-05  0.2000E+02
  -2.201  0.6318E-05  0.2000E+02
  -2.191  0.6889E-05  0.2000E+02
  -2.181  0.7509E-05  0.2000E+02
  -2.171  0.8181E-05  0.2000E+02
  -2.161  0.8910E-05  0.2000E+02
  -2.151  0.9700E-05  0.2000E+02
  -2.141  0.1056E-04  0.2000E+02
  -2.131  0.1148E-04  0.2000E+02
  -2.121  0.1249E-04  0.2000E+02
  -2.111  0.1357E-04  0.2000E+02
  -2.101  0.1475E-04  0.2000E+02
  -2.091  0.1602E-04  0.2000E+02
  -2.081  0.1739E-04  0.2000E+02
  -2.071  0.1887E-04  0.2000E+02
  -2.061  0.2048E-04  0.2000E+02
  -2.051  0.2220E-04  0.2000E+02
  -2.041  0.2407E-04  0.2000E+02
  -2.031  0.2608E-04  0.2000E+02
  -2.021  0.2825E-04  0.2000E+02
  -2.011  0.3059E-04  0.2000E+02
  -2.001  0.3310E-04  0.2000E+02
  -1.991  0.3581E-04  0.2000E+02
  -1.981  0.3873E-04  0.2000E+02
  -1.971  0.4187E-04  0.2000E+02
  -1.961  0.4524E-04  0.2000E+02
  -1.951  0.4887E-04  0.2000E+02
  -1.941  0.5277E-04  0.2000E+02
  -1.931  0.5696E-04  0.2000E+02
  -1.921  0.6145E-04  0.2000E+02
  -1.911  0.6628E-04  0.2000E+02
  -1.901  0.7145E-04  0.2000E+02
  -1.891  0.7700E-04  0.2000E+02
  -1.881  0.8295E-04  0.2000E+02
  -1.871  0.8932E-04  0.2000E+02
  -1.861  0.9615E-04  0.2000E+02
  -1.851  0.1035E-03  0.2000E+02
  -1.841  0.1113E-03  0.2000E+02
  -1.831  0.1196E-03  0.2000E+02
  -1.821  0.1286E-03  0.2000E+02
  -1.811  0.1381E-03  0.2000E+02
  -1.801  0.1483E-03  0.2000E+02
  -1.791  0.1593E-03  0.2000E+02
  -1.781  0.1709E-03  0.2000E+02
  -1.771  0.1833E-03  0.2000E+02
  -1.761  0.1966E-03  0.2000E+02
  -1.751  0.2107E-03  0.2000E+02
  -1.741  0.2257E-03  0.2000E+02
  -1.731  0.2418E-03  0.2000E+02
  -1.721  0.2588E-03  0.2000E+02
  -1.711  0.2770E-03  0.2000E+02
  -1.701  0.2964E-03  0.2000E+02
  -1.691  0.3169E-03  0.2000E+02
  -1.681  0.3388E-03  0.2000E+02
  -1.671  0.3620E-03  0.2000E+02
  -1.661  0.3867E-03  0.2000E+02
  -1.651  0.4129E-03  0.2000E+02
  -1.641  0.4407E-03  0.2000E+02
  -1.631  0.4702E-03  0.2000E+02
  -1.621  0.5015E-03  0.2000E+02
  -1.611  0.5347E-03  0.2000E+02
  -1.601  0.5699E-03  0.2000E+02
  -1.591  0.6071E-03  0.2000E+02
  -1.581  0.6465E-03  0.2000E+02
  -1.571  0.6882E-03  0.2000E+02
  -1.561  0.7324E-03  0.2000E+02
  -1.551  0.7790E-03  0.2000E+02
  -1.541  0.8284E-03  0.2000E+02
  -1.531  0.8805E-03  0.2000E+02
  -1.521  0.9356E-03  0.2000E+02
  -1.511  0.9937E-03  0.2000E+02
  -1.501  0.1055E-02  0.2000E+02
  -1.491  0.1120E-02  0.2000E+02
  -1.481  0.1188E-02  0.2000E+02
  -1.471  0.1260E-02  0.2000E+02
  -1.461  0.1336E-02  0.2000E+02
  -1.451  0.1416E-02  0.2000E+02
  -1.441  0.1500E-02  0.2000E+02
  -1.431  0.1588E-02  0.2000E+02
  -1.421  0.1681E-02  0.2000E+02
  -1.411  0.1779E-02  0.2000E+02
  -1.401  0.1882E-02  0.2000E+02
  -1.391  0.1990E-02  0.2000E+02
  -1.381  0.2103E-02  0.2000E+02
  -1.371  0.2222E-02  0.2000E+02
  -1.361  0.2347E-02  0.2000E+02
  -1.351  0.2478E-02  0.2000E+02
  -1.341  0.2616E-02  0.2000E+02
  -1.331  0.2760E-02  0.2000E+02
  -1.321  0.2911E-02  0.2000E+02
  -1.311  0.3069E-02  0.2000E+02
  -1.301  0.3234E-02  0.2000E+02
  -1.291  0.3408E-02  0.2000E+02
  -1.281  0.3589E-02  0.2000E+02
  -1.271  0.3778E-02  0.2000E+02
  -1.261  0.3976E-02  0.2000E+02
  -1.251  0.4183E-02  0.2000E+02
  -1.241  0.4399E-02  0.2000E+02
  -1.231  0.4624E-02  0.2000E+02
  -1.221  0.4859E-02  0.2000E+02
  -1.211  0.5105E-02  0.2000E+02
  -1.201  0.5361E-02  0.2000E+02
  -1.191  0.5627E-02  0.2000E+02
  -1.181  0.5905E-02  0.2000E+02
  -1.171  0.6194E-02  0.2000E+02
  -1.161  0.6495E-02  0.2000E+02
  -1.151  0.6809E-02  0.2000E+02
  -1.141  0.7135E-02  0.2000E+02
  -1.131  0.7474E-02  0.2000E+02
  -1.121  0.7826E-02  0.2000E+02
  -1.111  0.8192E-02  0.2000E+02
  -1.101  0.8572E-02  0.2000E+02
  -1.091  0.8967E-02  0.2000E+02
  -1.081  0.9376E-02  0.2000E+02
  -1.071  0.9801E-02  0.2000E+02
  -1.061  0.1024E-01  0.2000E+02
  -1.051  0.1070E-01  0.2000E+02
  -1.041  0.1117E-01  0.2000E+02
  -1.031  0.1166E-01  0.2000E+02
  -1.021  0.1217E-01  0.2000E+02
  -1.011  0.1269E-01  0.2000E+02
  -1.001  0.1323E-01  0.2000E+02
  -0.991  0.1380E-01  0.2000E+02
  -0.981  0.1438E-01  0.2000E+02
  -0.971  0.1497E-01  0.2000E+02
  -0.961  0.1559E-01  0.2000E+02
  -0.951  0.1623E-01  0.2000E+02
  -0.941  0.1689E-01  0.2000E+02
  -0.931  0.1757E-01  0.2000E+02
  -0.921  0.1827E-01  0.2000E+02
  -0.911  0.1900E-01  0.2000E+02
  -0.901  0.1974E-01  0.2000E+02
  -0.891  0.2051E-01  0.2000E+02
  -0.881  0.2130E-01  0.2000E+02
  -0.871  0.2211E-01  0.2001E+02
  -0.861  0.2295E-01  0.2001E+02
  -0.851  0.2381E-01  0.2001E+02
  -0.841  0.2470E-01  0.2001E+02
  -0.831  0.2560E-01  0.2001E+02
  -0.821  0.2654E-01  0.2001E+02
  -0.811  0.2750E-01  0.2001E+02
  -0.801  0.2848E-01  0.2001E+02
  -0.791  0.2949E-01  0.2001E+02
  -0.781  0.3053E-01  0.2001E+02
  -0.771  0.3159E-01  0.2001E+02
  -0.761  0.3268E-01  0.2001E+02
  -0.751  0.3379E-01  0.2001E+02
  -0.741  0.3493E-01  0.2001E+02
  -0.731  0.3610E-01  0.2001E+02
  -0.721  0.3730E-01  0.2001E+02
  -0.711  0.3852E-01  0.2001E+02
  -0.701  0.3977E-01  0.2001E+02
  -0.691  0.4105E-01  0.2001E+02
  -0.681  0.4236E-01  0.2001E+02
  -0.671  0.4370E-01  0.2001E+02
  -0.661  0.4506E-01  0.2001E+02
  -0.651  0.4645E-01  0.2001E+02
  -0.641  0.4787E-01  0.2001E+02
  -0.631  0.4932E-01  0.2001E+02
  -0.621  0.5079E-01  0.2001E+02
  -0.611  0.5230E-01  0.2001E+02
  -0.601  0.5383E-01  0.2002E+02
  -0.591  0.5539E-01  0.2002E+02
  -0.581  0.5698E-01  0.2002E+02
  -0.571  0.5860E-01  0.2002E+02
  -0.561  0.6025E-01  0.2002E+02
  -0.551  0.6192E-01  0.2002E+02
  -0.541  0.6362E-01  0.2002E+02
  -0.531  0.6535E-01  0.2002E+02
  -0.521  0.6711E-01  0.2002E+02
  -0.511  0.6889E-01  0.2002E+02
  -0.501  0.7071E-01  0.2002E+02
  -0.491  0.7255E-01  0.2002E+02
  -0.481  0.7441E-01  0.2002E+02
  -0.471  0.7630E-01  0.2002E+02
  -0.461  0.7822E-01  0.2002E+02
  -0.451  0.8016E-01  0.2003E+02
  -0.441  0.8213E-01  0.2003E+02
  -0.431  0.8413E-01  0.2003E+02
  -0.421  0.8615E-01  0.2003E+02
  -0.411  0.8819E-01  0.2003E+02
  -0.401  0.9026E-01  0.2003E+02
  -0.391  0.9235E-01  0.2003E+02
  -0.381  0.9447E-01  0.2003E+02
  -0.371  0.9661E-01  0.2003E+02
  -0.361  0.9877E-01  0.2003E+02
  -0.351  0.1009E+00  0.2003E+02
  -0.341  0.1032E+00  0.2004E+02
  -0.331  0.1054E+00  0.2004E+02
  -0.321  0.1076E+00  0.2004E+02
  -0.311  0.1099E+00  0.2004E+02
  -0.301  0.1122E+00  0.2004E+02
  -0.291  0.1145E+00  0.2004E+02
  -0.281  0.1168E+00  0.2004E+02
  -0.271  0.1191E+00  0.2004E+02
  -0.261  0.1215E+00  0.2004E+02
  -0.251  0.1239E+00  0.2005E+02
  -0.241  0.1263E+00  0.2005E+02
  -0.231  0.1287E+00  0.2005E+02
  -0.221  0.1311E+00  0.2005E+02
  -0.211  0.1335E+00  0.2005E+02
  -0.201  0.1360E+00  0.2005E+02
  -0.191  0.1385E+00  0.2005E+02
  -0.181  0.1409E+00  0.2005E+02
  -0.171  0.1434E+00  0.2006E+02
  -0.161  0.1459E+00  0.2006E+02
  -0.151  0.1485E+00  0.2006E+02
  -0.141  0.1510E+00  0.2006E+02
  -0.131  0.1535E+00  0.2006E+02
  -0.121  0.1561E+00  0.2006E+02
  -0.111  0.1586E+00  0.2007E+02
  -0.101  0.1612E+00  0.2007E+02
  -0.091  0.1637E+00  0.2007E+02
  -0.081  0.1663E+00  0.2007E+02
  -0.071  0.1689E+00  0.2007E+02
  -0.061  0.1715E+00  0.2007E+02
  -0.051  0.1741E+00  0.2008E+02
  -0.041  0.1767E+00  0.2008E+02
  -0.031  0.1793E+00  0.2008E+02
  -0.021  0.1819E+00  0.2008E+02
  -0.011  0.1845E+00  0.2008E+02
  -0.001  0.1872E+00  0.2008E+02
   0.009  0.1898E+00  0.2009E+02
   0.019  0.1924E+00  0.2009E+02
   0.029  0.1950E+00  0.2009E+02
   0.039  0.1976E+00  0.2009E+02
   0.049  0.2003E+00  0.2009E+02
   0.059  0.2029E+00  0.2010E+02
   0.069  0.2055E+00  0.2010E+02
   0.079  0.2082E+00  0.2010E+02
   0.089  0.2108E+00  0.2010E+02
   0.099  0.2134E+00  0.2010E+02
   0.109  0.2160E+00  0.2011E+02
   0.119  0.2186E+00  0.2011E+02
   0.129  0.2213E+00  0.2011E+02
   0.139  0.2239E+00  0.2011E+02
   0.149  0.2265E+00  0.2012E+02
   0.159  0.2291E+00  0.2012E+02
   0.169  0.2317E+00  0.2012E+02
   0.179  0.2343E+00  0.2012E+02
   0.189  0.2369E+00  0.2013E+02
   0.199  0.2395E+00  0.2013E+02
   0.209  0.2421E+00  0.2013E+02
   0.219  0.2447E+00  0.2013E+02
   0.229  0.2472E+00  0.2013E+02
   0.239  0.2498E+00  0.2014E+02
   0.249  0.2524E+00  0.2014E+02
   0.259  0.2549E+00  0.2014E+02
   0.269  0.2575E+00  0.2015E+02
   0.279  0.2600E+00  0.2015E+02
   0.289  0.2625E+00  0.2015E+02
   0.299  0.2651E+00  0.2015E+02
   0.309  0.2676E+00  0.2016E+02
   0.319  0.2701E+00  0.2016E+02
   0.329  0.2726E+00  0.2016E+02
   0.339  0.2751E+00  0.2016E+02
   0.349  0.2776E+00  0.2017E+02
   0.359  0.2800E+00  0.2017E+02
   0.369  0.2825E+00  0.2017E+02
   0.379  0.2850E+00  0.2018E+02
   0.389  0.2874E+00  0.2018E+02
   0.399  0.2898E+00  0.2018E+02
   0.409  0.2922E+00  0.2018E+02
   0.419  0.2947E+00  0.2019E+02
   0.429  0.2971E+00  0.2019E+02
   0.439  0.2994E+00  0.2019E+02
   0.449  0.3018E+00  0.2020E+02
   0.459  0.3042E+00  0.2020E+02
   0.469  0.3065E+00  0.2020E+02
   0.479  0.3089E+00  0.2020E+02
   0.489  0.3112E+00  0.2021E+02
   0.499  0.3135E+00  0.2021E+02
   0.509  0.3158E+00  0.2021E+02
   0.519  0.3181E+00  0.2022E+02
   0.529  0.3204E+00  0.2022E+02
   0.539  0.3226E+00  0.2022E+02
   0.549  0.3249E+00  0.2023E+02
   0.559  0.3271E+00  0.2023E+02
   0.569  0.3293E+00  0.2023E+02
   0.579  0.3315E+00  0.2024E+02
   0.589  0.3337E+00  0.2024E+02
   0.599  0.3359E+00  0.2024E+02
   0.609  0.3380E+00  0.2025E+02
   0.619  0.3401E+00  0.2025E+02
   0.629  0.3423E+00  0.2025E+02
   0.639  0.3444E+00  0.2026E+02
   0.649  0.3465E+00  0.2026E+02
   0.659  0.3485E+00  0.2026E+02
   0.669  0.3506E+00  0.2027E+02
   0.679  0.3526E+00  0.2027E+02
   0.689  0.3547E+00  0.2027E+02
   0.699  0.3567E+00  0.2028E+02
   0.709  0.3587E+00  0.2028E+02
   0.719  0.3606E+00  0.2029E+02
   0.729  0.3626E+00  0.2029E+02
   0.739  0.3645E+00  0.2029E+02
   0.749  0.3665E+00  0.2030E+02
   0.759  0.3684E+00  0.2030E+02
   0.769  0.3703E+00  0.2030E+02
   0.779  0.3721E+00  0.2031E+02
   0.789  0.3740E+00  0.2031E+02
   0.799  0.3759E+00  0.2032E+02
   0.809  0.3777E+00  0.2032E+02
   0.819  0.3795E+00  0.2032E+02
   0.829  0.3813E+00  0.2033E+02
   0.839  0.3831E+00  0.2033E+02
   0.849  0.3848E+00  0.2033E+02
   0.859  0.3866E+00  0.2034E+02
   0.869  0.3883E+00  0.2034E+02
   0.879  0.3901E+00  0.2035E+02
   0.889  0.3918E+00  0.2035E+02
   0.899  0.3935E+00  0.2035E+02
   0.909  0.3952E+00  0.2036E+02
   0.919  0.3968E+00  0.2036E+02
   0.929  0.3985E+00  0.2037E+02
   0.939  0.4001E+00  0.2037E+02
   0.949  0.4018E+00  0.2037E+02
   0.959  0.4034E+00  0.2038E+02
   0.969  0.4050E+00  0.2038E+02
   0.979  0.4066E+00  0.2039E+02
   0.989  0.4082E+00  0.2039E+02
   0.999  0.4098E+00  0.2039E+02
   1.009  0.4114E+00  0.2040E+02
   1.019  0.4129E+00  0.2040E+02
   1.029  0.4145E+00  0.2041E+02
   1.039  0.4161E+00  0.2041E+02
   1.049  0.4176E+00  0.2041E+02
   1.059  0.4192E+00  0.2042E+02
   1.069  0.4207E+00  0.2042E+02
   1.079  0.4223E+00  0.2043E+02
   1.089  0.4238E+00  0.2043E+02
   1.099  0.4253E+00  0.2044E+02
   1.109  0.4269E+00  0.2044E+02
   1.119  0.4284E+00  0.2044E+02
   1.129  0.4299E+00  0.2045E+02
   1.139  0.4314E+00  0.2045E+02
   1.149  0.4330E+00  0.2046E+02
   1.159  0.4345E+00  0.2046E+02
   1.169  0.4360E+00  0.2047E+02
   1.179  0.4376E+00  0.2047E+02
   1.189  0.4391E+00  0.2047E+02
   1.199  0.4407E+00  0.2048E+02
   1.209  0.4422E+00  0.2048E+02
   1.219  0.4438E+00  0.2049E+02
   1.229  0.4453E+00  0.2049E+02
   1.239  0.4469E+00  0.2050E+02
   1.249  0.4485E+00  0.2050E+02
   1.259  0.4500E+00  0.2051E+02
   1.269  0.4516E+00  0.2051E+02
   1.279  0.4532E+00  0.2052E+02
   1.289  0.4548E+00  0.2052E+02
   1.299  0.4564E+00  0.2052E+02
   1.309  0.4581E+00  0.2053E+02
   1.319  0.4597E+00  0.2053E+02
   1.329  0.4613E+00  0.2054E+02
   1.339  0.4630E+00  0.2054E+02
   1.349  0.4646E+00  0.2055E+02
   1.359  0.4663E+00  0.2055E+02
   1.369  0.4680E+00  0.2056E+02
   1.379  0.4696E+00  0.2056E+02
   1.389  0.4713E+00  0.2057E+02
   1.399  0.4730E+00  0.2057E+02
   1.409  0.4748E+00  0.2058E+02
   1.419  0.4765E+00  0.2058E+02
   1.429  0.4782E+00  0.2059E+02
   1.439  0.4800E+00  0.2059E+02
   1.449  0.4817E+00  0.2059E+02
   1.459  0.4835E+00  0.2060E+02
   1.469  0.4853E+00  0.2060E+02
   1.479  0.4870E+00  0.2061E+02
   1.489  0.4888E+00  0.2061E+02
   1.499  0.4906E+00  0.2062E+02
   1.509  0.4924E+00  0.2062E+02
   1.519  0.4942E+00  0.2063E+02
   1.529  0.4961E+00  0.2063E+02
   1.539  0.4979E+00  0.2064E+02
   1.549  0.4997E+00  0.2064E+02
   1.559  0.5016E+00  0.2065E+02
   1.569  0.5034E+00  0.2065E+02
   1.579  0.5052E+00  0.2066E+02
   1.589  0.5071E+00  0.2066E+02
   1.599  0.5089E+00  0.2067E+02
   1.609  0.5108E+00  0.2067E+02
   1.619  0.5127E+00  0.2068E+02
   1.629  0.5145E+00  0.2068E+02
   1.639  0.5164E+00  0.2069E+02
   1.649  0.5182E+00  0.2069E+02
   1.659  0.5201E+00  0.2070E+02
   1.669  0.5220E+00  0.2071E+02
   1.679  0.5238E+00  0.2071E+02
   1.689  0.5257E+00  0.2072E+02
   1.699  0.5275E+00  0.2072E+02
   1.709  0.5294E+00  0.2073E+02
   1.719  0.5312E+00  0.2073E+02
   1.729  0.5330E+00  0.2074E+02
   1.739  0.5349E+00  0.2074E+02
   1.749  0.5367E+00  0.2075E+02
   1.759  0.5385E+00  0.2075E+02
   1.769  0.5403E+00  0.2076E+02
   1.779  0.5422E+00  0.2076E+02
   1.789  0.5440E+00  0.2077E+02
   1.799  0.5457E+00  0.2077E+02
   1.809  0.5475E+00  0.2078E+02
   1.819  0.5493E+00  0.2079E+02
   1.829  0.5511E+00  0.2079E+02
   1.839  0.5528E+00  0.2080E+02
   1.849  0.5546E+00  0.2080E+02
   1.859  0.5563E+00  0.2081E+02
   1.869  0.5580E+00  0.2081E+02
   1.879  0.5597E+00  0.2082E+02
   1.889  0.5614E+00  0.2082E+02
   1.899  0.5631E+00  0.2083E+02
   1.909  0.5648E+00  0.2084E+02
   1.919  0.5665E+00  0.2084E+02
   1.929  0.5682E+00  0.2085E+02
   1.939  0.5698E+00  0.2085E+02
   1.949  0.5715E+00  0.2086E+02
   1.959  0.5731E+00  0.2086E+02
   1.969  0.5747E+00  0.2087E+02
   1.979  0.5763E+00  0.2088E+02
   1.989  0.5779E+00  0.2088E+02
   1.999  0.5795E+00  0.2089E+02
   2.009  0.5811E+00  0.2089E+02
   2.019  0.5827E+00  0.2090E+02
   2.029  0.5843E+00  0.2091E+02
   2.039  0.5858E+00  0.2091E+02
   2.049  0.5874E+00  0.2092E+02
   2.059  0.5889E+00  0.2092E+02
   2.069  0.5905E+00  0.2093E+02
   2.079  0.5920E+00  0.2093E+02
   2.089  0.5935E+00  0.2094E+02
   2.099  0.5951E+00  0.2095E+02
   2.109  0.5966E+00  0.2095E+02
   2.119  0.5981E+00  0.2096E+02
   2.129  0.5997E+00  0.2096E+02
   2.139  0.6012E+00  0.2097E+02
   2.149  0.6027E+00  0.2098E+02
   2.159  0.6042E+00  0.2098E+02
   2.169  0.6058E+00  0.2099E+02
   2.179  0.6073E+00  0.2099E+02
   2.189  0.6089E+00  0.2100E+02
   2.199  0.6104E+00  0.2101E+02
   2.209  0.6119E+00  0.2101E+02
   2.219  0.6135E+00  0.2102E+02
   2.229  0.6151E+00  0.2103E+02
   2.239  0.6166E+00  0.2103E+02
   2.249  0.6182E+00  0.2104E+02
   2.259  0.6198E+00  0.2104E+02
   2.269  0.6214E+00  0.2105E+02
   2.279  0.6230E+00  0.2106E+02
   2.289  0.6247E+00  0.2106E+02
   2.299  0.6263E+00  0.2107E+02
   2.309  0.6279E+00  0.2107E+02
   2.319  0.6296E+00  0.2108E+02
   2.329  0.6313E+00  0.2109E+02
   2.339  0.6330E+00  0.2109E+02
   2.349  0.6347E+00  0.2110E+02
   2.359  0.6364E+00  0.2111E+02
   2.369  0.6382E+00  0.2111E+02
   2.379  0.6400E+00  0.2112E+02
   2.389  0.6418E+00  0.2113E+02
   2.399  0.6436E+00  0.2113E+02
   2.409  0.6454E+00  0.2114E+02
   2.419  0.6473E+00  0.2115E+02
   2.429  0.6491E+00  0.2115E+02
   2.439  0.6510E+00  0.2116E+02
   2.449  0.6529E+00  0.2116E+02
   2.459  0.6549E+00  0.2117E+02
   2.469  0.6568E+00  0.2118E+02
   2.479  0.6588E+00  0.2118E+02
   2.489  0.6608E+00  0.2119E+02
   2.499  0.6628E+00  0.2120E+02
   2.509  0.6649E+00  0.2120E+02
   2.519  0.6670E+00  0.2121E+02
   2.529  0.6691E+00  0.2122E+02
   2.539  0.6712E+00  0.2122E+02
   2.549  0.6733E+00  0.2123E+02
   2.559  0.6755E+00  0.2124E+02
   2.569  0.6776E+00  0.2124E+02
   2.579  0.6798E+00  0.2125E+02
   2.589  0.6821E+00  0.2126E+02
   2.599  0.6843E+00  0.2127E+02
   2.609  0.6866E+00  0.2127E+02
   2.619  0.6888E+00  0.2128E+02
   2.629  0.6911E+00  0.2129E+02
   2.639  0.6935E+00  0.2129E+02
   2.649  0.6958E+00  0.2130E+02
   2.659  0.6981E+00  0.2131E+02
   2.669  0.7005E+00  0.2131E+02
   2.679  0.7029E+00  0.2132E+02
   2.689  0.7053E+00  0.2133E+02
   2.699  0.7077E+00  0.2133E+02
   2.709  0.7101E+00  0.2134E+02
   2.719  0.7126E+00  0.2135E+02
   2.729  0.7150E+00  0.2136E+02
   2.739  0.7175E+00  0.2136E+02
   2.749  0.7199E+00  0.2137E+02
   2.759  0.7224E+00  0.2138E+02
   2.769  0.7249E+00  0.2138E+02
   2.779  0.7274E+00  0.2139E+02
   2.789  0.7299E+00  0.2140E+02
   2.799  0.7324E+00  0.2141E+02
   2.809  0.7349E+00  0.2141E+02
   2.819  0.7374E+00  0.2142E+02
   2.829  0.7399E+00  0.2143E+02
   2.839  0.7424E+00  0.2144E+02
   2.849  0.7449E+00  0.2144E+02
   2.859  0.7474E+00  0.2145E+02
   2.869  0.7499E+00  0.2146E+02
   2.879  0.7524E+00  0.2147E+02
   2.889  0.7549E+00  0.2147E+02
   2.899  0.7574E+00  0.2148E+02
   2.909  0.7598E+00  0.2149E+02
   2.919  0.7623E+00  0.2150E+02
   2.929  0.7648E+00  0.2150E+02
   2.939  0.7672E+00  0.2151E+02
   2.949  0.7696E+00  0.2152E+02
   2.959  0.7721E+00  0.2153E+02
   2.969  0.7745E+00  0.2154E+02
   2.979  0.7769E+00  0.2154E+02
   2.989  0.7793E+00  0.2155E+02
   2.999  0.7816E+00  0.2156E+02
   3.009  0.7840E+00  0.2157E+02
   3.019  0.7863E+00  0.2157E+02
   3.029  0.7886E+00  0.2158E+02
   3.039  0.7909E+00  0.2159E+02
   3.049  0.7932E+00  0.2160E+02
   3.059  0.7954E+00  0.2161E+02
   3.069  0.7977E+00  0.2161E+02
   3.079  0.7999E+00  0.2162E+02
   3.089  0.8020E+00  0.2163E+02
   3.099  0.8042E+00  0.2164E+02
   3.109  0.8063E+00  0.2165E+02
   3.119  0.8084E+00  0.2165E+02
   3.129  0.8105E+00  0.2166E+02
   3.139  0.8126E+00  0.2167E+02
   3.149  0.8146E+00  0.2168E+02
   3.159  0.8166E+00  0.2169E+02
   3.169  0.8186E+00  0.2169E+02
   3.179  0.8205E+00  0.2170E+02
   3.189  0.8224E+00  0.2171E+02
   3.199  0.8243E+00  0.2172E+02
   3.209  0.8262E+00  0.2173E+02
   3.219  0.8280E+00  0.2174E+02
   3.229  0.8298E+00  0.2174E+02
   3.239  0.8316E+00  0.2175E+02
   3.249  0.8333E+00  0.2176E+02
   3.259  0.8350E+00  0.2177E+02
   3.269  0.8367E+00  0.2178E+02
   3.279  0.8383E+00  0.2179E+02
   3.289  0.8399E+00  0.2179E+02
   3.299  0.8415E+00  0.2180E+02
   3.309  0.8430E+00  0.2181E+02
   3.319  0.8445E+00  0.2182E+02
   3.329  0.8460E+00  0.2183E+02
   3.339  0.8474E+00  0.2184E+02
   3.349  0.8488E+00  0.2185E+02
   3.359  0.8502E+00  0.2185E+02
   3.369  0.8515E+00  0.2186E+02
   3.379  0.8528E+00  0.2187E+02
   3.389  0.8541E+00  0.2188E+02
   3.399  0.8553E+00  0.2189E+02
   3.409  0.8565E+00  0.2190E+02
   3.419  0.8577E+00  0.2190E+02
   3.429  0.8588E+00  0.2191E+02
   3.439  0.8599E+00  0.2192E+02
   3.449  0.8609E+00  0.2193E+02
   3.459  0.8619E+00  0.2194E+02
   3.469  0.8629E+00  0.2195E+02
   3.479  0.8638E+00  0.2196E+02
   3.489  0.8647E+00  0.2197E+02
   3.499  0.8656E+00  0.2197E+02
   3.509  0.8664E+00  0.2198E+02
   3.519  0.8672E+00  0.2199E+02
   3.529  0.8679E+00  0.2200E+02
   3.539  0.8686E+00  0.2201E+02
   3.549  0.8693E+00  0.2202E+02
   3.559  0.8699E+00  0.2203E+02
   3.569  0.8705E+00  0.2203E+02
   3.579  0.8710E+00  0.2204E+02
   3.589  0.8715E+00  0.2205E+02
   3.599  0.8719E+00  0.2206E+02
   3.609  0.8723E+00  0.2207E+02
   3.619  0.8727E+00  0.2208E+02
   3.629  0.8730E+00  0.2209E+02
   3.639  0.8733E+00  0.2210E+02
   3.649  0.8735E+00  0.2210E+02
   3.659  0.8737E+00  0.2211E+02
   3.669  0.8738E+00  0.2212E+02
   3.679  0.8739E+00  0.2213E+02
   3.689  0.8739E+00  0.2214E+02
   3.699  0.8739E+00  0.2215E+02
   3.709  0.8738E+00  0.2216E+02
   3.719  0.8736E+00  0.2217E+02
   3.729  0.8735E+00  0.2217E+02
   3.739  0.8732E+00  0.2218E+02
   3.749  0.8729E+00  0.2219E+02
   3.759  0.8726E+00  0.2220E+02
   3.769  0.8722E+00  0.2221E+02
   3.779  0.8717E+00  0.2222E+02
   3.789  0.8712E+00  0.2223E+02
   3.799  0.8706E+00  0.2224E+02
   3.809  0.8700E+00  0.2224E+02
   3.819  0.8692E+00  0.2225E+02
   3.829  0.8685E+00  0.2226E+02
   3.839  0.8676E+00  0.2227E+02
   3.849  0.8667E+00  0.2228E+02
   3.859  0.8658E+00  0.2229E+02
   3.869  0.8648E+00  0.2230E+02
   3.879  0.8637E+00  0.2230E+02
   3.889  0.8625E+00  0.2231E+02
   3.899  0.8613E+00  0.2232E+02
   3.909  0.8600E+00  0.2233E+02
   3.919  0.8586E+00  0.2234E+02
   3.929  0.8572E+00  0.2235E+02
   3.939  0.8556E+00  0.2236E+02
   3.949  0.8541E+00  0.2236E+02
   3.959  0.8524E+00  0.2237E+02
   3.969  0.8507E+00  0.2238E+02
   3.979  0.8489E+00  0.2239E+02
   3.989  0.8470E+00  0.2240E+02
   3.999  0.8451E+00  0.2241E+02
   4.009  0.8430E+00  0.2242E+02
   4.019  0.8409E+00  0.2242E+02
   4.029  0.8388E+00  0.2243E+02
   4.039  0.8365E+00  0.2244E+02
   4.049  0.8342E+00  0.2245E+02
   4.059  0.8318E+00  0.2246E+02
   4.069  0.8294E+00  0.2247E+02
   4.079  0.8268E+00  0.2247E+02
   4.089  0.8242E+00  0.2248E+02
   4.099  0.8215E+00  0.2249E+02
   4.109  0.8188E+00  0.2250E+02
   4.119  0.8160E+00  0.2251E+02
   4.129  0.8131E+00  0.2252E+02
   4.139  0.8101E+00  0.2252E+02
   4.149  0.8071E+00  0.2253E+02
   4.159  0.8040E+00  0.2254E+02
   4.169  0.8008E+00  0.2255E+02
   4.179  0.7976E+00  0.2256E+02
   4.189  0.7943E+00  0.2256E+02
   4.199  0.7909E+00  0.2257E+02
   4.209  0.7875E+00  0.2258E+02
   4.219  0.7840E+00  0.2259E+02
   4.229  0.7805E+00  0.2259E+02
   4.239  0.7769E+00  0.2260E+02
   4.249  0.7733E+00  0.2261E+02
   4.259  0.7696E+00  0.2262E+02
   4.269  0.7659E+00  0.2263E+02
   4.279  0.7621E+00  0.2263E+02
   4.289  0.7582E+00  0.2264E+02
   4.299  0.7544E+00  0.2265E+02
   4.309  0.7505E+00  0.2266E+02
   4.319  0.7465E+00  0.2266E+02
   4.329  0.7426E+00  0.2267E+02
   4.339  0.7385E+00  0.2268E+02
   4.349  0.7345E+00  0.2269E+02
   4.359  0.7304E+00  0.2269E+02
   4.369  0.7264E+00  0.2270E+02
   4.379  0.7223E+00  0.2271E+02
   4.389  0.7181E+00  0.2271E+02
   4.399  0.7140E+00  0.2272E+02
   4.409  0.7099E+00  0.2273E+02
   4.419  0.7057E+00  0.2274E+02
   4.429  0.7016E+00  0.2274E+02
   4.439  0.6974E+00  0.2275E+02
   4.449  0.6933E+00  0.2276E+02
   4.459  0.6891E+00  0.2276E+02
   4.469  0.6850E+00  0.2277E+02
   4.479  0.6809E+00  0.2278E+02
   4.489  0.6768E+00  0.2278E+02
   4.499  0.6727E+00  0.2279E+02
   4.509  0.6687E+00  0.2280E+02
   4.519  0.6647E+00  0.2280E+02
   4.529  0.6607E+00  0.2281E+02
   4.539  0.6567E+00  0.2282E+02
   4.549  0.6528E+00  0.2282E+02
   4.559  0.6489E+00  0.2283E+02
   4.569  0.6451E+00  0.2284E+02
   4.579  0.6413E+00  0.2284E+02
   4.589  0.6375E+00  0.2285E+02
   4.599  0.6339E+00  0.2286E+02
   4.609  0.6302E+00  0.2286E+02
   4.619  0.6267E+00  0.2287E+02
   4.629  0.6232E+00  0.2287E+02
   4.639  0.6197E+00  0.2288E+02
   4.649  0.6163E+00  0.2289E+02
   4.659  0.6130E+00  0.2289E+02
   4.669  0.6098E+00  0.2290E+02
   4.679  0.6066E+00  0.2291E+02
   4.689  0.6036E+00  0.2291E+02
   4.699  0.6006E+00  0.2292E+02
   4.709  0.5976E+00  0.2292E+02
   4.719  0.5948E+00  0.2293E+02
   4.729  0.5921E+00  0.2294E+02
   4.739  0.5894E+00  0.2294E+02
   4.749  0.5868E+00  0.2295E+02
   4.759  0.5843E+00  0.2295E+02
   4.769  0.5819E+00  0.2296E+02
   4.779  0.5796E+00  0.2296E+02
   4.789  0.5774E+00  0.2297E+02
   4.799  0.5753E+00  0.2298E+02
   4.809  0.5733E+00  0.2298E+02
   4.819  0.5714E+00  0.2299E+02
   4.829  0.5695E+00  0.2299E+02
   4.839  0.5678E+00  0.2300E+02
   4.849  0.5662E+00  0.2300E+02
   4.859  0.5646E+00  0.2301E+02
   4.869  0.5632E+00  0.2302E+02
   4.879  0.5618E+00  0.2302E+02
   4.889  0.5605E+00  0.2303E+02
   4.899  0.5594E+00  0.2303E+02
   4.909  0.5583E+00  0.2304E+02
   4.919  0.5573E+00  0.2304E+02
   4.929  0.5564E+00  0.2305E+02
   4.939  0.5556E+00  0.2305E+02
   4.949  0.5549E+00  0.2306E+02
   4.959  0.5542E+00  0.2307E+02
   4.969  0.5536E+00  0.2307E+02
   4.979  0.5532E+00  0.2308E+02
   4.989  0.5528E+00  0.2308E+02
   4.999  0.5524E+00  0.2309E+02
   5.009  0.5522E+00  0.2309E+02
   5.019  0.5520E+00  0.2310E+02
   5.029  0.5519E+00  0.2310E+02
   5.039  0.5518E+00  0.2311E+02
   5.049  0.5519E+00  0.2312E+02
   5.059  0.5519E+00  0.2312E+02
   5.069  0.5521E+00  0.2313E+02
   5.079  0.5523E+00  0.2313E+02
   5.089  0.5525E+00  0.2314E+02
   5.099  0.5528E+00  0.2314E+02
   5.109  0.5531E+00  0.2315E+02
   5.119  0.5535E+00  0.2315E+02
   5.129  0.5539E+00  0.2316E+02
   5.139  0.5543E+00  0.2317E+02
   5.149  0.5548E+00  0.2317E+02
   5.159  0.5553E+00  0.2318E+02
   5.169  0.5558E+00  0.2318E+02
   5.179  0.5563E+00  0.2319E+02
   5.189  0.5569E+00  0.2319E+02
   5.199  0.5574E+00  0.2320E+02
   5.209  0.5580E+00  0.2320E+02
   5.219  0.5586E+00  0.2321E+02
   5.229  0.5591E+00  0.2322E+02
   5.239  0.5597E+00  0.2322E+02
   5.249  0.5603E+00  0.2323E+02
   5.259  0.5608E+00  0.2323E+02
   5.269  0.5614E+00  0.2324E+02
   5.279  0.5619E+00  0.2324E+02
   5.289  0.5624E+00  0.2325E+02
   5.299  0.5628E+00  0.2325E+02
   5.309  0.5633E+00  0.2326E+02
   5.319  0.5637E+00  0.2327E+02
   5.329  0.5641E+00  0.2327E+02
   5.339  0.5644E+00  0.2328E+02
   5.349  0.5647E+00  0.2328E+02
   5.359  0.5650E+00  0.2329E+02
   5.369  0.5652E+00  0.2329E+02
   5.379  0.5653E+00  0.2330E+02
   5.389  0.5654E+00  0.2331E+02
   5.399  0.5655E+00  0.2331E+02
   5.409  0.5655E+00  0.2332E+02
   5.419  0.5655E+00  0.2332E+02
   5.429  0.5653E+00  0.2333E+02
   5.439  0.5652E+00  0.2333E+02
   5.449  0.5649E+00  0.2334E+02
   5.459  0.5646E+00  0.2335E+02
   5.469  0.5643E+00  0.2335E+02
   5.479  0.5639E+00  0.2336E+02
   5.489  0.5634E+00  0.2336E+02
   5.499  0.5628E+00  0.2337E+02
   5.509  0.5622E+00  0.2337E+02
   5.519  0.5615E+00  0.2338E+02
   5.529  0.5607E+00  0.2338E+02
   5.539  0.5599E+00  0.2339E+02
   5.549  0.5589E+00  0.2340E+02
   5.559  0.5580E+00  0.2340E+02
   5.569  0.5569E+00  0.2341E+02
   5.579  0.5558E+00  0.2341E+02
   5.589  0.5546E+00  0.2342E+02
   5.599  0.5534E+00  0.2342E+02
   5.609  0.5521E+00  0.2343E+02
   5.619  0.5507E+00  0.2343E+02
   5.629  0.5493E+00  0.2344E+02
   5.639  0.5478E+00  0.2345E+02
   5.649  0.5462E+00  0.2345E+02
   5.659  0.5446E+00  0.2346E+02
   5.669  0.5430E+00  0.2346E+02
   5.679  0.5412E+00  0.2347E+02
   5.689  0.5395E+00  0.2347E+02
   5.699  0.5376E+00  0.2348E+02
   5.709  0.5358E+00  0.2348E+02
   5.719  0.5339E+00  0.2349E+02
   5.729  0.5319E+00  0.2349E+02
   5.739  0.5299E+00  0.2350E+02
   5.749  0.5279E+00  0.2350E+02
   5.759  0.5259E+00  0.2351E+02
   5.769  0.5238E+00  0.2352E+02
   5.779  0.5217E+00  0.2352E+02
   5.789  0.5195E+00  0.2353E+02
   5.799  0.5174E+00  0.2353E+02
   5.809  0.5152E+00  0.2354E+02
   5.819  0.5130E+00  0.2354E+02
   5.829  0.5109E+00  0.2355E+02
   5.839  0.5087E+00  0.2355E+02
   5.849  0.5065E+00  0.2356E+02
   5.859  0.5043E+00  0.2356E+02
   5.869  0.5021E+00  0.2357E+02
   5.879  0.4999E+00  0.2357E+02
   5.889  0.4978E+00  0.2358E+02
   5.899  0.4956E+00  0.2358E+02
   5.909  0.4935E+00  0.2359E+02
   5.919  0.4914E+00  0.2359E+02
   5.929  0.4894E+00  0.2360E+02
   5.939  0.4873E+00  0.2360E+02
   5.949  0.4853E+00  0.2361E+02
   5.959  0.4834E+00  0.2361E+02
   5.969  0.4814E+00  0.2362E+02
   5.979  0.4796E+00  0.2362E+02
   5.989  0.4778E+00  0.2362E+02
   5.999  0.4760E+00  0.2363E+02
   6.009  0.4743E+00  0.2363E+02
   6.019  0.4726E+00  0.2364E+02
   6.029  0.4710E+00  0.2364E+02
   6.039  0.4695E+00  0.2365E+02
   6.049  0.4681E+00  0.2365E+02
   6.059  0.4667E+00  0.2366E+02
   6.069  0.4654E+00  0.2366E+02
   6.079  0.4641E+00  0.2367E+02
   6.089  0.4630E+00  0.2367E+02
   6.099  0.4619E+00  0.2368E+02
   6.109  0.4609E+00  0.2368E+02
   6.119  0.4600E+00  0.2369E+02
   6.129  0.4592E+00  0.2369E+02
   6.139  0.4585E+00  0.2369E+02
   6.149  0.4579E+00  0.2370E+02
   6.159  0.4574E+00  0.2370E+02
   6.169  0.4570E+00  0.2371E+02
   6.179  0.4566E+00  0.2371E+02
   6.189  0.4564E+00  0.2372E+02
   6.199  0.4563E+00  0.2372E+02
   6.209  0.4562E+00  0.2373E+02
   6.219  0.4563E+00  0.2373E+02
   6.229  0.4565E+00  0.2374E+02
   6.239  0.4568E+00  0.2374E+02
   6.249  0.4572E+00  0.2375E+02
   6.259  0.4577E+00  0.2375E+02
   6.269  0.4583E+00  0.2375E+02
   6.279  0.4590E+00  0.2376E+02
   6.289  0.4598E+00  0.2376E+02
   6.299  0.4608E+00  0.2377E+02
   6.309  0.4618E+00  0.2377E+02
   6.319  0.4630E+00  0.2378E+02
   6.329  0.4642E+00  0.2378E+02
   6.339  0.4656E+00  0.2379E+02
   6.349  0.4670E+00  0.2379E+02
   6.359  0.4686E+00  0.2380E+02
   6.369  0.4703E+00  0.2380E+02
   6.379  0.4720E+00  0.2381E+02
   6.389  0.4739E+00  0.2381E+02
   6.399  0.4759E+00  0.2381E+02
   6.409  0.4780E+00  0.2382E+02
   6.419  0.4801E+00  0.2382E+02
   6.429  0.4824E+00  0.2383E+02
   6.439  0.4848E+00  0.2383E+02
   6.449  0.4872E+00  0.2384E+02
   6.459  0.4898E+00  0.2384E+02
   6.469  0.4924E+00  0.2385E+02
   6.479  0.4951E+00  0.2385E+02
   6.489  0.4979E+00  0.2386E+02
   6.499  0.5008E+00  0.2386E+02
   6.509  0.5038E+00  0.2387E+02
   6.519  0.5068E+00  0.2387E+02
   6.529  0.5099E+00  0.2388E+02
   6.539  0.5131E+00  0.2388E+02
   6.549  0.5164E+00  0.2389E+02
   6.559  0.5197E+00  0.2389E+02
   6.569  0.5231E+00  0.2390E+02
   6.579  0.5266E+00  0.2390E+02
   6.589  0.5301E+00  0.2391E+02
   6.599  0.5337E+00  0.2392E+02
   6.609  0.5373E+00  0.2392E+02
   6.619  0.5410E+00  0.2393E+02
   6.629  0.5448E+00  0.2393E+02
   6.639  0.5485E+00  0.2394E+02
   6.649  0.5524E+00  0.2394E+02
   6.659  0.5562E+00  0.2395E+02
   6.669  0.5602E+00  0.2395E+02
   6.679  0.5641E+00  0.2396E+02
   6.689  0.5681E+00  0.2397E+02
   6.699  0.5721E+00  0.2397E+02
   6.709  0.5761E+00  0.2398E+02
   6.719  0.5802E+00  0.2398E+02
   6.729  0.5843E+00  0.2399E+02
   6.739  0.5884E+00  0.2399E+02
   6.749  0.5925E+00  0.2400E+02
   6.759  0.5966E+00  0.2401E+02
   6.769  0.6008E+00  0.2401E+02
   6.779  0.6049E+00  0.2402E+02
   6.789  0.6091E+00  0.2402E+02
   6.799  0.6133E+00  0.2403E+02
   6.809  0.6174E+00  0.2404E+02
   6.819  0.6216E+00  0.2404E+02
   6.829  0.6258E+00  0.2405E+02
   6.839  0.6300E+00  0.2406E+02
   6.849  0.6341E+00  0.2406E+02
   6.859  0.6383E+00  0.2407E+02
   6.869  0.6424E+00  0.2407E+02
   6.879  0.6465E+00  0.2408E+02
   6.889  0.6507E+00  0.2409E+02
   6.899  0.6548E+00  0.2409E+02
   6.909  0.6589E+00  0.2410E+02
   6.919  0.6629E+00  0.2411E+02
   6.929  0.6670E+00  0.2411E+02
   6.939  0.6710E+00  0.2412E+02
   6.949  0.6750E+00  0.2413E+02
   6.959  0.6790E+00  0.2413E+02
   6.969  0.6829E+00  0.2414E+02
   6.979  0.6869E+00  0.2415E+02
   6.989  0.6908E+00  0.2415E+02
   6.999  0.6947E+00  0.2416E+02
   7.009  0.6985E+00  0.2417E+02
   7.019  0.7023E+00  0.2418E+02
   7.029  0.7061E+00  0.2418E+02
   7.039  0.7099E+00  0.2419E+02
   7.049  0.7136E+00  0.2420E+02
   7.059  0.7173E+00  0.2420E+02
   7.069  0.7210E+00  0.2421E+02
   7.079  0.7246E+00  0.2422E+02
   7.089  0.7282E+00  0.2423E+02
   7.099  0.7318E+00  0.2423E+02
   7.109  0.7353E+00  0.2424E+02
   7.119  0.7388E+00  0.2425E+02
   7.129  0.7423E+00  0.2426E+02
   7.139  0.7457E+00  0.2426E+02
   7.149  0.7491E+00  0.2427E+02
   7.159  0.7525E+00  0.2428E+02
   7.169  0.7559E+00  0.2429E+02
   7.179  0.7592E+00  0.2429E+02
   7.189  0.7625E+00  0.2430E+02
   7.199  0.7657E+00  0.2431E+02
   7.209  0.7689E+00  0.2432E+02
   7.219  0.7721E+00  0.2432E+02
   7.229  0.7753E+00  0.2433E+02
   7.239  0.7784E+00  0.2434E+02
   7.249  0.7816E+00  0.2435E+02
   7.259  0.7846E+00  0.2435E+02
   7.269  0.7877E+00  0.2436E+02
   7.279  0.7907E+00  0.2437E+02
   7.289  0.7937E+00  0.2438E+02
   7.299  0.7967E+00  0.2439E+02
   7.309  0.7996E+00  0.2439E+02
   7.319  0.8026E+00  0.2440E+02
   7.329  0.8055E+00  0.2441E+02
   7.339  0.8083E+00  0.2442E+02
   7.349  0.8112E+00  0.2443E+02
   7.359  0.8140E+00  0.2444E+02
   7.369  0.8168E+00  0.2444E+02
   7.379  0.8196E+00  0.2445E+02
   7.389  0.8223E+00  0.2446E+02
   7.399  0.8251E+00  0.2447E+02
   7.409  0.8278E+00  0.2448E+02
   7.419  0.8305E+00  0.2448E+02
   7.429  0.8331E+00  0.2449E+02
   7.439  0.8358E+00  0.2450E+02
   7.449  0.8384E+00  0.2451E+02
   7.459  0.8410E+00  0.2452E+02
   7.469  0.8436E+00  0.2453E+02
   7.479  0.8461E+00  0.2453E+02
   7.489  0.8487E+00  0.2454E+02
   7.499  0.8512E+00  0.2455E+02
   7.509  0.8536E+00  0.2456E+02
   7.519  0.8561E+00  0.2457E+02
   7.529  0.8585E+00  0.2458E+02
   7.539  0.8610E+00  0.2459E+02
   7.549  0.8633E+00  0.2459E+02
   7.559  0.8657E+00  0.2460E+02
   7.569  0.8680E+00  0.2461E+02
   7.579  0.8703E+00  0.2462E+02
   7.589  0.8726E+00  0.2463E+02
   7.599  0.8749E+00  0.2464E+02
   7.609  0.8771E+00  0.2465E+02
   7.619  0.8793E+00  0.2466E+02
   7.629  0.8815E+00  0.2466E+02
   7.639  0.8836E+00  0.2467E+02
   7.649  0.8857E+00  0.2468E+02
   7.659  0.8878E+00  0.2469E+02
   7.669  0.8898E+00  0.2470E+02
   7.679  0.8918E+00  0.2471E+02
   7.689  0.8938E+00  0.2472E+02
   7.699  0.8957E+00  0.2473E+02
   7.709  0.8976E+00  0.2474E+02
   7.719  0.8995E+00  0.2474E+02
   7.729  0.9013E+00  0.2475E+02
   7.739  0.9031E+00  0.2476E+02
   7.749  0.9048E+00  0.2477E+02
   7.759  0.9065E+00  0.2478E+02
   7.769  0.9082E+00  0.2479E+02
   7.779  0.9098E+00  0.2480E+02
   7.789  0.9114E+00  0.2481E+02
   7.799  0.9129E+00  0.2482E+02
   7.809  0.9144E+00  0.2483E+02
   7.819  0.9158E+00  0.2484E+02
   7.829  0.9172E+00  0.2484E+02
   7.839  0.9186E+00  0.2485E+02
   7.849  0.9199E+00  0.2486E+02
   7.859  0.9212E+00  0.2487E+02
   7.869  0.9224E+00  0.2488E+02
   7.879  0.9236E+00  0.2489E+02
   7.889  0.9247E+00  0.2490E+02
   7.899  0.9258E+00  0.2491E+02
   7.909  0.9268E+00  0.2492E+02
   7.919  0.9278E+00  0.2493E+02
   7.929  0.9287E+00  0.2494E+02
   7.939  0.9296E+00  0.2495E+02
   7.949  0.9305E+00  0.2496E+02
   7.959  0.9313E+00  0.2497E+02
   7.969  0.9321E+00  0.2497E+02
   7.979  0.9328E+00  0.2498E+02
   7.989  0.9335E+00  0.2499E+02
   7.999  0.9342E+00  0.2500E+02
   8.009  0.9348E+00  0.2501E+02
   8.019  0.9353E+00  0.2502E+02
   8.029  0.9359E+00  0.2503E+02
   8.039  0.9364E+00  0.2504E+02
   8.049  0.9368E+00  0.2505E+02
   8.059  0.9373E+00  0.2506E+02
   8.069  0.9377E+00  0.2507E+02
   8.079  0.9380E+00  0.2508E+02
   8.089  0.9384E+00  0.2509E+02
   8.099  0.9387E+00  0.2510E+02
   8.109  0.9390E+00  0.2511E+02
   8.119  0.9393E+00  0.2512E+02
   8.129  0.9395E+00  0.2512E+02
   8.139  0.9398E+00  0.2513E+02
   8.149  0.9400E+00  0.2514E+02
   8.159  0.9402E+00  0.2515E+02
   8.169  0.9404E+00  0.2516E+02
   8.179  0.9406E+00  0.2517E+02
   8.189  0.9408E+00  0.2518E+02
   8.199  0.9410E+00  0.2519E+02
   8.209  0.9412E+00  0.2520E+02
   8.219  0.9414E+00  0.2521E+02
   8.229  0.9415E+00  0.2522E+02
   8.239  0.9417E+00  0.2523E+02
   8.249  0.9420E+00  0.2524E+02
   8.259  0.9422E+00  0.2525E+02
   8.269  0.9424E+00  0.2526E+02
   8.279  0.9427E+00  0.2527E+02
   8.289  0.9429E+00  0.2528E+02
   8.299  0.9432E+00  0.2528E+02
   8.309  0.9436E+00  0.2529E+02
   8.319  0.9439E+00  0.2530E+02
   8.329  0.9443E+00  0.2531E+02
   8.339  0.9447E+00  0.2532E+02
   8.349  0.9452E+00  0.2533E+02
   8.359  0.9457E+00  0.2534E+02
   8.369  0.9462E+00  0.2535E+02
   8.379  0.9468E+00  0.2536E+02
   8.389  0.9474E+00  0.2537E+02
   8.399  0.9481E+00  0.2538E+02
   8.409  0.9488E+00  0.2539E+02
   8.419  0.9495E+00  0.2540E+02
   8.429  0.9504E+00  0.2541E+02
   8.439  0.9512E+00  0.2542E+02
   8.449  0.9522E+00  0.2543E+02
   8.459  0.9531E+00  0.2544E+02
   8.469  0.9542E+00  0.2545E+02
   8.479  0.9553E+00  0.2546E+02
   8.489  0.9565E+00  0.2546E+02
   8.499  0.9577E+00  0.2547E+02
   8.509  0.9590E+00  0.2548E+02
   8.519  0.9604E+00  0.2549E+02
   8.529  0.9618E+00  0.2550E+02
   8.539  0.9633E+00  0.2551E+02
   8.549  0.9648E+00  0.2552E+02
   8.559  0.9665E+00  0.2553E+02
   8.569  0.9682E+00  0.2554E+02
   8.579  0.9700E+00  0.2555E+02
   8.589  0.9718E+00  0.2556E+02
   8.599  0.9737E+00  0.2557E+02
   8.609  0.9757E+00  0.2558E+02
   8.619  0.9777E+00  0.2559E+02
   8.629  0.9798E+00  0.2560E+02
   8.639  0.9820E+00  0.2561E+02
   8.649  0.9843E+00  0.2562E+02
   8.659  0.9866E+00  0.2563E+02
   8.669  0.9890E+00  0.2564E+02
   8.679  0.9914E+00  0.2565E+02
   8.689  0.9939E+00  0.2566E+02
   8.699  0.9965E+00  0.2567E+02
   8.709  0.9992E+00  0.2568E+02
   8.719  0.1002E+01  0.2569E+02
   8.729  0.1005E+01  0.2570E+02
   8.739  0.1007E+01  0.2571E+02
   8.749  0.1010E+01  0.2572E+02
   8.759  0.1013E+01  0.2573E+02
   8.769  0.1016E+01  0.2574E+02
   8.779  0.1019E+01  0.2575E+02
   8.789  0.1022E+01  0.2576E+02
   8.799  0.1025E+01  0.2577E+02
   8.809  0.1029E+01  0.2578E+02
   8.819  0.1032E+01  0.2579E+02
   8.829  0.1035E+01  0.2580E+02
   8.839  0.1038E+01  0.2581E+02
   8.849  0.1042E+01  0.2582E+02
   8.859  0.1045E+01  0.2583E+02
   8.869  0.1048E+01  0.2584E+02
   8.879  0.1052E+01  0.2585E+02
   8.889  0.1055E+01  0.2586E+02
   8.899  0.1059E+01  0.2588E+02
   8.909  0.1062E+01  0.2589E+02
   8.919  0.1066E+01  0.2590E+02
   8.929  0.1069E+01  0.2591E+02
   8.939  0.1073E+01  0.2592E+02
   8.949  0.1076E+01  0.2593E+02
   8.959  0.1080E+01  0.2594E+02
   8.969  0.1083E+01  0.2595E+02
   8.979  0.1087E+01  0.2596E+02
   8.989  0.1090E+01  0.2597E+02
   8.999  0.1094E+01  0.2598E+02
   9.009  0.1098E+01  0.2599E+02
   9.019  0.1101E+01  0.2600E+02
   9.029  0.1105E+01  0.2602E+02
   9.039  0.1108E+01  0.2603E+02
   9.049  0.1112E+01  0.2604E+02
   9.059  0.1115E+01  0.2605E+02
   9.069  0.1118E+01  0.2606E+02
   9.079  0.1122E+01  0.2607E+02
   9.089  0.1125E+01  0.2608E+02
   9.099  0.1129E+01  0.2609E+02
   9.109  0.1132E+01  0.2611E+02
   9.119  0.1135E+01  0.2612E+02
   9.129  0.1138E+01  0.2613E+02
   9.139  0.1142E+01  0.2614E+02
   9.149  0.1145E+01  0.2615E+02
   9.159  0.1148E+01  0.2616E+02
   9.169  0.1151E+01  0.2617E+02
   9.179  0.1154E+01  0.2619E+02
   9.189  0.1157E+01  0.2620E+02
   9.199  0.1160E+01  0.2621E+02
   9.209  0.1162E+01  0.2622E+02
   9.219  0.1165E+01  0.2623E+02
   9.229  0.1168E+01  0.2624E+02
   9.239  0.1170E+01  0.2626E+02
   9.249  0.1173E+01  0.2627E+02
   9.259  0.1176E+01  0.2628E+02
   9.269  0.1178E+01  0.2629E+02
   9.279  0.1180E+01  0.2630E+02
   9.289  0.1183E+01  0.2631E+02
   9.299  0.1185E+01  0.2633E+02
   9.309  0.1187E+01  0.2634E+02
   9.319  0.1189E+01  0.2635E+02
   9.329  0.1191E+01  0.2636E+02
   9.339  0.1193E+01  0.2637E+02
   9.349  0.1195E+01  0.2639E+02
   9.359  0.1196E+01  0.2640E+02
   9.369  0.1198E+01  0.2641E+02
   9.379  0.1199E+01  0.2642E+02
   9.389  0.1201E+01  0.2643E+02
   9.399  0.1202E+01  0.2645E+02
   9.409  0.1204E+01  0.2646E+02
   9.419  0.1205E+01  0.2647E+02
   9.429  0.1206E+01  0.2648E+02
   9.439  0.1207E+01  0.2649E+02
   9.449  0.1208E+01  0.2651E+02
   9.459  0.1209E+01  0.2652E+02
   9.469  0.1209E+01  0.2653E+02
   9.479  0.1210E+01  0.2654E+02
   9.489  0.1211E+01  0.2655E+02
   9.499  0.1211E+01  0.2657E+02
   9.509  0.1211E+01  0.2658E+02
   9.519  0.1212E+01  0.2659E+02
   9.529  0.1212E+01  0.2660E+02
   9.539  0.1212E+01  0.2661E+02
   9.549  0.1212E+01  0.2663E+02
   9.559  0.1212E+01  0.2664E+02
   9.569  0.1212E+01  0.2665E+02
   9.579  0.1211E+01  0.2666E+02
   9.589  0.1211E+01  0.2668E+02
   9.599  0.1211E+01  0.2669E+02
   9.609  0.1210E+01  0.2670E+02
   9.619  0.1210E+01  0.2671E+02
   9.629  0.1209E+01  0.2672E+02
   9.639  0.1208E+01  0.2674E+02
   9.649  0.1207E+01  0.2675E+02
   9.659  0.1206E+01  0.2676E+02
   9.669  0.1205E+01  0.2677E+02
   9.679  0.1204E+01  0.2678E+02
   9.689  0.1203E+01  0.2680E+02
   9.699  0.1202E+01  0.2681E+02
   9.709  0.1201E+01  0.2682E+02
   9.719  0.1199E+01  0.2683E+02
   9.729  0.1198E+01  0.2684E+02
   9.739  0.1196E+01  0.2686E+02
   9.749  0.1195E+01  0.2687E+02
   9.759  0.1193E+01  0.2688E+02
   9.769  0.1191E+01  0.2689E+02
   9.779  0.1190E+01  0.2690E+02
   9.789  0.1188E+01  0.2692E+02
   9.799  0.1186E+01  0.2693E+02
   9.809  0.1184E+01  0.2694E+02
   9.819  0.1182E+01  0.2695E+02
   9.829  0.1180E+01  0.2696E+02
   9.839  0.1178E+01  0.2697E+02
   9.849  0.1176E+01  0.2699E+02
   9.859  0.1174E+01  0.2700E+02
   9.869  0.1172E+01  0.2701E+02
   9.879  0.1170E+01  0.2702E+02
   9.889  0.1168E+01  0.2703E+02
   9.899  0.1166E+01  0.2705E+02
   9.909  0.1163E+01  0.2706E+02
   9.919  0.1161E+01  0.2707E+02
   9.929  0.1159E+01  0.2708E+02
   9.939  0.1157E+01  0.2709E+02
   9.949  0.1154E+01  0.2710E+02
   9.959  0.1152E+01  0.2711E+02
   9.969  0.1150E+01  0.2713E+02
   9.979  0.1147E+01  0.2714E+02
   9.989  0.1145E+01  0.2715E+02
   9.999  0.1143E+01  0.2716E+02
  10.009  0.1140E+01  0.2717E+02
  10.019  0.1138E+01  0.2718E+02
  10.029  0.1136E+01  0.2719E+02
  10.039  0.1134E+01  0.2721E+02
  10.049  0.1131E+01  0.2722E+02
  10.059  0.1129E+01  0.2723E+02
  10.069  0.1127E+01  0.2724E+02
  10.079  0.1124E+01  0.2725E+02
  10.089  0.1122E+01  0.2726E+02
  10.099  0.1120E+01  0.2727E+02
  10.109  0.1118E+01  0.2728E+02
  10.119  0.1116E+01  0.2730E+02
  10.129  0.1114E+01  0.2731E+02
  10.139  0.1111E+01  0.2732E+02
  10.149  0.1109E+01  0.2733E+02
  10.159  0.1107E+01  0.2734E+02
  10.169  0.1105E+01  0.2735E+02
  10.179  0.1103E+01  0.2736E+02
  10.189  0.1101E+01  0.2737E+02
  10.199  0.1099E+01  0.2738E+02
  10.209  0.1097E+01  0.2740E+02
  10.219  0.1095E+01  0.2741E+02
  10.229  0.1093E+01  0.2742E+02
  10.239  0.1092E+01  0.2743E+02
  10.249  0.1090E+01  0.2744E+02
  10.259  0.1088E+01  0.2745E+02
  10.269  0.1086E+01  0.2746E+02
  10.279  0.1085E+01  0.2747E+02
  10.289  0.1083E+01  0.2748E+02
  10.299  0.1081E+01  0.2749E+02
  10.309  0.1080E+01  0.2750E+02
  10.319  0.1078E+01  0.2751E+02
  10.329  0.1076E+01  0.2753E+02
  10.339  0.1075E+01  0.2754E+02
  10.349  0.1073E+01  0.2755E+02
  10.359  0.1072E+01  0.2756E+02
  10.369  0.1070E+01  0.2757E+02
  10.379  0.1069E+01  0.2758E+02
  10.389  0.1067E+01  0.2759E+02
  10.399  0.1066E+01  0.2760E+02
  10.409  0.1065E+01  0.2761E+02
  10.419  0.1063E+01  0.2762E+02
  10.429  0.1062E+01  0.2763E+02
  10.439  0.1061E+01  0.2764E+02
  10.449  0.1059E+01  0.2765E+02
  10.459  0.1058E+01  0.2766E+02
  10.469  0.1057E+01  0.2767E+02
  10.479  0.1055E+01  0.2769E+02
  10.489  0.1054E+01  0.2770E+02
  10.499  0.1053E+01  0.2771E+02
  10.509  0.1051E+01  0.2772E+02
  10.519  0.1050E+01  0.2773E+02
  10.529  0.1049E+01  0.2774E+02
  10.539  0.1048E+01  0.2775E+02
  10.549  0.1046E+01  0.2776E+02
  10.559  0.1045E+01  0.2777E+02
  10.569  0.1044E+01  0.2778E+02
  10.579  0.1042E+01  0.2779E+02
  10.589  0.1041E+01  0.2780E+02
  10.599  0.1040E+01  0.2781E+02
  10.609  0.1038E+01  0.2782E+02
  10.619  0.1037E+01  0.2783E+02
  10.629  0.1036E+01  0.2784E+02
  10.639  0.1034E+01  0.2785E+02
  10.649  0.1033E+01  0.2786E+02
  10.659  0.1031E+01  0.2787E+02
  10.669  0.1030E+01  0.2788E+02
  10.679  0.1028E+01  0.2789E+02
  10.689  0.1027E+01  0.2790E+02
  10.699  0.1025E+01  0.2791E+02
  10.709  0.1024E+01  0.2792E+02
  10.719  0.1022E+01  0.2793E+02
  10.729  0.1021E+01  0.2794E+02
  10.739  0.1019E+01  0.2796E+02
  10.749  0.1017E+01  0.2797E+02
  10.759  0.1016E+01  0.2798E+02
  10.769  0.1014E+01  0.2799E+02
  10.779  0.1012E+01  0.2800E+02
  10.789  0.1010E+01  0.2801E+02
  10.799  0.1009E+01  0.2802E+02
  10.809  0.1007E+01  0.2803E+02
  10.819  0.1005E+01  0.2804E+02
  10.829  0.1003E+01  0.2805E+02
  10.839  0.1001E+01  0.2806E+02
  10.849  0.9989E+00  0.2807E+02
  10.859  0.9969E+00  0.2808E+02
  10.869  0.9949E+00  0.2809E+02
  10.879  0.9928E+00  0.2810E+02
  10.889  0.9907E+00  0.2811E+02
  10.899  0.9886E+00  0.2812E+02
  10.909  0.9864E+00  0.2813E+02
  10.919  0.9843E+00  0.2814E+02
  10.929  0.9821E+00  0.2815E+02
  10.939  0.9798E+00  0.2815E+02
  10.949  0.9776E+00  0.2816E+02
  10.959  0.9753E+00  0.2817E+02
  10.969  0.9731E+00  0.2818E+02
  10.979  0.9708E+00  0.2819E+02
  10.989  0.9684E+00  0.2820E+02
  10.999  0.9661E+00  0.2821E+02
  11.009  0.9638E+00  0.2822E+02
  11.019  0.9614E+00  0.2823E+02
  11.029  0.9591E+00  0.2824E+02
  11.039  0.9567E+00  0.2825E+02
  11.049  0.9543E+00  0.2826E+02
  11.059  0.9520E+00  0.2827E+02
  11.069  0.9496E+00  0.2828E+02
  11.079  0.9472E+00  0.2829E+02
  11.089  0.9448E+00  0.2830E+02
  11.099  0.9425E+00  0.2831E+02
  11.109  0.9401E+00  0.2832E+02
  11.119  0.9378E+00  0.2833E+02
  11.129  0.9354E+00  0.2834E+02
  11.139  0.9331E+00  0.2835E+02
  11.149  0.9308E+00  0.2836E+02
  11.159  0.9285E+00  0.2836E+02
  11.169  0.9263E+00  0.2837E+02
  11.179  0.9241E+00  0.2838E+02
  11.189  0.9218E+00  0.2839E+02
  11.199  0.9197E+00  0.2840E+02
  11.209  0.9175E+00  0.2841E+02
  11.219  0.9154E+00  0.2842E+02
  11.229  0.9133E+00  0.2843E+02
  11.239  0.9113E+00  0.2844E+02
  11.249  0.9092E+00  0.2845E+02
  11.259  0.9073E+00  0.2846E+02
  11.269  0.9054E+00  0.2847E+02
  11.279  0.9035E+00  0.2847E+02
  11.289  0.9016E+00  0.2848E+02
  11.299  0.8999E+00  0.2849E+02
  11.309  0.8981E+00  0.2850E+02
  11.319  0.8964E+00  0.2851E+02
  11.329  0.8948E+00  0.2852E+02
  11.339  0.8932E+00  0.2853E+02
  11.349  0.8917E+00  0.2854E+02
  11.359  0.8903E+00  0.2855E+02
  11.369  0.8889E+00  0.2855E+02
  11.379  0.8875E+00  0.2856E+02
  11.389  0.8863E+00  0.2857E+02
  11.399  0.8851E+00  0.2858E+02
  11.409  0.8839E+00  0.2859E+02
  11.419  0.8829E+00  0.2860E+02
  11.429  0.8818E+00  0.2861E+02
  11.439  0.8809E+00  0.2862E+02
  11.449  0.8800E+00  0.2863E+02
  11.459  0.8792E+00  0.2863E+02
  11.469  0.8785E+00  0.2864E+02
  11.479  0.8778E+00  0.2865E+02
  11.489  0.8773E+00  0.2866E+02
  11.499  0.8767E+00  0.2867E+02
  11.509  0.8763E+00  0.2868E+02
  11.519  0.8759E+00  0.2869E+02
  11.529  0.8756E+00  0.2870E+02
  11.539  0.8754E+00  0.2870E+02
  11.549  0.8753E+00  0.2871E+02
  11.559  0.8752E+00  0.2872E+02
  11.569  0.8752E+00  0.2873E+02
  11.579  0.8753E+00  0.2874E+02
  11.589  0.8754E+00  0.2875E+02
  11.599  0.8756E+00  0.2876E+02
  11.609  0.8759E+00  0.2877E+02
  11.619  0.8763E+00  0.2877E+02
  11.629  0.8767E+00  0.2878E+02
  11.639  0.8772E+00  0.2879E+02
  11.649  0.8778E+00  0.2880E+02
  11.659  0.8784E+00  0.2881E+02
  11.669  0.8791E+00  0.2882E+02
  11.679  0.8799E+00  0.2883E+02
  11.689  0.8808E+00  0.2884E+02
  11.699  0.8817E+00  0.2884E+02
  11.709  0.8827E+00  0.2885E+02
  11.719  0.8837E+00  0.2886E+02
  11.729  0.8848E+00  0.2887E+02
  11.739  0.8860E+00  0.2888E+02
  11.749  0.8872E+00  0.2889E+02
  11.759  0.8885E+00  0.2890E+02
  11.769  0.8899E+00  0.2891E+02
  11.779  0.8913E+00  0.2892E+02
  11.789  0.8928E+00  0.2892E+02
  11.799  0.8943E+00  0.2893E+02
  11.809  0.8959E+00  0.2894E+02
  11.819  0.8975E+00  0.2895E+02
  11.829  0.8992E+00  0.2896E+02
  11.839  0.9010E+00  0.2897E+02
  11.849  0.9027E+00  0.2898E+02
  11.859  0.9046E+00  0.2899E+02
  11.869  0.9065E+00  0.2900E+02
  11.879  0.9084E+00  0.2901E+02
  11.889  0.9103E+00  0.2901E+02
  11.899  0.9124E+00  0.2902E+02
  11.909  0.9144E+00  0.2903E+02
  11.919  0.9165E+00  0.2904E+02
  11.929  0.9186E+00  0.2905E+02
  11.939  0.9208E+00  0.2906E+02
  11.949  0.9230E+00  0.2907E+02
  11.959  0.9252E+00  0.2908E+02
  11.969  0.9274E+00  0.2909E+02
  11.979  0.9297E+00  0.2910E+02
  11.989  0.9320E+00  0.2911E+02
  11.999  0.9344E+00  0.2912E+02
  12.009  0.9367E+00  0.2913E+02
  12.019  0.9391E+00  0.2914E+02
  12.029  0.9415E+00  0.2914E+02
  12.039  0.9439E+00  0.2915E+02
  12.049  0.9464E+00  0.2916E+02
  12.059  0.9488E+00  0.2917E+02
  12.069  0.9513E+00  0.2918E+02
  12.079  0.9538E+00  0.2919E+02
  12.089  0.9563E+00  0.2920E+02
  12.099  0.9588E+00  0.2921E+02
  12.109  0.9613E+00  0.2922E+02
  12.119  0.9638E+00  0.2923E+02
  12.129  0.9663E+00  0.2924E+02
  12.139  0.9688E+00  0.2925E+02
  12.149  0.9713E+00  0.2926E+02
  12.159  0.9739E+00  0.2927E+02
  12.169  0.9764E+00  0.2928E+02
  12.179  0.9789E+00  0.2929E+02
  12.189  0.9814E+00  0.2930E+02
  12.199  0.9839E+00  0.2931E+02
  12.209  0.9864E+00  0.2932E+02
  12.219  0.9889E+00  0.2933E+02
  12.229  0.9914E+00  0.2934E+02
  12.239  0.9939E+00  0.2935E+02
  12.249  0.9963E+00  0.2936E+02
  12.259  0.9988E+00  0.2937E+02
  12.269  0.1001E+01  0.2938E+02
  12.279  0.1004E+01  0.2939E+02
  12.289  0.1006E+01  0.2940E+02
  12.299  0.1008E+01  0.2941E+02
  12.309  0.1011E+01  0.2942E+02
  12.319  0.1013E+01  0.2943E+02
  12.329  0.1015E+01  0.2944E+02
  12.339  0.1018E+01  0.2945E+02
  12.349  0.1020E+01  0.2946E+02
  12.359  0.1022E+01  0.2947E+02
  12.369  0.1024E+01  0.2948E+02
  12.379  0.1026E+01  0.2949E+02
  12.389  0.1029E+01  0.2950E+02
  12.399  0.1031E+01  0.2951E+02
  12.409  0.1033E+01  0.2952E+02
  12.419  0.1035E+01  0.2953E+02
  12.429  0.1037E+01  0.2954E+02
  12.439  0.1039E+01  0.2955E+02
  12.449  0.1041E+01  0.2956E+02
  12.459  0.1043E+01  0.2957E+02
  12.469  0.1045E+01  0.2958E+02
  12.479  0.1046E+01  0.2959E+02
  12.489  0.1048E+01  0.2960E+02
  12.499  0.1050E+01  0.2961E+02
  12.509  0.1052E+01  0.2963E+02
  12.519  0.1053E+01  0.2964E+02
  12.529  0.1055E+01  0.2965E+02
  12.539  0.1057E+01  0.2966E+02
  12.549  0.1058E+01  0.2967E+02
  12.559  0.1060E+01  0.2968E+02
  12.569  0.1061E+01  0.2969E+02
  12.579  0.1063E+01  0.2970E+02
  12.589  0.1064E+01  0.2971E+02
  12.599  0.1066E+01  0.2972E+02
  12.609  0.1067E+01  0.2973E+02
  12.619  0.1068E+01  0.2974E+02
  12.629  0.1069E+01  0.2975E+02
  12.639  0.1071E+01  0.2976E+02
  12.649  0.1072E+01  0.2977E+02
  12.659  0.1073E+01  0.2978E+02
  12.669  0.1074E+01  0.2980E+02
  12.679  0.1075E+01  0.2981E+02
  12.689  0.1076E+01  0.2982E+02
  12.699  0.1077E+01  0.2983E+02
  12.709  0.1078E+01  0.2984E+02
  12.719  0.1079E+01  0.2985E+02
  12.729  0.1080E+01  0.2986E+02
  12.739  0.1081E+01  0.2987E+02
  12.749  0.1082E+01  0.2988E+02
  12.759  0.1082E+01  0.2989E+02
  12.769  0.1083E+01  0.2990E+02
  12.779  0.1084E+01  0.2991E+02
  12.789  0.1084E+01  0.2992E+02
  12.799  0.1085E+01  0.2994E+02
  12.809  0.1086E+01  0.2995E+02
  12.819  0.1086E+01  0.2996E+02
  12.829  0.1087E+01  0.2997E+02
  12.839  0.1088E+01  0.2998E+02
  12.849  0.1088E+01  0.2999E+02
  12.859  0.1089E+01  0.3000E+02
  12.869  0.1089E+01  0.3001E+02
  12.879  0.1089E+01  0.3002E+02
  12.889  0.1090E+01  0.3003E+02
  12.899  0.1090E+01  0.3004E+02
  12.909  0.1091E+01  0.3006E+02
  12.919  0.1091E+01  0.3007E+02
  12.929  0.1092E+01  0.3008E+02
  12.939  0.1092E+01  0.3009E+02
  12.949  0.1092E+01  0.3010E+02
  12.959  0.1093E+01  0.3011E+02
  12.969  0.1093E+01  0.3012E+02
  12.979  0.1093E+01  0.3013E+02
  12.989  0.1094E+01  0.3014E+02
  12.999  0.1094E+01  0.3015E+02
  13.009  0.1094E+01  0.3016E+02
  13.019  0.1094E+01  0.3018E+02
  13.029  0.1095E+01  0.3019E+02
  13.039  0.1095E+01  0.3020E+02
  13.049  0.1095E+01  0.3021E+02
  13.059  0.1096E+01  0.3022E+02
  13.069  0.1096E+01  0.3023E+02
  13.079  0.1096E+01  0.3024E+02
  13.089  0.1097E+01  0.3025E+02
  13.099  0.1097E+01  0.3026E+02
  13.109  0.1097E+01  0.3027E+02
  13.119  0.1098E+01  0.3029E+02
  13.129  0.1098E+01  0.3030E+02
  13.139  0.1098E+01  0.3031E+02
  13.149  0.1099E+01  0.3032E+02
  13.159  0.1099E+01  0.3033E+02
  13.169  0.1100E+01  0.3034E+02
  13.179  0.1100E+01  0.3035E+02
  13.189  0.1101E+01  0.3036E+02
  13.199  0.1101E+01  0.3037E+02
  13.209  0.1101E+01  0.3038E+02
  13.219  0.1102E+01  0.3040E+02
  13.229  0.1103E+01  0.3041E+02
  13.239  0.1103E+01  0.3042E+02
  13.249  0.1104E+01  0.3043E+02
  13.259  0.1104E+01  0.3044E+02
  13.269  0.1105E+01  0.3045E+02
  13.279  0.1106E+01  0.3046E+02
  13.289  0.1106E+01  0.3047E+02
  13.299  0.1107E+01  0.3048E+02
  13.309  0.1108E+01  0.3049E+02
  13.319  0.1109E+01  0.3051E+02
  13.329  0.1109E+01  0.3052E+02
  13.339  0.1110E+01  0.3053E+02
  13.349  0.1111E+01  0.3054E+02
  13.359  0.1112E+01  0.3055E+02
  13.369  0.1113E+01  0.3056E+02
  13.379  0.1114E+01  0.3057E+02
  13.389  0.1115E+01  0.3058E+02
  13.399  0.1116E+01  0.3059E+02
  13.409  0.1117E+01  0.3061E+02
  13.419  0.1118E+01  0.3062E+02
  13.429  0.1119E+01  0.3063E+02
  13.439  0.1120E+01  0.3064E+02
  13.449  0.1122E+01  0.3065E+02
  13.459  0.1123E+01  0.3066E+02
  13.469  0.1124E+01  0.3067E+02
  13.479  0.1125E+01  0.3068E+02
  13.489  0.1127E+01  0.3070E+02
  13.499  0.1128E+01  0.3071E+02
  13.509  0.1130E+01  0.3072E+02
  13.519  0.1131E+01  0.3073E+02
  13.529  0.1133E+01  0.3074E+02
  13.539  0.1134E+01  0.3075E+02
  13.549  0.1136E+01  0.3076E+02
  13.559  0.1137E+01  0.3078E+02
  13.569  0.1139E+01  0.3079E+02
  13.579  0.1141E+01  0.3080E+02
  13.589  0.1142E+01  0.3081E+02
  13.599  0.1144E+01  0.3082E+02
  13.609  0.1146E+01  0.3083E+02
  13.619  0.1148E+01  0.3084E+02
  13.629  0.1150E+01  0.3086E+02
  13.639  0.1152E+01  0.3087E+02
  13.649  0.1154E+01  0.3088E+02
  13.659  0.1156E+01  0.3089E+02
  13.669  0.1158E+01  0.3090E+02
  13.679  0.1160E+01  0.3091E+02
  13.689  0.1162E+01  0.3092E+02
  13.699  0.1164E+01  0.3094E+02
  13.709  0.1166E+01  0.3095E+02
  13.719  0.1168E+01  0.3096E+02
  13.729  0.1170E+01  0.3097E+02
  13.739  0.1172E+01  0.3098E+02
  13.749  0.1175E+01  0.3099E+02
  13.759  0.1177E+01  0.3101E+02
  13.769  0.1179E+01  0.3102E+02
  13.779  0.1182E+01  0.3103E+02
  13.789  0.1184E+01  0.3104E+02
  13.799  0.1186E+01  0.3105E+02
  13.809  0.1189E+01  0.3107E+02
  13.819  0.1191E+01  0.3108E+02
  13.829  0.1193E+01  0.3109E+02
  13.839  0.1196E+01  0.3110E+02
  13.849  0.1198E+01  0.3111E+02
  13.859  0.1201E+01  0.3113E+02
  13.869  0.1203E+01  0.3114E+02
  13.879  0.1206E+01  0.3115E+02
  13.889  0.1208E+01  0.3116E+02
  13.899  0.1211E+01  0.3117E+02
  13.909  0.1213E+01  0.3119E+02
  13.919  0.1216E+01  0.3120E+02
  13.929  0.1219E+01  0.3121E+02
  13.939  0.1221E+01  0.3122E+02
  13.949  0.1224E+01  0.3123E+02
  13.959  0.1226E+01  0.3125E+02
  13.969  0.1229E+01  0.3126E+02
  13.979  0.1231E+01  0.3127E+02
  13.989  0.1234E+01  0.3128E+02
  13.999  0.1237E+01  0.3130E+02
  14.009  0.1239E+01  0.3131E+02
  14.019  0.1242E+01  0.3132E+02
  14.029  0.1244E+01  0.3133E+02
  14.039  0.1247E+01  0.3135E+02
  14.049  0.1249E+01  0.3136E+02
  14.059  0.1252E+01  0.3137E+02
  14.069  0.1254E+01  0.3138E+02
  14.079  0.1257E+01  0.3140E+02
  14.089  0.1259E+01  0.3141E+02
  14.099  0.1262E+01  0.3142E+02
  14.109  0.1264E+01  0.3143E+02
  14.119  0.1267E+01  0.3145E+02
  14.129  0.1269E+01  0.3146E+02
  14.139  0.1272E+01  0.3147E+02
  14.149  0.1274E+01  0.3148E+02
  14.159  0.1276E+01  0.3150E+02
  14.169  0.1279E+01  0.3151E+02
  14.179  0.1281E+01  0.3152E+02
  14.189  0.1283E+01  0.3154E+02
  14.199  0.1286E+01  0.3155E+02
  14.209  0.1288E+01  0.3156E+02
  14.219  0.1290E+01  0.3157E+02
  14.229  0.1292E+01  0.3159E+02
  14.239  0.1294E+01  0.3160E+02
  14.249  0.1297E+01  0.3161E+02
  14.259  0.1299E+01  0.3163E+02
  14.269  0.1301E+01  0.3164E+02
  14.279  0.1303E+01  0.3165E+02
  14.289  0.1305E+01  0.3167E+02
  14.299  0.1307E+01  0.3168E+02
  14.309  0.1309E+01  0.3169E+02
  14.319  0.1311E+01  0.3170E+02
  14.329  0.1313E+01  0.3172E+02
  14.339  0.1315E+01  0.3173E+02
  14.349  0.1316E+01  0.3174E+02
  14.359  0.1318E+01  0.3176E+02
  14.369  0.1320E+01  0.3177E+02
  14.379  0.1322E+01  0.3178E+02
  14.389  0.1324E+01  0.3180E+02
  14.399  0.1325E+01  0.3181E+02
  14.409  0.1327E+01  0.3182E+02
  14.419  0.1329E+01  0.3184E+02
  14.429  0.1330E+01  0.3185E+02
  14.439  0.1332E+01  0.3186E+02
  14.449  0.1334E+01  0.3188E+02
  14.459  0.1335E+01  0.3189E+02
  14.469  0.1337E+01  0.3190E+02
  14.479  0.1338E+01  0.3192E+02
  14.489  0.1340E+01  0.3193E+02
  14.499  0.1341E+01  0.3194E+02
  14.509  0.1343E+01  0.3196E+02
  14.519  0.1344E+01  0.3197E+02
  14.529  0.1346E+01  0.3198E+02
  14.539  0.1347E+01  0.3200E+02
  14.549  0.1349E+01  0.3201E+02
  14.559  0.1350E+01  0.3202E+02
  14.569  0.1352E+01  0.3204E+02
  14.579  0.1353E+01  0.3205E+02
  14.589  0.1354E+01  0.3207E+02
  14.599  0.1356E+01  0.3208E+02
  14.609  0.1357E+01  0.3209E+02
  14.619  0.1359E+01  0.3211E+02
  14.629  0.1360E+01  0.3212E+02
  14.639  0.1361E+01  0.3213E+02
  14.649  0.1363E+01  0.3215E+02
  14.659  0.1364E+01  0.3216E+02
  14.669  0.1365E+01  0.3217E+02
  14.679  0.1367E+01  0.3219E+02
  14.689  0.1368E+01  0.3220E+02
  14.699  0.1370E+01  0.3222E+02
  14.709  0.1371E+01  0.3223E+02
  14.719  0.1372E+01  0.3224E+02
  14.729  0.1374E+01  0.3226E+02
  14.739  0.1375E+01  0.3227E+02
  14.749  0.1377E+01  0.3228E+02
  14.759  0.1378E+01  0.3230E+02
  14.769  0.1380E+01  0.3231E+02
  14.779  0.1381E+01  0.3233E+02
  14.789  0.1383E+01  0.3234E+02
  14.799  0.1384E+01  0.3235E+02
  14.809  0.1385E+01  0.3237E+02
  14.819  0.1387E+01  0.3238E+02
  14.829  0.1388E+01  0.3239E+02
  14.839  0.1390E+01  0.3241E+02
  14.849  0.1391E+01  0.3242E+02
  14.859  0.1393E+01  0.3244E+02
  14.869  0.1395E+01  0.3245E+02
  14.879  0.1396E+01  0.3246E+02
  14.889  0.1398E+01  0.3248E+02
  14.899  0.1399E+01  0.3249E+02
  14.909  0.1401E+01  0.3251E+02
  14.919  0.1402E+01  0.3252E+02
  14.929  0.1404E+01  0.3253E+02
  14.939  0.1406E+01  0.3255E+02
  14.949  0.1407E+01  0.3256E+02
  14.959  0.1409E+01  0.3258E+02
  14.969  0.1410E+01  0.3259E+02
  14.979  0.1412E+01  0.3260E+02
  14.989  0.1414E+01  0.3262E+02
  14.999  0.1415E+01  0.3263E+02
  15.009  0.1417E+01  0.3265E+02
  15.019  0.1418E+01  0.3266E+02
  15.029  0.1420E+01  0.3268E+02
  15.039  0.1421E+01  0.3269E+02
  15.049  0.1423E+01  0.3270E+02
  15.059  0.1424E+01  0.3272E+02
  15.069  0.1426E+01  0.3273E+02
  15.079  0.1427E+01  0.3275E+02
  15.089  0.1429E+01  0.3276E+02
  15.099  0.1430E+01  0.3278E+02
  15.109  0.1432E+01  0.3279E+02
  15.119  0.1433E+01  0.3280E+02
  15.129  0.1435E+01  0.3282E+02
  15.139  0.1436E+01  0.3283E+02
  15.149  0.1437E+01  0.3285E+02
  15.159  0.1439E+01  0.3286E+02
  15.169  0.1440E+01  0.3288E+02
  15.179  0.1441E+01  0.3289E+02
  15.189  0.1442E+01  0.3290E+02
  15.199  0.1444E+01  0.3292E+02
  15.209  0.1445E+01  0.3293E+02
  15.219  0.1446E+01  0.3295E+02
  15.229  0.1447E+01  0.3296E+02
  15.239  0.1448E+01  0.3298E+02
  15.249  0.1449E+01  0.3299E+02
  15.259  0.1450E+01  0.3301E+02
  15.269  0.1451E+01  0.3302E+02
  15.279  0.1452E+01  0.3303E+02
  15.289  0.1452E+01  0.3305E+02
  15.299  0.1453E+01  0.3306E+02
  15.309  0.1454E+01  0.3308E+02
  15.319  0.1454E+01  0.3309E+02
  15.329  0.1455E+01  0.3311E+02
  15.339  0.1455E+01  0.3312E+02
  15.349  0.1456E+01  0.3314E+02
  15.359  0.1456E+01  0.3315E+02
  15.369  0.1456E+01  0.3317E+02
  15.379  0.1457E+01  0.3318E+02
  15.389  0.1457E+01  0.3319E+02
  15.399  0.1457E+01  0.3321E+02
  15.409  0.1457E+01  0.3322E+02
  15.419  0.1457E+01  0.3324E+02
  15.429  0.1457E+01  0.3325E+02
  15.439  0.1457E+01  0.3327E+02
  15.449  0.1457E+01  0.3328E+02
  15.459  0.1457E+01  0.3330E+02
  15.469  0.1456E+01  0.3331E+02
  15.479  0.1456E+01  0.3333E+02
  15.489  0.1455E+01  0.3334E+02
  15.499  0.1455E+01  0.3336E+02
  15.509  0.1454E+01  0.3337E+02
  15.519  0.1454E+01  0.3338E+02
  15.529  0.1453E+01  0.3340E+02
  15.539  0.1452E+01  0.3341E+02
  15.549  0.1451E+01  0.3343E+02
  15.559  0.1451E+01  0.3344E+02
  15.569  0.1450E+01  0.3346E+02
  15.579  0.1449E+01  0.3347E+02
  15.589  0.1448E+01  0.3349E+02
  15.599  0.1446E+01  0.3350E+02
  15.609  0.1445E+01  0.3351E+02
  15.619  0.1444E+01  0.3353E+02
  15.629  0.1443E+01  0.3354E+02
  15.639  0.1441E+01  0.3356E+02
  15.649  0.1440E+01  0.3357E+02
  15.659  0.1439E+01  0.3359E+02
  15.669  0.1437E+01  0.3360E+02
  15.679  0.1436E+01  0.3362E+02
  15.689  0.1434E+01  0.3363E+02
  15.699  0.1432E+01  0.3364E+02
  15.709  0.1431E+01  0.3366E+02
  15.719  0.1429E+01  0.3367E+02
  15.729  0.1427E+01  0.3369E+02
  15.739  0.1425E+01  0.3370E+02
  15.749  0.1424E+01  0.3372E+02
  15.759  0.1422E+01  0.3373E+02
  15.769  0.1420E+01  0.3374E+02
  15.779  0.1418E+01  0.3376E+02
  15.789  0.1416E+01  0.3377E+02
  15.799  0.1414E+01  0.3379E+02
  15.809  0.1412E+01  0.3380E+02
  15.819  0.1410E+01  0.3381E+02
  15.829  0.1407E+01  0.3383E+02
  15.839  0.1405E+01  0.3384E+02
  15.849  0.1403E+01  0.3386E+02
  15.859  0.1401E+01  0.3387E+02
  15.869  0.1399E+01  0.3388E+02
  15.879  0.1396E+01  0.3390E+02
  15.889  0.1394E+01  0.3391E+02
  15.899  0.1392E+01  0.3393E+02
  15.909  0.1390E+01  0.3394E+02
  15.919  0.1387E+01  0.3395E+02
  15.929  0.1385E+01  0.3397E+02
  15.939  0.1383E+01  0.3398E+02
  15.949  0.1380E+01  0.3400E+02
  15.959  0.1378E+01  0.3401E+02
  15.969  0.1376E+01  0.3402E+02
  15.979  0.1373E+01  0.3404E+02
  15.989  0.1371E+01  0.3405E+02
  15.999  0.1368E+01  0.3406E+02
  16.009  0.1366E+01  0.3408E+02
  16.019  0.1364E+01  0.3409E+02
  16.029  0.1361E+01  0.3411E+02
  16.039  0.1359E+01  0.3412E+02
  16.049  0.1357E+01  0.3413E+02
  16.059  0.1354E+01  0.3415E+02
  16.069  0.1352E+01  0.3416E+02
  16.079  0.1349E+01  0.3417E+02
  16.089  0.1347E+01  0.3419E+02
  16.099  0.1345E+01  0.3420E+02
  16.109  0.1342E+01  0.3421E+02
  16.119  0.1340E+01  0.3423E+02
  16.129  0.1338E+01  0.3424E+02
  16.139  0.1336E+01  0.3425E+02
  16.149  0.1333E+01  0.3427E+02
  16.159  0.1331E+01  0.3428E+02
  16.169  0.1329E+01  0.3429E+02
  16.179  0.1327E+01  0.3431E+02
  16.189  0.1324E+01  0.3432E+02
  16.199  0.1322E+01  0.3433E+02
  16.209  0.1320E+01  0.3435E+02
  16.219  0.1318E+01  0.3436E+02
  16.229  0.1316E+01  0.3437E+02
  16.239  0.1314E+01  0.3439E+02
  16.249  0.1312E+01  0.3440E+02
  16.259  0.1310E+01  0.3441E+02
  16.269  0.1308E+01  0.3443E+02
  16.279  0.1306E+01  0.3444E+02
  16.289  0.1304E+01  0.3445E+02
  16.299  0.1302E+01  0.3446E+02
  16.309  0.1300E+01  0.3448E+02
  16.319  0.1298E+01  0.3449E+02
  16.329  0.1296E+01  0.3450E+02
  16.339  0.1294E+01  0.3452E+02
  16.349  0.1292E+01  0.3453E+02
  16.359  0.1291E+01  0.3454E+02
  16.369  0.1289E+01  0.3455E+02
  16.379  0.1287E+01  0.3457E+02
  16.389  0.1286E+01  0.3458E+02
  16.399  0.1284E+01  0.3459E+02
  16.409  0.1283E+01  0.3461E+02
  16.419  0.1281E+01  0.3462E+02
  16.429  0.1280E+01  0.3463E+02
  16.439  0.1278E+01  0.3464E+02
  16.449  0.1277E+01  0.3466E+02
  16.459  0.1275E+01  0.3467E+02
  16.469  0.1274E+01  0.3468E+02
  16.479  0.1273E+01  0.3470E+02
  16.489  0.1271E+01  0.3471E+02
  16.499  0.1270E+01  0.3472E+02
  16.509  0.1269E+01  0.3473E+02
  16.519  0.1268E+01  0.3475E+02
  16.529  0.1267E+01  0.3476E+02
  16.539  0.1266E+01  0.3477E+02
  16.549  0.1265E+01  0.3478E+02
  16.559  0.1264E+01  0.3480E+02
  16.569  0.1263E+01  0.3481E+02
  16.579  0.1262E+01  0.3482E+02
  16.589  0.1261E+01  0.3483E+02
  16.599  0.1260E+01  0.3485E+02
  16.609  0.1259E+01  0.3486E+02
  16.619  0.1258E+01  0.3487E+02
  16.629  0.1257E+01  0.3489E+02
  16.639  0.1257E+01  0.3490E+02
  16.649  0.1256E+01  0.3491E+02
  16.659  0.1255E+01  0.3492E+02
  16.669  0.1255E+01  0.3494E+02
  16.679  0.1254E+01  0.3495E+02
  16.689  0.1254E+01  0.3496E+02
  16.699  0.1253E+01  0.3497E+02
  16.709  0.1253E+01  0.3499E+02
  16.719  0.1252E+01  0.3500E+02
  16.729  0.1252E+01  0.3501E+02
  16.739  0.1251E+01  0.3502E+02
  16.749  0.1251E+01  0.3504E+02
  16.759  0.1250E+01  0.3505E+02
  16.769  0.1250E+01  0.3506E+02
  16.779  0.1250E+01  0.3507E+02
  16.789  0.1250E+01  0.3509E+02
  16.799  0.1249E+01  0.3510E+02
  16.809  0.1249E+01  0.3511E+02
  16.819  0.1249E+01  0.3512E+02
  16.829  0.1249E+01  0.3514E+02
  16.839  0.1248E+01  0.3515E+02
  16.849  0.1248E+01  0.3516E+02
  16.859  0.1248E+01  0.3517E+02
  16.869  0.1248E+01  0.3519E+02
  16.879  0.1248E+01  0.3520E+02
  16.889  0.1248E+01  0.3521E+02
  16.899  0.1248E+01  0.3522E+02
  16.909  0.1248E+01  0.3524E+02
  16.919  0.1247E+01  0.3525E+02
  16.929  0.1247E+01  0.3526E+02
  16.939  0.1247E+01  0.3527E+02
  16.949  0.1247E+01  0.3529E+02
  16.959  0.1247E+01  0.3530E+02
  16.969  0.1247E+01  0.3531E+02
  16.979  0.1247E+01  0.3532E+02
  16.989  0.1247E+01  0.3534E+02
  16.999  0.1247E+01  0.3535E+02
  17.009  0.1247E+01  0.3536E+02
  17.019  0.1247E+01  0.3537E+02
  17.029  0.1247E+01  0.3539E+02
  17.039  0.1247E+01  0.3540E+02
  17.049  0.1247E+01  0.3541E+02
  17.059  0.1247E+01  0.3542E+02
  17.069  0.1247E+01  0.3544E+02
  17.079  0.1247E+01  0.3545E+02
  17.089  0.1247E+01  0.3546E+02
  17.099  0.1247E+01  0.3547E+02
  17.109  0.1247E+01  0.3548E+02
  17.119  0.1247E+01  0.3550E+02
  17.129  0.1247E+01  0.3551E+02
  17.139  0.1247E+01  0.3552E+02
  17.149  0.1247E+01  0.3553E+02
  17.159  0.1247E+01  0.3555E+02
  17.169  0.1247E+01  0.3556E+02
  17.179  0.1246E+01  0.3557E+02
  17.189  0.1246E+01  0.3558E+02
  17.199  0.1246E+01  0.3560E+02
  17.209  0.1246E+01  0.3561E+02
  17.219  0.1246E+01  0.3562E+02
  17.229  0.1246E+01  0.3563E+02
  17.239  0.1246E+01  0.3565E+02
  17.249  0.1245E+01  0.3566E+02
  17.259  0.1245E+01  0.3567E+02
  17.269  0.1245E+01  0.3568E+02
  17.279  0.1245E+01  0.3570E+02
  17.289  0.1244E+01  0.3571E+02
  17.299  0.1244E+01  0.3572E+02
  17.309  0.1244E+01  0.3573E+02
  17.319  0.1244E+01  0.3575E+02
  17.329  0.1243E+01  0.3576E+02
  17.339  0.1243E+01  0.3577E+02
  17.349  0.1243E+01  0.3578E+02
  17.359  0.1242E+01  0.3580E+02
  17.369  0.1242E+01  0.3581E+02
  17.379  0.1241E+01  0.3582E+02
  17.389  0.1241E+01  0.3583E+02
  17.399  0.1240E+01  0.3585E+02
  17.409  0.1240E+01  0.3586E+02
  17.419  0.1240E+01  0.3587E+02
  17.429  0.1239E+01  0.3588E+02
  17.439  0.1239E+01  0.3590E+02
  17.449  0.1238E+01  0.3591E+02
  17.459  0.1237E+01  0.3592E+02
  17.469  0.1237E+01  0.3593E+02
  17.479  0.1236E+01  0.3594E+02
  17.489  0.1236E+01  0.3596E+02
  17.499  0.1235E+01  0.3597E+02
  17.509  0.1234E+01  0.3598E+02
  17.519  0.1234E+01  0.3599E+02
  17.529  0.1233E+01  0.3601E+02
  17.539  0.1232E+01  0.3602E+02
  17.549  0.1232E+01  0.3603E+02
  17.559  0.1231E+01  0.3604E+02
  17.569  0.1230E+01  0.3606E+02
  17.579  0.1230E+01  0.3607E+02
  17.589  0.1229E+01  0.3608E+02
  17.599  0.1228E+01  0.3609E+02
  17.609  0.1227E+01  0.3610E+02
  17.619  0.1226E+01  0.3612E+02
  17.629  0.1226E+01  0.3613E+02
  17.639  0.1225E+01  0.3614E+02
  17.649  0.1224E+01  0.3615E+02
  17.659  0.1223E+01  0.3617E+02
  17.669  0.1222E+01  0.3618E+02
  17.679  0.1221E+01  0.3619E+02
  17.689  0.1220E+01  0.3620E+02
  17.699  0.1219E+01  0.3622E+02
  17.709  0.1218E+01  0.3623E+02
  17.719  0.1217E+01  0.3624E+02
  17.729  0.1216E+01  0.3625E+02
  17.739  0.1216E+01  0.3626E+02
  17.749  0.1215E+01  0.3628E+02
  17.759  0.1214E+01  0.3629E+02
  17.769  0.1213E+01  0.3630E+02
  17.779  0.1211E+01  0.3631E+02
  17.789  0.1210E+01  0.3632E+02
  17.799  0.1209E+01  0.3634E+02
  17.809  0.1208E+01  0.3635E+02
  17.819  0.1207E+01  0.3636E+02
  17.829  0.1206E+01  0.3637E+02
  17.839  0.1205E+01  0.3638E+02
  17.849  0.1204E+01  0.3640E+02
  17.859  0.1203E+01  0.3641E+02
  17.869  0.1202E+01  0.3642E+02
  17.879  0.1201E+01  0.3643E+02
  17.889  0.1200E+01  0.3644E+02
  17.899  0.1198E+01  0.3646E+02
  17.909  0.1197E+01  0.3647E+02
  17.919  0.1196E+01  0.3648E+02
  17.929  0.1195E+01  0.3649E+02
  17.939  0.1194E+01  0.3650E+02
  17.949  0.1193E+01  0.3652E+02
  17.959  0.1192E+01  0.3653E+02
  17.969  0.1190E+01  0.3654E+02
  17.979  0.1189E+01  0.3655E+02
  17.989  0.1188E+01  0.3656E+02
  17.999  0.1187E+01  0.3658E+02
  18.009  0.1186E+01  0.3659E+02
  18.019  0.1184E+01  0.3660E+02
  18.029  0.1183E+01  0.3661E+02
  18.039  0.1182E+01  0.3662E+02
  18.049  0.1181E+01  0.3664E+02
  18.059  0.1179E+01  0.3665E+02
  18.069  0.1178E+01  0.3666E+02
  18.079  0.1177E+01  0.3667E+02
  18.089  0.1176E+01  0.3668E+02
  18.099  0.1174E+01  0.3669E+02
  18.109  0.1173E+01  0.3671E+02
  18.119  0.1172E+01  0.3672E+02
  18.129  0.1171E+01  0.3673E+02
  18.139  0.1169E+01  0.3674E+02
  18.149  0.1168E+01  0.3675E+02
  18.159  0.1167E+01  0.3676E+02
  18.169  0.1166E+01  0.3678E+02
  18.179  0.1164E+01  0.3679E+02
  18.189  0.1163E+01  0.3680E+02
  18.199  0.1162E+01  0.3681E+02
  18.209  0.1161E+01  0.3682E+02
  18.219  0.1159E+01  0.3683E+02
  18.229  0.1158E+01  0.3685E+02
  18.239  0.1157E+01  0.3686E+02
  18.249  0.1156E+01  0.3687E+02
  18.259  0.1154E+01  0.3688E+02
  18.269  0.1153E+01  0.3689E+02
  18.279  0.1152E+01  0.3690E+02
  18.289  0.1151E+01  0.3691E+02
  18.299  0.1149E+01  0.3693E+02
  18.309  0.1148E+01  0.3694E+02
  18.319  0.1147E+01  0.3695E+02
  18.329  0.1146E+01  0.3696E+02
  18.339  0.1144E+01  0.3697E+02
  18.349  0.1143E+01  0.3698E+02
  18.359  0.1142E+01  0.3699E+02
  18.369  0.1141E+01  0.3701E+02
  18.379  0.1140E+01  0.3702E+02
  18.389  0.1138E+01  0.3703E+02
  18.399  0.1137E+01  0.3704E+02
  18.409  0.1136E+01  0.3705E+02
  18.419  0.1135E+01  0.3706E+02
  18.429  0.1134E+01  0.3707E+02
  18.439  0.1133E+01  0.3709E+02
  18.449  0.1132E+01  0.3710E+02
  18.459  0.1131E+01  0.3711E+02
  18.469  0.1129E+01  0.3712E+02
  18.479  0.1128E+01  0.3713E+02
  18.489  0.1127E+01  0.3714E+02
  18.499  0.1126E+01  0.3715E+02
  18.509  0.1125E+01  0.3716E+02
  18.519  0.1124E+01  0.3718E+02
  18.529  0.1124E+01  0.3719E+02
  18.539  0.1123E+01  0.3720E+02
  18.549  0.1122E+01  0.3721E+02
  18.559  0.1121E+01  0.3722E+02
  18.569  0.1120E+01  0.3723E+02
  18.579  0.1119E+01  0.3724E+02
  18.589  0.1119E+01  0.3725E+02
  18.599  0.1118E+01  0.3727E+02
  18.609  0.1117E+01  0.3728E+02
  18.619  0.1117E+01  0.3729E+02
  18.629  0.1116E+01  0.3730E+02
  18.639  0.1115E+01  0.3731E+02
  18.649  0.1115E+01  0.3732E+02
  18.659  0.1114E+01  0.3733E+02
  18.669  0.1114E+01  0.3734E+02
  18.679  0.1113E+01  0.3736E+02
  18.689  0.1113E+01  0.3737E+02
  18.699  0.1113E+01  0.3738E+02
  18.709  0.1113E+01  0.3739E+02
  18.719  0.1112E+01  0.3740E+02
  18.729  0.1112E+01  0.3741E+02
  18.739  0.1112E+01  0.3742E+02
  18.749  0.1112E+01  0.3743E+02
  18.759  0.1112E+01  0.3744E+02
  18.769  0.1112E+01  0.3746E+02
  18.779  0.1112E+01  0.3747E+02
  18.789  0.1112E+01  0.3748E+02
  18.799  0.1112E+01  0.3749E+02
  18.809  0.1113E+01  0.3750E+02
  18.819  0.1113E+01  0.3751E+02
  18.829  0.1113E+01  0.3752E+02
  18.839  0.1114E+01  0.3753E+02
  18.849  0.1114E+01  0.3754E+02
  18.859  0.1115E+01  0.3756E+02
  18.869  0.1115E+01  0.3757E+02
  18.879  0.1116E+01  0.3758E+02
  18.889  0.1117E+01  0.3759E+02
  18.899  0.1117E+01  0.3760E+02
  18.909  0.1118E+01  0.3761E+02
  18.919  0.1119E+01  0.3762E+02
  18.929  0.1120E+01  0.3763E+02
  18.939  0.1121E+01  0.3764E+02
  18.949  0.1122E+01  0.3766E+02
  18.959  0.1123E+01  0.3767E+02
  18.969  0.1125E+01  0.3768E+02
  18.979  0.1126E+01  0.3769E+02
  18.989  0.1127E+01  0.3770E+02
  18.999  0.1129E+01  0.3771E+02
  19.009  0.1130E+01  0.3772E+02
  19.019  0.1132E+01  0.3773E+02
  19.029  0.1133E+01  0.3775E+02
  19.039  0.1135E+01  0.3776E+02
  19.049  0.1137E+01  0.3777E+02
  19.059  0.1138E+01  0.3778E+02
  19.069  0.1140E+01  0.3779E+02
  19.079  0.1142E+01  0.3780E+02
  19.089  0.1144E+01  0.3781E+02
  19.099  0.1146E+01  0.3783E+02
  19.109  0.1148E+01  0.3784E+02
  19.119  0.1150E+01  0.3785E+02
  19.129  0.1152E+01  0.3786E+02
  19.139  0.1154E+01  0.3787E+02
  19.149  0.1156E+01  0.3788E+02
  19.159  0.1158E+01  0.3790E+02
  19.169  0.1161E+01  0.3791E+02
  19.179  0.1163E+01  0.3792E+02
  19.189  0.1165E+01  0.3793E+02
  19.199  0.1167E+01  0.3794E+02
  19.209  0.1170E+01  0.3795E+02
  19.219  0.1172E+01  0.3797E+02
  19.229  0.1175E+01  0.3798E+02
  19.239  0.1177E+01  0.3799E+02
  19.249  0.1180E+01  0.3800E+02
  19.259  0.1182E+01  0.3801E+02
  19.269  0.1185E+01  0.3802E+02
  19.279  0.1187E+01  0.3804E+02
  19.289  0.1190E+01  0.3805E+02
  19.299  0.1192E+01  0.3806E+02
  19.309  0.1195E+01  0.3807E+02
  19.319  0.1197E+01  0.3808E+02
  19.329  0.1200E+01  0.3810E+02
  19.339  0.1203E+01  0.3811E+02
  19.349  0.1205E+01  0.3812E+02
  19.359  0.1208E+01  0.3813E+02
  19.369  0.1210E+01  0.3814E+02
  19.379  0.1213E+01  0.3816E+02
  19.389  0.1215E+01  0.3817E+02
  19.399  0.1218E+01  0.3818E+02
  19.409  0.1221E+01  0.3819E+02
  19.419  0.1223E+01  0.3820E+02
  19.429  0.1226E+01  0.3822E+02
  19.439  0.1228E+01  0.3823E+02
  19.449  0.1231E+01  0.3824E+02
  19.459  0.1233E+01  0.3825E+02
  19.469  0.1235E+01  0.3827E+02
  19.479  0.1238E+01  0.3828E+02
  19.489  0.1240E+01  0.3829E+02
  19.499  0.1243E+01  0.3830E+02
  19.509  0.1245E+01  0.3832E+02
  19.519  0.1247E+01  0.3833E+02
  19.529  0.1250E+01  0.3834E+02
  19.539  0.1252E+01  0.3835E+02
  19.549  0.1254E+01  0.3837E+02
  19.559  0.1256E+01  0.3838E+02
  19.569  0.1259E+01  0.3839E+02
  19.579  0.1261E+01  0.3840E+02
  19.589  0.1263E+01  0.3842E+02
  19.599  0.1265E+01  0.3843E+02
  19.609  0.1267E+01  0.3844E+02
  19.619  0.1269E+01  0.3845E+02
  19.629  0.1271E+01  0.3847E+02
  19.639  0.1273E+01  0.3848E+02
  19.649  0.1275E+01  0.3849E+02
  19.659  0.1277E+01  0.3851E+02
  19.669  0.1279E+01  0.3852E+02
  19.679  0.1281E+01  0.3853E+02
  19.689  0.1282E+01  0.3854E+02
  19.699  0.1284E+01  0.3856E+02
  19.709  0.1286E+01  0.3857E+02
  19.719  0.1288E+01  0.3858E+02
  19.729  0.1290E+01  0.3860E+02
  19.739  0.1291E+01  0.3861E+02
  19.749  0.1293E+01  0.3862E+02
  19.759  0.1295E+01  0.3863E+02
  19.769  0.1296E+01  0.3865E+02
  19.779  0.1298E+01  0.3866E+02
  19.789  0.1300E+01  0.3867E+02
  19.799  0.1301E+01  0.3869E+02
  19.809  0.1303E+01  0.3870E+02
  19.819  0.1304E+01  0.3871E+02
  19.829  0.1306E+01  0.3873E+02
  19.839  0.1308E+01  0.3874E+02
  19.849  0.1309E+01  0.3875E+02
  19.859  0.1311E+01  0.3876E+02
  19.869  0.1313E+01  0.3878E+02
  19.879  0.1314E+01  0.3879E+02
  19.889  0.1316E+01  0.3880E+02
  19.899  0.1318E+01  0.3882E+02
  19.909  0.1319E+01  0.3883E+02
  19.919  0.1321E+01  0.3884E+02
  19.929  0.1323E+01  0.3886E+02
  19.939  0.1324E+01  0.3887E+02
  19.949  0.1326E+01  0.3888E+02
  19.959  0.1328E+01  0.3890E+02
  19.969  0.1330E+01  0.3891E+02
  19.979  0.1331E+01  0.3892E+02
  19.989  0.1333E+01  0.3894E+02
  19.999  0.1335E+01  0.3895E+02
  20.009  0.1337E+01  0.3896E+02
  20.019  0.1339E+01  0.3898E+02
  20.029  0.1341E+01  0.3899E+02
  20.039  0.1343E+01  0.3900E+02
  20.049  0.1345E+01  0.3902E+02
  20.059  0.1347E+01  0.3903E+02
  20.069  0.1349E+01  0.3904E+02
  20.079  0.1351E+01  0.3906E+02
  20.089  0.1353E+01  0.3907E+02
  20.099  0.1356E+01  0.3908E+02
  20.109  0.1358E+01  0.3910E+02
  20.119  0.1360E+01  0.3911E+02
  20.129  0.1363E+01  0.3913E+02
  20.139  0.1365E+01  0.3914E+02
  20.149  0.1368E+01  0.3915E+02
  20.159  0.1370E+01  0.3917E+02
  20.169  0.1373E+01  0.3918E+02
  20.179  0.1375E+01  0.3919E+02
  20.189  0.1378E+01  0.3921E+02
  20.199  0.1381E+01  0.3922E+02
  20.209  0.1383E+01  0.3924E+02
  20.219  0.1386E+01  0.3925E+02
  20.229  0.1389E+01  0.3926E+02
  20.239  0.1392E+01  0.3928E+02
  20.249  0.1395E+01  0.3929E+02
  20.259  0.1398E+01  0.3930E+02
  20.269  0.1401E+01  0.3932E+02
  20.279  0.1404E+01  0.3933E+02
  20.289  0.1407E+01  0.3935E+02
  20.299  0.1410E+01  0.3936E+02
  20.309  0.1413E+01  0.3938E+02
  20.319  0.1416E+01  0.3939E+02
  20.329  0.1419E+01  0.3940E+02
  20.339  0.1422E+01  0.3942E+02
  20.349  0.1425E+01  0.3943E+02
  20.359  0.1429E+01  0.3945E+02
  20.369  0.1432E+01  0.3946E+02
  20.379  0.1435E+01  0.3947E+02
  20.389  0.1439E+01  0.3949E+02
  20.399  0.1442E+01  0.3950E+02
  20.409  0.1445E+01  0.3952E+02
  20.419  0.1448E+01  0.3953E+02
  20.429  0.1452E+01  0.3955E+02
  20.439  0.1455E+01  0.3956E+02
  20.449  0.1458E+01  0.3958E+02
  20.459  0.1462E+01  0.3959E+02
  20.469  0.1465E+01  0.3961E+02
  20.479  0.1468E+01  0.3962E+02
  20.489  0.1471E+01  0.3963E+02
  20.499  0.1475E+01  0.3965E+02
  20.509  0.1478E+01  0.3966E+02
  20.519  0.1481E+01  0.3968E+02
  20.529  0.1484E+01  0.3969E+02
  20.539  0.1487E+01  0.3971E+02
  20.549  0.1491E+01  0.3972E+02
  20.559  0.1494E+01  0.3974E+02
  20.569  0.1497E+01  0.3975E+02
  20.579  0.1500E+01  0.3977E+02
  20.589  0.1503E+01  0.3978E+02
  20.599  0.1506E+01  0.3980E+02
  20.609  0.1508E+01  0.3981E+02
  20.619  0.1511E+01  0.3983E+02
  20.629  0.1514E+01  0.3984E+02
  20.639  0.1517E+01  0.3986E+02
  20.649  0.1519E+01  0.3987E+02
  20.659  0.1522E+01  0.3989E+02
  20.669  0.1524E+01  0.3991E+02
  20.679  0.1527E+01  0.3992E+02
  20.689  0.1529E+01  0.3994E+02
  20.699  0.1532E+01  0.3995E+02
  20.709  0.1534E+01  0.3997E+02
  20.719  0.1536E+01  0.3998E+02
  20.729  0.1538E+01  0.4000E+02
  20.739  0.1540E+01  0.4001E+02
  20.749  0.1542E+01  0.4003E+02
  20.759  0.1544E+01  0.4004E+02
  20.769  0.1546E+01  0.4006E+02
  20.779  0.1548E+01  0.4007E+02
  20.789  0.1549E+01  0.4009E+02
  20.799  0.1551E+01  0.4011E+02
  20.809  0.1552E+01  0.4012E+02
  20.819  0.1554E+01  0.4014E+02
  20.829  0.1555E+01  0.4015E+02
  20.839  0.1556E+01  0.4017E+02
  20.849  0.1557E+01  0.4018E+02
  20.859  0.1559E+01  0.4020E+02
  20.869  0.1560E+01  0.4021E+02
  20.879  0.1560E+01  0.4023E+02
  20.889  0.1561E+01  0.4025E+02
  20.899  0.1562E+01  0.4026E+02
  20.909  0.1563E+01  0.4028E+02
  20.919  0.1563E+01  0.4029E+02
  20.929  0.1564E+01  0.4031E+02
  20.939  0.1564E+01  0.4032E+02
  20.949  0.1565E+01  0.4034E+02
  20.959  0.1565E+01  0.4035E+02
  20.969  0.1565E+01  0.4037E+02
  20.979  0.1565E+01  0.4039E+02
  20.989  0.1565E+01  0.4040E+02
  20.999  0.1566E+01  0.4042E+02
  21.009  0.1565E+01  0.4043E+02
  21.019  0.1565E+01  0.4045E+02
  21.029  0.1565E+01  0.4046E+02
  21.039  0.1565E+01  0.4048E+02
  21.049  0.1565E+01  0.4050E+02
  21.059  0.1564E+01  0.4051E+02
  21.069  0.1564E+01  0.4053E+02
  21.079  0.1564E+01  0.4054E+02
  21.089  0.1563E+01  0.4056E+02
  21.099  0.1562E+01  0.4057E+02
  21.109  0.1562E+01  0.4059E+02
  21.119  0.1561E+01  0.4061E+02
  21.129  0.1561E+01  0.4062E+02
  21.139  0.1560E+01  0.4064E+02
  21.149  0.1559E+01  0.4065E+02
  21.159  0.1558E+01  0.4067E+02
  21.169  0.1558E+01  0.4068E+02
  21.179  0.1557E+01  0.4070E+02
  21.189  0.1556E+01  0.4071E+02
  21.199  0.1555E+01  0.4073E+02
  21.209  0.1554E+01  0.4075E+02
  21.219  0.1553E+01  0.4076E+02
  21.229  0.1552E+01  0.4078E+02
  21.239  0.1551E+01  0.4079E+02
  21.249  0.1550E+01  0.4081E+02
  21.259  0.1549E+01  0.4082E+02
  21.269  0.1548E+01  0.4084E+02
  21.279  0.1547E+01  0.4085E+02
  21.289  0.1546E+01  0.4087E+02
  21.299  0.1545E+01  0.4088E+02
  21.309  0.1544E+01  0.4090E+02
  21.319  0.1544E+01  0.4092E+02
  21.329  0.1543E+01  0.4093E+02
  21.339  0.1542E+01  0.4095E+02
  21.349  0.1541E+01  0.4096E+02
  21.359  0.1540E+01  0.4098E+02
  21.369  0.1539E+01  0.4099E+02
  21.379  0.1538E+01  0.4101E+02
  21.389  0.1537E+01  0.4102E+02
  21.399  0.1536E+01  0.4104E+02
  21.409  0.1535E+01  0.4105E+02
  21.419  0.1534E+01  0.4107E+02
  21.429  0.1534E+01  0.4108E+02
  21.439  0.1533E+01  0.4110E+02
  21.449  0.1532E+01  0.4112E+02
  21.459  0.1531E+01  0.4113E+02
  21.469  0.1531E+01  0.4115E+02
  21.479  0.1530E+01  0.4116E+02
  21.489  0.1529E+01  0.4118E+02
  21.499  0.1529E+01  0.4119E+02
  21.509  0.1528E+01  0.4121E+02
  21.519  0.1528E+01  0.4122E+02
  21.529  0.1527E+01  0.4124E+02
  21.539  0.1527E+01  0.4125E+02
  21.549  0.1526E+01  0.4127E+02
  21.559  0.1526E+01  0.4128E+02
  21.569  0.1525E+01  0.4130E+02
  21.579  0.1525E+01  0.4131E+02
  21.589  0.1525E+01  0.4133E+02
  21.599  0.1524E+01  0.4134E+02
  21.609  0.1524E+01  0.4136E+02
  21.619  0.1524E+01  0.4137E+02
  21.629  0.1524E+01  0.4139E+02
  21.639  0.1523E+01  0.4141E+02
  21.649  0.1523E+01  0.4142E+02
  21.659  0.1523E+01  0.4144E+02
  21.669  0.1523E+01  0.4145E+02
  21.679  0.1523E+01  0.4147E+02
  21.689  0.1523E+01  0.4148E+02
  21.699  0.1523E+01  0.4150E+02
  21.709  0.1523E+01  0.4151E+02
  21.719  0.1523E+01  0.4153E+02
  21.729  0.1524E+01  0.4154E+02
  21.739  0.1524E+01  0.4156E+02
  21.749  0.1524E+01  0.4157E+02
  21.759  0.1524E+01  0.4159E+02
  21.769  0.1524E+01  0.4160E+02
  21.779  0.1525E+01  0.4162E+02
  21.789  0.1525E+01  0.4163E+02
  21.799  0.1525E+01  0.4165E+02
  21.809  0.1526E+01  0.4166E+02
  21.819  0.1526E+01  0.4168E+02
  21.829  0.1527E+01  0.4170E+02
  21.839  0.1527E+01  0.4171E+02
  21.849  0.1528E+01  0.4173E+02
  21.859  0.1528E+01  0.4174E+02
  21.869  0.1529E+01  0.4176E+02
  21.879  0.1529E+01  0.4177E+02
  21.889  0.1530E+01  0.4179E+02
  21.899  0.1531E+01  0.4180E+02
  21.909  0.1531E+01  0.4182E+02
  21.919  0.1532E+01  0.4183E+02
  21.929  0.1533E+01  0.4185E+02
  21.939  0.1533E+01  0.4186E+02
  21.949  0.1534E+01  0.4188E+02
  21.959  0.1535E+01  0.4189E+02
  21.969  0.1536E+01  0.4191E+02
  21.979  0.1537E+01  0.4192E+02
  21.989  0.1537E+01  0.4194E+02
  21.999  0.1538E+01  0.4196E+02
  22.009  0.1539E+01  0.4197E+02
  22.019  0.1540E+01  0.4199E+02
  22.029  0.1541E+01  0.4200E+02
  22.039  0.1542E+01  0.4202E+02
  22.049  0.1543E+01  0.4203E+02
  22.059  0.1544E+01  0.4205E+02
  22.069  0.1545E+01  0.4206E+02
  22.079  0.1546E+01  0.4208E+02
  22.089  0.1548E+01  0.4209E+02
  22.099  0.1549E+01  0.4211E+02
  22.109  0.1550E+01  0.4213E+02
  22.119  0.1551E+01  0.4214E+02
  22.129  0.1552E+01  0.4216E+02
  22.139  0.1554E+01  0.4217E+02
  22.149  0.1555E+01  0.4219E+02
  22.159  0.1556E+01  0.4220E+02
  22.169  0.1558E+01  0.4222E+02
  22.179  0.1559E+01  0.4223E+02
  22.189  0.1561E+01  0.4225E+02
  22.199  0.1562E+01  0.4227E+02
  22.209  0.1564E+01  0.4228E+02
  22.219  0.1565E+01  0.4230E+02
  22.229  0.1567E+01  0.4231E+02
  22.239  0.1569E+01  0.4233E+02
  22.249  0.1570E+01  0.4234E+02
  22.259  0.1572E+01  0.4236E+02
  22.269  0.1574E+01  0.4238E+02
  22.279  0.1576E+01  0.4239E+02
  22.289  0.1577E+01  0.4241E+02
  22.299  0.1579E+01  0.4242E+02
  22.309  0.1581E+01  0.4244E+02
  22.319  0.1583E+01  0.4245E+02
  22.329  0.1585E+01  0.4247E+02
  22.339  0.1587E+01  0.4249E+02
  22.349  0.1589E+01  0.4250E+02
  22.359  0.1591E+01  0.4252E+02
  22.369  0.1593E+01  0.4253E+02
  22.379  0.1596E+01  0.4255E+02
  22.389  0.1598E+01  0.4257E+02
  22.399  0.1600E+01  0.4258E+02
  22.409  0.1603E+01  0.4260E+02
  22.419  0.1605E+01  0.4261E+02
  22.429  0.1607E+01  0.4263E+02
  22.439  0.1610E+01  0.4265E+02
  22.449  0.1612E+01  0.4266E+02
  22.459  0.1615E+01  0.4268E+02
  22.469  0.1617E+01  0.4269E+02
  22.479  0.1620E+01  0.4271E+02
  22.489  0.1623E+01  0.4273E+02
  22.499  0.1625E+01  0.4274E+02
  22.509  0.1628E+01  0.4276E+02
  22.519  0.1631E+01  0.4278E+02
  22.529  0.1634E+01  0.4279E+02
  22.539  0.1636E+01  0.4281E+02
  22.549  0.1639E+01  0.4282E+02
  22.559  0.1642E+01  0.4284E+02
  22.569  0.1645E+01  0.4286E+02
  22.579  0.1648E+01  0.4287E+02
  22.589  0.1651E+01  0.4289E+02
  22.599  0.1654E+01  0.4291E+02
  22.609  0.1657E+01  0.4292E+02
  22.619  0.1660E+01  0.4294E+02
  22.629  0.1663E+01  0.4296E+02
  22.639  0.1666E+01  0.4297E+02
  22.649  0.1670E+01  0.4299E+02
  22.659  0.1673E+01  0.4301E+02
  22.669  0.1676E+01  0.4302E+02
  22.679  0.1679E+01  0.4304E+02
  22.689  0.1683E+01  0.4306E+02
  22.699  0.1686E+01  0.4307E+02
  22.709  0.1689E+01  0.4309E+02
  22.719  0.1692E+01  0.4311E+02
  22.729  0.1696E+01  0.4312E+02
  22.739  0.1699E+01  0.4314E+02
  22.749  0.1702E+01  0.4316E+02
  22.759  0.1706E+01  0.4318E+02
  22.769  0.1709E+01  0.4319E+02
  22.779  0.1712E+01  0.4321E+02
  22.789  0.1716E+01  0.4323E+02
  22.799  0.1719E+01  0.4324E+02
  22.809  0.1722E+01  0.4326E+02
  22.819  0.1725E+01  0.4328E+02
  22.829  0.1729E+01  0.4330E+02
  22.839  0.1732E+01  0.4331E+02
  22.849  0.1735E+01  0.4333E+02
  22.859  0.1739E+01  0.4335E+02
  22.869  0.1742E+01  0.4337E+02
  22.879  0.1745E+01  0.4338E+02
  22.889  0.1748E+01  0.4340E+02
  22.899  0.1751E+01  0.4342E+02
  22.909  0.1755E+01  0.4344E+02
  22.919  0.1758E+01  0.4345E+02
  22.929  0.1761E+01  0.4347E+02
  22.939  0.1764E+01  0.4349E+02
  22.949  0.1767E+01  0.4351E+02
  22.959  0.1770E+01  0.4352E+02
  22.969  0.1773E+01  0.4354E+02
  22.979  0.1776E+01  0.4356E+02
  22.989  0.1778E+01  0.4358E+02
  22.999  0.1781E+01  0.4360E+02
  23.009  0.1784E+01  0.4361E+02
  23.019  0.1787E+01  0.4363E+02
  23.029  0.1789E+01  0.4365E+02
  23.039  0.1792E+01  0.4367E+02
  23.049  0.1794E+01  0.4368E+02
  23.059  0.1797E+01  0.4370E+02
  23.069  0.1799E+01  0.4372E+02
  23.079  0.1802E+01  0.4374E+02
  23.089  0.1804E+01  0.4376E+02
  23.099  0.1806E+01  0.4377E+02
  23.109  0.1808E+01  0.4379E+02
  23.119  0.1810E+01  0.4381E+02
  23.129  0.1812E+01  0.4383E+02
  23.139  0.1814E+01  0.4385E+02
  23.149  0.1816E+01  0.4387E+02
  23.159  0.1818E+01  0.4388E+02
  23.169  0.1820E+01  0.4390E+02
  23.179  0.1821E+01  0.4392E+02
  23.189  0.1823E+01  0.4394E+02
  23.199  0.1824E+01  0.4396E+02
  23.209  0.1826E+01  0.4397E+02
  23.219  0.1827E+01  0.4399E+02
  23.229  0.1828E+01  0.4401E+02
  23.239  0.1829E+01  0.4403E+02
  23.249  0.1830E+01  0.4405E+02
  23.259  0.1831E+01  0.4407E+02
  23.269  0.1832E+01  0.4408E+02
  23.279  0.1833E+01  0.4410E+02
  23.289  0.1834E+01  0.4412E+02
  23.299  0.1834E+01  0.4414E+02
  23.309  0.1835E+01  0.4416E+02
  23.319  0.1835E+01  0.4418E+02
  23.329  0.1835E+01  0.4419E+02
  23.339  0.1836E+01  0.4421E+02
  23.349  0.1836E+01  0.4423E+02
  23.359  0.1836E+01  0.4425E+02
  23.369  0.1836E+01  0.4427E+02
  23.379  0.1836E+01  0.4429E+02
  23.389  0.1835E+01  0.4430E+02
  23.399  0.1835E+01  0.4432E+02
  23.409  0.1835E+01  0.4434E+02
  23.419  0.1834E+01  0.4436E+02
  23.429  0.1834E+01  0.4438E+02
  23.439  0.1833E+01  0.4440E+02
  23.449  0.1832E+01  0.4441E+02
  23.459  0.1832E+01  0.4443E+02
  23.469  0.1831E+01  0.4445E+02
  23.479  0.1830E+01  0.4447E+02
  23.489  0.1829E+01  0.4449E+02
  23.499  0.1827E+01  0.4451E+02
  23.509  0.1826E+01  0.4452E+02
  23.519  0.1825E+01  0.4454E+02
  23.529  0.1824E+01  0.4456E+02
  23.539  0.1822E+01  0.4458E+02
  23.549  0.1821E+01  0.4460E+02
  23.559  0.1819E+01  0.4462E+02
  23.569  0.1817E+01  0.4463E+02
  23.579  0.1816E+01  0.4465E+02
  23.589  0.1814E+01  0.4467E+02
  23.599  0.1812E+01  0.4469E+02
  23.609  0.1810E+01  0.4471E+02
  23.619  0.1808E+01  0.4472E+02
  23.629  0.1806E+01  0.4474E+02
  23.639  0.1804E+01  0.4476E+02
  23.649  0.1802E+01  0.4478E+02
  23.659  0.1799E+01  0.4480E+02
  23.669  0.1797E+01  0.4481E+02
  23.679  0.1795E+01  0.4483E+02
  23.689  0.1792E+01  0.4485E+02
  23.699  0.1790E+01  0.4487E+02
  23.709  0.1787E+01  0.4489E+02
  23.719  0.1785E+01  0.4490E+02
  23.729  0.1782E+01  0.4492E+02
  23.739  0.1779E+01  0.4494E+02
  23.749  0.1777E+01  0.4496E+02
  23.759  0.1774E+01  0.4497E+02
  23.769  0.1771E+01  0.4499E+02
  23.779  0.1768E+01  0.4501E+02
  23.789  0.1765E+01  0.4503E+02
  23.799  0.1762E+01  0.4505E+02
  23.809  0.1759E+01  0.4506E+02
  23.819  0.1756E+01  0.4508E+02
  23.829  0.1753E+01  0.4510E+02
  23.839  0.1750E+01  0.4512E+02
  23.849  0.1747E+01  0.4513E+02
  23.859  0.1744E+01  0.4515E+02
  23.869  0.1740E+01  0.4517E+02
  23.879  0.1737E+01  0.4519E+02
  23.889  0.1734E+01  0.4520E+02
  23.899  0.1730E+01  0.4522E+02
  23.909  0.1727E+01  0.4524E+02
  23.919  0.1724E+01  0.4525E+02
  23.929  0.1720E+01  0.4527E+02
  23.939  0.1716E+01  0.4529E+02
  23.949  0.1713E+01  0.4531E+02
  23.959  0.1709E+01  0.4532E+02
  23.969  0.1706E+01  0.4534E+02
  23.979  0.1702E+01  0.4536E+02
  23.989  0.1698E+01  0.4537E+02
  23.999  0.1694E+01  0.4539E+02
  24.009  0.1691E+01  0.4541E+02
  24.019  0.1687E+01  0.4542E+02
  24.029  0.1683E+01  0.4544E+02
  24.039  0.1679E+01  0.4546E+02
  24.049  0.1675E+01  0.4548E+02
  24.059  0.1671E+01  0.4549E+02
  24.069  0.1667E+01  0.4551E+02
  24.079  0.1663E+01  0.4553E+02
  24.089  0.1659E+01  0.4554E+02
  24.099  0.1654E+01  0.4556E+02
  24.109  0.1650E+01  0.4557E+02
  24.119  0.1646E+01  0.4559E+02
  24.129  0.1641E+01  0.4561E+02
  24.139  0.1637E+01  0.4562E+02
  24.149  0.1632E+01  0.4564E+02
  24.159  0.1628E+01  0.4566E+02
  24.169  0.1623E+01  0.4567E+02
  24.179  0.1618E+01  0.4569E+02
  24.189  0.1614E+01  0.4571E+02
  24.199  0.1609E+01  0.4572E+02
  24.209  0.1604E+01  0.4574E+02
  24.219  0.1599E+01  0.4575E+02
  24.229  0.1594E+01  0.4577E+02
  24.239  0.1589E+01  0.4579E+02
  24.249  0.1584E+01  0.4580E+02
  24.259  0.1579E+01  0.4582E+02
  24.269  0.1573E+01  0.4583E+02
  24.279  0.1568E+01  0.4585E+02
  24.289  0.1562E+01  0.4586E+02
  24.299  0.1557E+01  0.4588E+02
