#  E (eV)   dos(E)     Int dos(E) EFermi =  10.812 eV
 -12.433  0.3278E-03  0.3278E-05
 -12.423  0.3689E-03  0.6967E-05
 -12.413  0.4149E-03  0.1112E-04
 -12.403  0.4663E-03  0.1578E-04
 -12.393  0.5238E-03  0.2102E-04
 -12.383  0.5880E-03  0.2690E-04
 -12.373  0.6596E-03  0.3349E-04
 -12.363  0.7395E-03  0.4089E-04
 -12.353  0.8284E-03  0.4917E-04
 -12.343  0.9275E-03  0.5845E-04
 -12.333  0.1038E-02  0.6883E-04
 -12.323  0.1160E-02  0.8043E-04
 -12.313  0.1297E-02  0.9340E-04
 -12.303  0.1448E-02  0.1079E-03
 -12.293  0.1616E-02  0.1240E-03
 -12.283  0.1802E-02  0.1421E-03
 -12.273  0.2009E-02  0.1622E-03
 -12.263  0.2238E-02  0.1845E-03
 -12.253  0.2491E-02  0.2094E-03
 -12.243  0.2771E-02  0.2372E-03
 -12.233  0.3080E-02  0.2680E-03
 -12.223  0.3422E-02  0.3022E-03
 -12.213  0.3800E-02  0.3402E-03
 -12.203  0.4216E-02  0.3823E-03
 -12.193  0.4675E-02  0.4291E-03
 -12.183  0.5180E-02  0.4809E-03
 -12.173  0.5737E-02  0.5383E-03
 -12.163  0.6349E-02  0.6017E-03
 -12.153  0.7022E-02  0.6720E-03
 -12.143  0.7762E-02  0.7496E-03
 -12.133  0.8573E-02  0.8353E-03
 -12.123  0.9464E-02  0.9300E-03
 -12.113  0.1044E-01  0.1034E-02
 -12.103  0.1151E-01  0.1149E-02
 -12.093  0.1268E-01  0.1276E-02
 -12.083  0.1396E-01  0.1416E-02
 -12.073  0.1536E-01  0.1570E-02
 -12.063  0.1689E-01  0.1738E-02
 -12.053  0.1856E-01  0.1924E-02
 -12.043  0.2039E-01  0.2128E-02
 -12.033  0.2238E-01  0.2352E-02
 -12.023  0.2454E-01  0.2597E-02
 -12.013  0.2690E-01  0.2866E-02
 -12.003  0.2947E-01  0.3161E-02
 -11.993  0.3226E-01  0.3484E-02
 -11.983  0.3529E-01  0.3836E-02
 -11.973  0.3859E-01  0.4222E-02
 -11.963  0.4216E-01  0.4644E-02
 -11.953  0.4604E-01  0.5104E-02
 -11.943  0.5024E-01  0.5607E-02
 -11.933  0.5478E-01  0.6154E-02
 -11.923  0.5970E-01  0.6752E-02
 -11.913  0.6503E-01  0.7402E-02
 -11.903  0.7078E-01  0.8110E-02
 -11.893  0.7699E-01  0.8879E-02
 -11.883  0.8369E-01  0.9716E-02
 -11.873  0.9092E-01  0.1063E-01
 -11.863  0.9871E-01  0.1161E-01
 -11.853  0.1071E+00  0.1268E-01
 -11.843  0.1161E+00  0.1384E-01
 -11.833  0.1258E+00  0.1510E-01
 -11.823  0.1363E+00  0.1647E-01
 -11.813  0.1475E+00  0.1794E-01
 -11.803  0.1595E+00  0.1953E-01
 -11.793  0.1724E+00  0.2126E-01
 -11.783  0.1862E+00  0.2312E-01
 -11.773  0.2010E+00  0.2513E-01
 -11.763  0.2168E+00  0.2730E-01
 -11.753  0.2337E+00  0.2964E-01
 -11.743  0.2518E+00  0.3215E-01
 -11.733  0.2712E+00  0.3487E-01
 -11.723  0.2918E+00  0.3778E-01
 -11.713  0.3138E+00  0.4092E-01
 -11.703  0.3372E+00  0.4429E-01
 -11.693  0.3622E+00  0.4792E-01
 -11.683  0.3887E+00  0.5180E-01
 -11.673  0.4169E+00  0.5597E-01
 -11.663  0.4469E+00  0.6044E-01
 -11.653  0.4788E+00  0.6523E-01
 -11.643  0.5126E+00  0.7035E-01
 -11.633  0.5484E+00  0.7584E-01
 -11.623  0.5864E+00  0.8170E-01
 -11.613  0.6266E+00  0.8797E-01
 -11.603  0.6691E+00  0.9466E-01
 -11.593  0.7141E+00  0.1018E+00
 -11.583  0.7616E+00  0.1094E+00
 -11.573  0.8118E+00  0.1175E+00
 -11.563  0.8647E+00  0.1262E+00
 -11.553  0.9204E+00  0.1354E+00
 -11.543  0.9792E+00  0.1452E+00
 -11.533  0.1041E+01  0.1556E+00
 -11.523  0.1106E+01  0.1666E+00
 -11.513  0.1174E+01  0.1784E+00
 -11.503  0.1246E+01  0.1909E+00
 -11.493  0.1322E+01  0.2041E+00
 -11.483  0.1401E+01  0.2181E+00
 -11.473  0.1484E+01  0.2329E+00
 -11.463  0.1570E+01  0.2486E+00
 -11.453  0.1661E+01  0.2652E+00
 -11.443  0.1756E+01  0.2828E+00
 -11.433  0.1855E+01  0.3013E+00
 -11.423  0.1959E+01  0.3209E+00
 -11.413  0.2067E+01  0.3416E+00
 -11.403  0.2179E+01  0.3634E+00
 -11.393  0.2297E+01  0.3864E+00
 -11.383  0.2419E+01  0.4105E+00
 -11.373  0.2546E+01  0.4360E+00
 -11.363  0.2677E+01  0.4628E+00
 -11.353  0.2814E+01  0.4909E+00
 -11.343  0.2957E+01  0.5205E+00
 -11.333  0.3104E+01  0.5515E+00
 -11.323  0.3257E+01  0.5841E+00
 -11.313  0.3415E+01  0.6182E+00
 -11.303  0.3578E+01  0.6540E+00
 -11.293  0.3747E+01  0.6915E+00
 -11.283  0.3921E+01  0.7307E+00
 -11.273  0.4101E+01  0.7717E+00
 -11.263  0.4287E+01  0.8146E+00
 -11.253  0.4478E+01  0.8593E+00
 -11.243  0.4674E+01  0.9061E+00
 -11.233  0.4876E+01  0.9548E+00
 -11.223  0.5084E+01  0.1006E+01
 -11.213  0.5297E+01  0.1059E+01
 -11.203  0.5516E+01  0.1114E+01
 -11.193  0.5740E+01  0.1171E+01
 -11.183  0.5970E+01  0.1231E+01
 -11.173  0.6205E+01  0.1293E+01
 -11.163  0.6445E+01  0.1357E+01
 -11.153  0.6690E+01  0.1424E+01
 -11.143  0.6940E+01  0.1494E+01
 -11.133  0.7194E+01  0.1566E+01
 -11.123  0.7454E+01  0.1640E+01
 -11.113  0.7718E+01  0.1717E+01
 -11.103  0.7986E+01  0.1797E+01
 -11.093  0.8259E+01  0.1880E+01
 -11.083  0.8536E+01  0.1965E+01
 -11.073  0.8816E+01  0.2053E+01
 -11.063  0.9100E+01  0.2144E+01
 -11.053  0.9387E+01  0.2238E+01
 -11.043  0.9676E+01  0.2335E+01
 -11.033  0.9969E+01  0.2435E+01
 -11.023  0.1026E+02  0.2537E+01
 -11.013  0.1056E+02  0.2643E+01
 -11.003  0.1086E+02  0.2752E+01
 -10.993  0.1116E+02  0.2863E+01
 -10.983  0.1146E+02  0.2978E+01
 -10.973  0.1176E+02  0.3095E+01
 -10.963  0.1207E+02  0.3216E+01
 -10.953  0.1237E+02  0.3340E+01
 -10.943  0.1267E+02  0.3467E+01
 -10.933  0.1297E+02  0.3596E+01
 -10.923  0.1328E+02  0.3729E+01
 -10.913  0.1357E+02  0.3865E+01
 -10.903  0.1387E+02  0.4003E+01
 -10.893  0.1417E+02  0.4145E+01
 -10.883  0.1446E+02  0.4290E+01
 -10.873  0.1475E+02  0.4437E+01
 -10.863  0.1503E+02  0.4588E+01
 -10.853  0.1531E+02  0.4741E+01
 -10.843  0.1559E+02  0.4897E+01
 -10.833  0.1586E+02  0.5055E+01
 -10.823  0.1613E+02  0.5217E+01
 -10.813  0.1639E+02  0.5380E+01
 -10.803  0.1664E+02  0.5547E+01
 -10.793  0.1689E+02  0.5716E+01
 -10.783  0.1713E+02  0.5887E+01
 -10.773  0.1737E+02  0.6061E+01
 -10.763  0.1759E+02  0.6237E+01
 -10.753  0.1781E+02  0.6415E+01
 -10.743  0.1802E+02  0.6595E+01
 -10.733  0.1822E+02  0.6777E+01
 -10.723  0.1841E+02  0.6961E+01
 -10.713  0.1859E+02  0.7147E+01
 -10.703  0.1876E+02  0.7335E+01
 -10.693  0.1892E+02  0.7524E+01
 -10.683  0.1907E+02  0.7714E+01
 -10.673  0.1921E+02  0.7907E+01
 -10.663  0.1934E+02  0.8100E+01
 -10.653  0.1945E+02  0.8294E+01
 -10.643  0.1956E+02  0.8490E+01
 -10.633  0.1965E+02  0.8686E+01
 -10.623  0.1973E+02  0.8884E+01
 -10.613  0.1980E+02  0.9082E+01
 -10.603  0.1986E+02  0.9280E+01
 -10.593  0.1991E+02  0.9480E+01
 -10.583  0.1994E+02  0.9679E+01
 -10.573  0.1996E+02  0.9878E+01
 -10.563  0.1997E+02  0.1008E+02
 -10.553  0.1996E+02  0.1028E+02
 -10.543  0.1994E+02  0.1048E+02
 -10.533  0.1991E+02  0.1068E+02
 -10.523  0.1987E+02  0.1088E+02
 -10.513  0.1982E+02  0.1107E+02
 -10.503  0.1975E+02  0.1127E+02
 -10.493  0.1967E+02  0.1147E+02
 -10.483  0.1958E+02  0.1166E+02
 -10.473  0.1948E+02  0.1186E+02
 -10.463  0.1937E+02  0.1205E+02
 -10.453  0.1924E+02  0.1224E+02
 -10.443  0.1910E+02  0.1244E+02
 -10.433  0.1896E+02  0.1262E+02
 -10.423  0.1880E+02  0.1281E+02
 -10.413  0.1863E+02  0.1300E+02
 -10.403  0.1845E+02  0.1318E+02
 -10.393  0.1826E+02  0.1337E+02
 -10.383  0.1807E+02  0.1355E+02
 -10.373  0.1786E+02  0.1373E+02
 -10.363  0.1764E+02  0.1390E+02
 -10.353  0.1742E+02  0.1408E+02
 -10.343  0.1719E+02  0.1425E+02
 -10.333  0.1695E+02  0.1442E+02
 -10.323  0.1670E+02  0.1458E+02
 -10.313  0.1645E+02  0.1475E+02
 -10.303  0.1619E+02  0.1491E+02
 -10.293  0.1593E+02  0.1507E+02
 -10.283  0.1566E+02  0.1523E+02
 -10.273  0.1538E+02  0.1538E+02
 -10.263  0.1510E+02  0.1553E+02
 -10.253  0.1482E+02  0.1568E+02
 -10.243  0.1453E+02  0.1583E+02
 -10.233  0.1424E+02  0.1597E+02
 -10.223  0.1394E+02  0.1611E+02
 -10.213  0.1365E+02  0.1624E+02
 -10.203  0.1335E+02  0.1638E+02
 -10.193  0.1305E+02  0.1651E+02
 -10.183  0.1274E+02  0.1663E+02
 -10.173  0.1244E+02  0.1676E+02
 -10.163  0.1214E+02  0.1688E+02
 -10.153  0.1183E+02  0.1700E+02
 -10.143  0.1153E+02  0.1711E+02
 -10.133  0.1123E+02  0.1723E+02
 -10.123  0.1093E+02  0.1734E+02
 -10.113  0.1063E+02  0.1744E+02
 -10.103  0.1033E+02  0.1755E+02
 -10.093  0.1004E+02  0.1765E+02
 -10.083  0.9742E+01  0.1774E+02
 -10.073  0.9451E+01  0.1784E+02
 -10.063  0.9163E+01  0.1793E+02
 -10.053  0.8878E+01  0.1802E+02
 -10.043  0.8597E+01  0.1810E+02
 -10.033  0.8319E+01  0.1819E+02
 -10.023  0.8045E+01  0.1827E+02
 -10.013  0.7776E+01  0.1835E+02
 -10.003  0.7510E+01  0.1842E+02
  -9.993  0.7250E+01  0.1849E+02
  -9.983  0.6993E+01  0.1856E+02
  -9.973  0.6742E+01  0.1863E+02
  -9.963  0.6496E+01  0.1870E+02
  -9.953  0.6254E+01  0.1876E+02
  -9.943  0.6018E+01  0.1882E+02
  -9.933  0.5787E+01  0.1888E+02
  -9.923  0.5562E+01  0.1893E+02
  -9.913  0.5342E+01  0.1899E+02
  -9.903  0.5127E+01  0.1904E+02
  -9.893  0.4918E+01  0.1909E+02
  -9.883  0.4714E+01  0.1913E+02
  -9.873  0.4516E+01  0.1918E+02
  -9.863  0.4324E+01  0.1922E+02
  -9.853  0.4137E+01  0.1926E+02
  -9.843  0.3956E+01  0.1930E+02
  -9.833  0.3780E+01  0.1934E+02
  -9.823  0.3610E+01  0.1938E+02
  -9.813  0.3445E+01  0.1941E+02
  -9.803  0.3286E+01  0.1944E+02
  -9.793  0.3132E+01  0.1947E+02
  -9.783  0.2984E+01  0.1950E+02
  -9.773  0.2840E+01  0.1953E+02
  -9.763  0.2702E+01  0.1956E+02
  -9.753  0.2569E+01  0.1959E+02
  -9.743  0.2441E+01  0.1961E+02
  -9.733  0.2318E+01  0.1963E+02
  -9.723  0.2200E+01  0.1966E+02
  -9.713  0.2086E+01  0.1968E+02
  -9.703  0.1977E+01  0.1970E+02
  -9.693  0.1873E+01  0.1971E+02
  -9.683  0.1773E+01  0.1973E+02
  -9.673  0.1677E+01  0.1975E+02
  -9.663  0.1585E+01  0.1976E+02
  -9.653  0.1498E+01  0.1978E+02
  -9.643  0.1414E+01  0.1979E+02
  -9.633  0.1335E+01  0.1981E+02
  -9.623  0.1258E+01  0.1982E+02
  -9.613  0.1186E+01  0.1983E+02
  -9.603  0.1117E+01  0.1984E+02
  -9.593  0.1051E+01  0.1985E+02
  -9.583  0.9888E+00  0.1986E+02
  -9.573  0.9295E+00  0.1987E+02
  -9.563  0.8732E+00  0.1988E+02
  -9.553  0.8197E+00  0.1989E+02
  -9.543  0.7691E+00  0.1990E+02
  -9.533  0.7211E+00  0.1990E+02
  -9.523  0.6757E+00  0.1991E+02
  -9.513  0.6328E+00  0.1992E+02
  -9.503  0.5922E+00  0.1992E+02
  -9.493  0.5538E+00  0.1993E+02
  -9.483  0.5176E+00  0.1993E+02
  -9.473  0.4835E+00  0.1994E+02
  -9.463  0.4513E+00  0.1994E+02
  -9.453  0.4210E+00  0.1995E+02
  -9.443  0.3925E+00  0.1995E+02
  -9.433  0.3657E+00  0.1996E+02
  -9.423  0.3405E+00  0.1996E+02
  -9.413  0.3168E+00  0.1996E+02
  -9.403  0.2946E+00  0.1996E+02
  -9.393  0.2738E+00  0.1997E+02
  -9.383  0.2543E+00  0.1997E+02
  -9.373  0.2360E+00  0.1997E+02
  -9.363  0.2189E+00  0.1997E+02
  -9.353  0.2029E+00  0.1998E+02
  -9.343  0.1880E+00  0.1998E+02
  -9.333  0.1740E+00  0.1998E+02
  -9.323  0.1610E+00  0.1998E+02
  -9.313  0.1489E+00  0.1998E+02
  -9.303  0.1376E+00  0.1998E+02
  -9.293  0.1270E+00  0.1999E+02
  -9.283  0.1172E+00  0.1999E+02
  -9.273  0.1081E+00  0.1999E+02
  -9.263  0.9965E-01  0.1999E+02
  -9.253  0.9178E-01  0.1999E+02
  -9.243  0.8449E-01  0.1999E+02
  -9.233  0.7772E-01  0.1999E+02
  -9.223  0.7145E-01  0.1999E+02
  -9.213  0.6564E-01  0.1999E+02
  -9.203  0.6027E-01  0.1999E+02
  -9.193  0.5530E-01  0.1999E+02
  -9.183  0.5071E-01  0.1999E+02
  -9.173  0.4647E-01  0.2000E+02
  -9.163  0.4255E-01  0.2000E+02
  -9.153  0.3895E-01  0.2000E+02
  -9.143  0.3562E-01  0.2000E+02
  -9.133  0.3256E-01  0.2000E+02
  -9.123  0.2974E-01  0.2000E+02
  -9.113  0.2715E-01  0.2000E+02
  -9.103  0.2477E-01  0.2000E+02
  -9.093  0.2258E-01  0.2000E+02
  -9.083  0.2058E-01  0.2000E+02
  -9.073  0.1874E-01  0.2000E+02
  -9.063  0.1705E-01  0.2000E+02
  -9.053  0.1550E-01  0.2000E+02
  -9.043  0.1409E-01  0.2000E+02
  -9.033  0.1280E-01  0.2000E+02
  -9.023  0.1161E-01  0.2000E+02
  -9.013  0.1053E-01  0.2000E+02
  -9.003  0.9549E-02  0.2000E+02
  -8.993  0.8651E-02  0.2000E+02
  -8.983  0.7832E-02  0.2000E+02
  -8.973  0.7086E-02  0.2000E+02
  -8.963  0.6406E-02  0.2000E+02
  -8.953  0.5789E-02  0.2000E+02
  -8.943  0.5227E-02  0.2000E+02
  -8.933  0.4717E-02  0.2000E+02
  -8.923  0.4254E-02  0.2000E+02
  -8.913  0.3834E-02  0.2000E+02
  -8.903  0.3453E-02  0.2000E+02
  -8.893  0.3108E-02  0.2000E+02
  -8.883  0.2796E-02  0.2000E+02
  -8.873  0.2513E-02  0.2000E+02
  -8.863  0.2258E-02  0.2000E+02
  -8.853  0.2027E-02  0.2000E+02
  -8.843  0.1819E-02  0.2000E+02
  -8.833  0.1631E-02  0.2000E+02
  -8.823  0.1461E-02  0.2000E+02
  -8.813  0.1309E-02  0.2000E+02
  -8.803  0.1171E-02  0.2000E+02
  -8.793  0.1047E-02  0.2000E+02
  -8.783  0.9361E-03  0.2000E+02
  -8.773  0.8361E-03  0.2000E+02
  -8.763  0.7463E-03  0.2000E+02
  -8.753  0.6657E-03  0.2000E+02
  -8.743  0.5935E-03  0.2000E+02
  -8.733  0.5287E-03  0.2000E+02
  -8.723  0.4707E-03  0.2000E+02
  -8.713  0.4188E-03  0.2000E+02
  -8.703  0.3724E-03  0.2000E+02
  -8.693  0.3309E-03  0.2000E+02
  -8.683  0.2939E-03  0.2000E+02
  -8.673  0.2608E-03  0.2000E+02
  -8.663  0.2313E-03  0.2000E+02
  -8.653  0.2050E-03  0.2000E+02
  -8.643  0.1816E-03  0.2000E+02
  -8.633  0.1607E-03  0.2000E+02
  -8.623  0.1422E-03  0.2000E+02
  -8.613  0.1257E-03  0.2000E+02
  -8.603  0.1110E-03  0.2000E+02
  -8.593  0.9804E-04  0.2000E+02
  -8.583  0.8650E-04  0.2000E+02
  -8.573  0.7627E-04  0.2000E+02
  -8.563  0.6721E-04  0.2000E+02
  -8.553  0.5919E-04  0.2000E+02
  -8.543  0.5209E-04  0.2000E+02
  -8.533  0.4581E-04  0.2000E+02
  -8.523  0.4026E-04  0.2000E+02
  -8.513  0.3536E-04  0.2000E+02
  -8.503  0.3104E-04  0.2000E+02
  -8.493  0.2723E-04  0.2000E+02
  -8.483  0.2387E-04  0.2000E+02
  -8.473  0.2091E-04  0.2000E+02
  -8.463  0.1831E-04  0.2000E+02
  -8.453  0.1602E-04  0.2000E+02
  -8.443  0.1401E-04  0.2000E+02
  -8.433  0.1224E-04  0.2000E+02
  -8.423  0.1069E-04  0.2000E+02
  -8.413  0.9328E-05  0.2000E+02
  -8.403  0.8135E-05  0.2000E+02
  -8.393  0.7090E-05  0.2000E+02
  -8.383  0.6175E-05  0.2000E+02
  -8.373  0.5375E-05  0.2000E+02
  -8.363  0.4676E-05  0.2000E+02
  -8.353  0.4065E-05  0.2000E+02
  -8.343  0.3531E-05  0.2000E+02
  -8.333  0.3066E-05  0.2000E+02
  -8.323  0.2660E-05  0.2000E+02
  -8.313  0.2306E-05  0.2000E+02
  -8.303  0.1998E-05  0.2000E+02
  -8.293  0.1730E-05  0.2000E+02
  -8.283  0.1497E-05  0.2000E+02
  -8.273  0.1295E-05  0.2000E+02
  -8.263  0.1119E-05  0.2000E+02
  -8.253  0.9666E-06  0.2000E+02
  -8.243  0.8343E-06  0.2000E+02
  -8.233  0.7197E-06  0.2000E+02
  -8.223  0.6204E-06  0.2000E+02
  -8.213  0.5344E-06  0.2000E+02
  -8.203  0.4601E-06  0.2000E+02
  -8.193  0.3958E-06  0.2000E+02
  -8.183  0.3403E-06  0.2000E+02
  -8.173  0.2924E-06  0.2000E+02
  -8.163  0.2511E-06  0.2000E+02
  -8.153  0.2154E-06  0.2000E+02
  -8.143  0.1848E-06  0.2000E+02
  -8.133  0.1583E-06  0.2000E+02
  -8.123  0.1356E-06  0.2000E+02
  -8.113  0.1161E-06  0.2000E+02
  -8.103  0.9927E-07  0.2000E+02
  -8.093  0.8485E-07  0.2000E+02
  -8.083  0.7248E-07  0.2000E+02
  -8.073  0.6187E-07  0.2000E+02
  -8.063  0.5278E-07  0.2000E+02
  -8.053  0.4500E-07  0.2000E+02
  -8.043  0.3834E-07  0.2000E+02
  -8.033  0.3264E-07  0.2000E+02
  -8.023  0.2778E-07  0.2000E+02
  -8.013  0.2362E-07  0.2000E+02
  -8.003  0.2007E-07  0.2000E+02
  -7.993  0.1704E-07  0.2000E+02
  -7.983  0.1447E-07  0.2000E+02
  -7.973  0.1227E-07  0.2000E+02
  -7.963  0.1040E-07  0.2000E+02
  -7.953  0.8808E-08  0.2000E+02
  -7.943  0.7455E-08  0.2000E+02
  -7.933  0.6307E-08  0.2000E+02
  -7.923  0.5331E-08  0.2000E+02
  -7.913  0.4504E-08  0.2000E+02
  -7.903  0.3803E-08  0.2000E+02
  -7.893  0.3208E-08  0.2000E+02
  -7.883  0.2705E-08  0.2000E+02
  -7.873  0.2279E-08  0.2000E+02
  -7.863  0.1919E-08  0.2000E+02
  -7.853  0.1615E-08  0.2000E+02
  -7.843  0.1358E-08  0.2000E+02
  -7.833  0.1142E-08  0.2000E+02
  -7.823  0.9588E-09  0.2000E+02
  -7.813  0.8047E-09  0.2000E+02
  -7.803  0.6750E-09  0.2000E+02
  -7.793  0.5658E-09  0.2000E+02
  -7.783  0.4739E-09  0.2000E+02
  -7.773  0.3968E-09  0.2000E+02
  -7.763  0.3319E-09  0.2000E+02
  -7.753  0.2775E-09  0.2000E+02
  -7.743  0.2319E-09  0.2000E+02
  -7.733  0.1936E-09  0.2000E+02
  -7.723  0.1615E-09  0.2000E+02
  -7.713  0.1347E-09  0.2000E+02
  -7.703  0.1122E-09  0.2000E+02
  -7.693  0.9347E-10  0.2000E+02
  -7.683  0.7779E-10  0.2000E+02
  -7.673  0.6470E-10  0.2000E+02
  -7.663  0.5377E-10  0.2000E+02
  -7.653  0.4467E-10  0.2000E+02
  -7.643  0.3707E-10  0.2000E+02
  -7.633  0.3075E-10  0.2000E+02
  -7.623  0.2549E-10  0.2000E+02
  -7.613  0.2112E-10  0.2000E+02
  -7.603  0.1749E-10  0.2000E+02
  -7.593  0.1447E-10  0.2000E+02
  -7.583  0.1196E-10  0.2000E+02
  -7.573  0.9883E-11  0.2000E+02
  -7.563  0.8161E-11  0.2000E+02
  -7.553  0.6734E-11  0.2000E+02
  -7.543  0.5553E-11  0.2000E+02
  -7.533  0.4577E-11  0.2000E+02
  -7.523  0.3769E-11  0.2000E+02
  -7.513  0.3102E-11  0.2000E+02
  -7.503  0.2551E-11  0.2000E+02
  -7.493  0.2097E-11  0.2000E+02
  -7.483  0.1723E-11  0.2000E+02
  -7.473  0.1414E-11  0.2000E+02
  -7.463  0.1160E-11  0.2000E+02
  -7.453  0.9510E-12  0.2000E+02
  -7.443  0.7791E-12  0.2000E+02
  -7.433  0.6379E-12  0.2000E+02
  -7.423  0.5219E-12  0.2000E+02
  -7.413  0.4268E-12  0.2000E+02
  -7.403  0.3487E-12  0.2000E+02
  -7.393  0.2848E-12  0.2000E+02
  -7.383  0.2324E-12  0.2000E+02
  -7.373  0.1895E-12  0.2000E+02
  -7.363  0.1544E-12  0.2000E+02
  -7.353  0.1258E-12  0.2000E+02
  -7.343  0.1024E-12  0.2000E+02
  -7.333  0.8327E-13  0.2000E+02
  -7.323  0.6769E-13  0.2000E+02
  -7.313  0.5498E-13  0.2000E+02
  -7.303  0.4464E-13  0.2000E+02
  -7.293  0.3621E-13  0.2000E+02
  -7.283  0.2936E-13  0.2000E+02
  -7.273  0.2378E-13  0.2000E+02
  -7.263  0.1926E-13  0.2000E+02
  -7.253  0.1558E-13  0.2000E+02
  -7.243  0.1260E-13  0.2000E+02
  -7.233  0.1018E-13  0.2000E+02
  -7.223  0.8221E-14  0.2000E+02
  -7.213  0.6634E-14  0.2000E+02
  -7.203  0.5350E-14  0.2000E+02
  -7.193  0.4312E-14  0.2000E+02
  -7.183  0.3473E-14  0.2000E+02
  -7.173  0.2795E-14  0.2000E+02
  -7.163  0.2248E-14  0.2000E+02
  -7.153  0.1807E-14  0.2000E+02
  -7.143  0.1452E-14  0.2000E+02
  -7.133  0.1166E-14  0.2000E+02
  -7.123  0.9350E-15  0.2000E+02
  -7.113  0.7496E-15  0.2000E+02
  -7.103  0.6006E-15  0.2000E+02
  -7.093  0.4809E-15  0.2000E+02
  -7.083  0.3848E-15  0.2000E+02
  -7.073  0.3077E-15  0.2000E+02
  -7.063  0.2458E-15  0.2000E+02
  -7.053  0.1963E-15  0.2000E+02
  -7.043  0.1567E-15  0.2000E+02
  -7.033  0.1249E-15  0.2000E+02
  -7.023  0.9958E-16  0.2000E+02
  -7.013  0.7931E-16  0.2000E+02
  -7.003  0.6313E-16  0.2000E+02
  -6.993  0.5021E-16  0.2000E+02
  -6.983  0.3991E-16  0.2000E+02
  -6.973  0.3170E-16  0.2000E+02
  -6.963  0.2517E-16  0.2000E+02
  -6.953  0.1997E-16  0.2000E+02
  -6.943  0.1583E-16  0.2000E+02
  -6.933  0.1254E-16  0.2000E+02
  -6.923  0.9930E-17  0.2000E+02
  -6.913  0.7857E-17  0.2000E+02
  -6.903  0.6212E-17  0.2000E+02
  -6.893  0.4909E-17  0.2000E+02
  -6.883  0.3876E-17  0.2000E+02
  -6.873  0.3059E-17  0.2000E+02
  -6.863  0.2412E-17  0.2000E+02
  -6.853  0.1901E-17  0.2000E+02
  -6.843  0.1497E-17  0.2000E+02
  -6.833  0.1179E-17  0.2000E+02
  -6.823  0.9270E-18  0.2000E+02
  -6.813  0.7287E-18  0.2000E+02
  -6.803  0.5724E-18  0.2000E+02
  -6.793  0.4493E-18  0.2000E+02
  -6.783  0.3525E-18  0.2000E+02
  -6.773  0.2763E-18  0.2000E+02
  -6.763  0.2165E-18  0.2000E+02
  -6.753  0.1695E-18  0.2000E+02
  -6.743  0.1326E-18  0.2000E+02
  -6.733  0.1037E-18  0.2000E+02
  -6.723  0.8102E-19  0.2000E+02
  -6.713  0.6327E-19  0.2000E+02
  -6.703  0.4937E-19  0.2000E+02
  -6.693  0.3850E-19  0.2000E+02
  -6.683  0.3000E-19  0.2000E+02
  -6.673  0.2337E-19  0.2000E+02
  -6.663  0.1819E-19  0.2000E+02
  -6.653  0.1415E-19  0.2000E+02
  -6.643  0.1099E-19  0.2000E+02
  -6.633  0.8540E-20  0.2000E+02
  -6.623  0.6629E-20  0.2000E+02
  -6.613  0.5142E-20  0.2000E+02
  -6.603  0.3986E-20  0.2000E+02
  -6.593  0.3088E-20  0.2000E+02
  -6.583  0.2391E-20  0.2000E+02
  -6.573  0.1850E-20  0.2000E+02
  -6.563  0.1430E-20  0.2000E+02
  -6.553  0.1105E-20  0.2000E+02
  -6.543  0.8533E-21  0.2000E+02
  -6.533  0.6584E-21  0.2000E+02
  -6.523  0.5077E-21  0.2000E+02
  -6.513  0.3913E-21  0.2000E+02
  -6.503  0.3013E-21  0.2000E+02
  -6.493  0.2319E-21  0.2000E+02
  -6.483  0.1783E-21  0.2000E+02
  -6.473  0.1371E-21  0.2000E+02
  -6.463  0.1053E-21  0.2000E+02
  -6.453  0.8081E-22  0.2000E+02
  -6.443  0.6199E-22  0.2000E+02
  -6.433  0.4752E-22  0.2000E+02
  -6.423  0.3640E-22  0.2000E+02
  -6.413  0.2787E-22  0.2000E+02
  -6.403  0.2132E-22  0.2000E+02
  -6.393  0.1630E-22  0.2000E+02
  -6.383  0.1245E-22  0.2000E+02
  -6.373  0.9507E-23  0.2000E+02
  -6.363  0.7254E-23  0.2000E+02
  -6.353  0.5531E-23  0.2000E+02
  -6.343  0.4215E-23  0.2000E+02
  -6.333  0.3210E-23  0.2000E+02
  -6.323  0.2442E-23  0.2000E+02
  -6.313  0.1857E-23  0.2000E+02
  -6.303  0.1412E-23  0.2000E+02
  -6.293  0.1072E-23  0.2000E+02
  -6.283  0.8137E-24  0.2000E+02
  -6.273  0.6172E-24  0.2000E+02
  -6.263  0.4678E-24  0.2000E+02
  -6.253  0.3543E-24  0.2000E+02
  -6.243  0.2682E-24  0.2000E+02
  -6.233  0.2029E-24  0.2000E+02
  -6.223  0.1534E-24  0.2000E+02
  -6.213  0.1159E-24  0.2000E+02
  -6.203  0.8748E-25  0.2000E+02
  -6.193  0.6600E-25  0.2000E+02
  -6.183  0.4976E-25  0.2000E+02
  -6.173  0.3750E-25  0.2000E+02
  -6.163  0.2823E-25  0.2000E+02
  -6.153  0.2124E-25  0.2000E+02
  -6.143  0.1598E-25  0.2000E+02
  -6.133  0.1200E-25  0.2000E+02
  -6.123  0.9015E-26  0.2000E+02
  -6.113  0.6766E-26  0.2000E+02
  -6.103  0.5074E-26  0.2000E+02
  -6.093  0.3803E-26  0.2000E+02
  -6.083  0.2848E-26  0.2000E+02
  -6.073  0.2132E-26  0.2000E+02
  -6.063  0.1595E-26  0.2000E+02
  -6.053  0.1192E-26  0.2000E+02
  -6.043  0.8904E-27  0.2000E+02
  -6.033  0.6647E-27  0.2000E+02
  -6.023  0.4959E-27  0.2000E+02
  -6.013  0.3697E-27  0.2000E+02
  -6.003  0.2754E-27  0.2000E+02
  -5.993  0.2051E-27  0.2000E+02
  -5.983  0.1526E-27  0.2000E+02
  -5.973  0.1134E-27  0.2000E+02
  -5.963  0.8429E-28  0.2000E+02
  -5.953  0.6259E-28  0.2000E+02
  -5.943  0.4644E-28  0.2000E+02
  -5.933  0.3444E-28  0.2000E+02
  -5.923  0.2552E-28  0.2000E+02
  -5.913  0.1890E-28  0.2000E+02
  -5.903  0.1399E-28  0.2000E+02
  -5.893  0.1035E-28  0.2000E+02
  -5.883  0.7647E-29  0.2000E+02
  -5.873  0.5648E-29  0.2000E+02
  -5.863  0.4169E-29  0.2000E+02
  -5.853  0.3075E-29  0.2000E+02
  -5.843  0.2267E-29  0.2000E+02
  -5.833  0.1670E-29  0.2000E+02
  -5.823  0.1229E-29  0.2000E+02
  -5.813  0.9044E-30  0.2000E+02
  -5.803  0.6649E-30  0.2000E+02
  -5.793  0.4885E-30  0.2000E+02
  -5.783  0.3587E-30  0.2000E+02
  -5.773  0.2632E-30  0.2000E+02
  -5.763  0.1930E-30  0.2000E+02
  -5.753  0.1414E-30  0.2000E+02
  -5.743  0.1035E-30  0.2000E+02
  -5.733  0.7576E-31  0.2000E+02
  -5.723  0.5540E-31  0.2000E+02
  -5.713  0.4049E-31  0.2000E+02
  -5.703  0.2957E-31  0.2000E+02
  -5.693  0.2158E-31  0.2000E+02
  -5.683  0.1574E-31  0.2000E+02
  -5.673  0.1147E-31  0.2000E+02
  -5.663  0.8356E-32  0.2000E+02
  -5.653  0.6082E-32  0.2000E+02
  -5.643  0.4424E-32  0.2000E+02
  -5.633  0.3216E-32  0.2000E+02
  -5.623  0.2336E-32  0.2000E+02
  -5.613  0.1696E-32  0.2000E+02
  -5.603  0.1230E-32  0.2000E+02
  -5.593  0.8921E-33  0.2000E+02
  -5.583  0.6463E-33  0.2000E+02
  -5.573  0.4680E-33  0.2000E+02
  -5.563  0.3386E-33  0.2000E+02
  -5.553  0.2448E-33  0.2000E+02
  -5.543  0.1769E-33  0.2000E+02
  -5.533  0.1277E-33  0.2000E+02
  -5.523  0.9218E-34  0.2000E+02
  -5.513  0.6648E-34  0.2000E+02
  -5.503  0.4791E-34  0.2000E+02
  -5.493  0.3450E-34  0.2000E+02
  -5.483  0.2483E-34  0.2000E+02
  -5.473  0.1786E-34  0.2000E+02
  -5.463  0.1284E-34  0.2000E+02
  -5.453  0.9220E-35  0.2000E+02
  -5.443  0.6618E-35  0.2000E+02
  -5.433  0.4747E-35  0.2000E+02
  -5.423  0.3403E-35  0.2000E+02
  -5.413  0.2438E-35  0.2000E+02
  -5.403  0.1745E-35  0.2000E+02
  -5.393  0.1249E-35  0.2000E+02
  -5.383  0.8927E-36  0.2000E+02
  -5.373  0.6379E-36  0.2000E+02
  -5.363  0.4556E-36  0.2000E+02
  -5.353  0.3253E-36  0.2000E+02
  -5.343  0.2323E-36  0.2000E+02
  -5.333  0.1660E-36  0.2000E+02
  -5.323  0.1188E-36  0.2000E+02
  -5.313  0.8547E-37  0.2000E+02
  -5.303  0.6205E-37  0.2000E+02
  -5.293  0.4588E-37  0.2000E+02
  -5.283  0.3507E-37  0.2000E+02
  -5.273  0.2836E-37  0.2000E+02
  -5.263  0.2496E-37  0.2000E+02
  -5.253  0.2444E-37  0.2000E+02
  -5.243  0.2673E-37  0.2000E+02
  -5.233  0.3204E-37  0.2000E+02
  -5.223  0.4092E-37  0.2000E+02
  -5.213  0.5431E-37  0.2000E+02
  -5.203  0.7366E-37  0.2000E+02
  -5.193  0.1010E-36  0.2000E+02
  -5.183  0.1393E-36  0.2000E+02
  -5.173  0.1926E-36  0.2000E+02
  -5.163  0.2666E-36  0.2000E+02
  -5.153  0.3690E-36  0.2000E+02
  -5.143  0.5107E-36  0.2000E+02
  -5.133  0.7064E-36  0.2000E+02
  -5.123  0.9766E-36  0.2000E+02
  -5.113  0.1349E-35  0.2000E+02
  -5.103  0.1863E-35  0.2000E+02
  -5.093  0.2571E-35  0.2000E+02
  -5.083  0.3545E-35  0.2000E+02
  -5.073  0.4885E-35  0.2000E+02
  -5.063  0.6726E-35  0.2000E+02
  -5.053  0.9257E-35  0.2000E+02
  -5.043  0.1273E-34  0.2000E+02
  -5.033  0.1750E-34  0.2000E+02
  -5.023  0.2403E-34  0.2000E+02
  -5.013  0.3298E-34  0.2000E+02
  -5.003  0.4524E-34  0.2000E+02
  -4.993  0.6200E-34  0.2000E+02
  -4.983  0.8493E-34  0.2000E+02
  -4.973  0.1163E-33  0.2000E+02
  -4.963  0.1590E-33  0.2000E+02
  -4.953  0.2174E-33  0.2000E+02
  -4.943  0.2970E-33  0.2000E+02
  -4.933  0.4054E-33  0.2000E+02
  -4.923  0.5532E-33  0.2000E+02
  -4.913  0.7542E-33  0.2000E+02
  -4.903  0.1028E-32  0.2000E+02
  -4.893  0.1399E-32  0.2000E+02
  -4.883  0.1904E-32  0.2000E+02
  -4.873  0.2588E-32  0.2000E+02
  -4.863  0.3517E-32  0.2000E+02
  -4.853  0.4776E-32  0.2000E+02
  -4.843  0.6482E-32  0.2000E+02
  -4.833  0.8790E-32  0.2000E+02
  -4.823  0.1191E-31  0.2000E+02
  -4.813  0.1613E-31  0.2000E+02
  -4.803  0.2184E-31  0.2000E+02
  -4.793  0.2953E-31  0.2000E+02
  -4.783  0.3992E-31  0.2000E+02
  -4.773  0.5392E-31  0.2000E+02
  -4.763  0.7278E-31  0.2000E+02
  -4.753  0.9818E-31  0.2000E+02
  -4.743  0.1323E-30  0.2000E+02
  -4.733  0.1783E-30  0.2000E+02
  -4.723  0.2400E-30  0.2000E+02
  -4.713  0.3229E-30  0.2000E+02
  -4.703  0.4341E-30  0.2000E+02
  -4.693  0.5833E-30  0.2000E+02
  -4.683  0.7832E-30  0.2000E+02
  -4.673  0.1051E-29  0.2000E+02
  -4.663  0.1409E-29  0.2000E+02
  -4.653  0.1888E-29  0.2000E+02
  -4.643  0.2528E-29  0.2000E+02
  -4.633  0.3383E-29  0.2000E+02
  -4.623  0.4525E-29  0.2000E+02
  -4.613  0.6047E-29  0.2000E+02
  -4.603  0.8076E-29  0.2000E+02
  -4.593  0.1078E-28  0.2000E+02
  -4.583  0.1438E-28  0.2000E+02
  -4.573  0.1916E-28  0.2000E+02
  -4.563  0.2552E-28  0.2000E+02
  -4.553  0.3397E-28  0.2000E+02
  -4.543  0.4519E-28  0.2000E+02
  -4.533  0.6008E-28  0.2000E+02
  -4.523  0.7981E-28  0.2000E+02
  -4.513  0.1060E-27  0.2000E+02
  -4.503  0.1406E-27  0.2000E+02
  -4.493  0.1864E-27  0.2000E+02
  -4.483  0.2469E-27  0.2000E+02
  -4.473  0.3269E-27  0.2000E+02
  -4.463  0.4326E-27  0.2000E+02
  -4.453  0.5720E-27  0.2000E+02
  -4.443  0.7559E-27  0.2000E+02
  -4.433  0.9982E-27  0.2000E+02
  -4.423  0.1317E-26  0.2000E+02
  -4.413  0.1737E-26  0.2000E+02
  -4.403  0.2289E-26  0.2000E+02
  -4.393  0.3015E-26  0.2000E+02
  -4.383  0.3969E-26  0.2000E+02
  -4.373  0.5220E-26  0.2000E+02
  -4.363  0.6861E-26  0.2000E+02
  -4.353  0.9013E-26  0.2000E+02
  -4.343  0.1183E-25  0.2000E+02
  -4.333  0.1552E-25  0.2000E+02
  -4.323  0.2035E-25  0.2000E+02
  -4.313  0.2665E-25  0.2000E+02
  -4.303  0.3490E-25  0.2000E+02
  -4.293  0.4566E-25  0.2000E+02
  -4.283  0.5969E-25  0.2000E+02
  -4.273  0.7800E-25  0.2000E+02
  -4.263  0.1018E-24  0.2000E+02
  -4.253  0.1329E-24  0.2000E+02
  -4.243  0.1733E-24  0.2000E+02
  -4.233  0.2258E-24  0.2000E+02
  -4.223  0.2941E-24  0.2000E+02
  -4.213  0.3827E-24  0.2000E+02
  -4.203  0.4978E-24  0.2000E+02
  -4.193  0.6470E-24  0.2000E+02
  -4.183  0.8403E-24  0.2000E+02
  -4.173  0.1091E-23  0.2000E+02
  -4.163  0.1415E-23  0.2000E+02
  -4.153  0.1834E-23  0.2000E+02
  -4.143  0.2376E-23  0.2000E+02
  -4.133  0.3076E-23  0.2000E+02
  -4.123  0.3979E-23  0.2000E+02
  -4.113  0.5144E-23  0.2000E+02
  -4.103  0.6646E-23  0.2000E+02
  -4.093  0.8581E-23  0.2000E+02
  -4.083  0.1107E-22  0.2000E+02
  -4.073  0.1428E-22  0.2000E+02
  -4.063  0.1840E-22  0.2000E+02
  -4.053  0.2369E-22  0.2000E+02
  -4.043  0.3048E-22  0.2000E+02
  -4.033  0.3920E-22  0.2000E+02
  -4.023  0.5038E-22  0.2000E+02
  -4.013  0.6471E-22  0.2000E+02
  -4.003  0.8305E-22  0.2000E+02
  -3.993  0.1065E-21  0.2000E+02
  -3.983  0.1365E-21  0.2000E+02
  -3.973  0.1749E-21  0.2000E+02
  -3.963  0.2239E-21  0.2000E+02
  -3.953  0.2864E-21  0.2000E+02
  -3.943  0.3662E-21  0.2000E+02
  -3.933  0.4678E-21  0.2000E+02
  -3.923  0.5972E-21  0.2000E+02
  -3.913  0.7620E-21  0.2000E+02
  -3.903  0.9716E-21  0.2000E+02
  -3.893  0.1238E-20  0.2000E+02
  -3.883  0.1576E-20  0.2000E+02
  -3.873  0.2006E-20  0.2000E+02
  -3.863  0.2551E-20  0.2000E+02
  -3.853  0.3242E-20  0.2000E+02
  -3.843  0.4117E-20  0.2000E+02
  -3.833  0.5225E-20  0.2000E+02
  -3.823  0.6627E-20  0.2000E+02
  -3.813  0.8400E-20  0.2000E+02
  -3.803  0.1064E-19  0.2000E+02
  -3.793  0.1347E-19  0.2000E+02
  -3.783  0.1704E-19  0.2000E+02
  -3.773  0.2154E-19  0.2000E+02
  -3.763  0.2721E-19  0.2000E+02
  -3.753  0.3435E-19  0.2000E+02
  -3.743  0.4334E-19  0.2000E+02
  -3.733  0.5464E-19  0.2000E+02
  -3.723  0.6885E-19  0.2000E+02
  -3.713  0.8670E-19  0.2000E+02
  -3.703  0.1091E-18  0.2000E+02
  -3.693  0.1372E-18  0.2000E+02
  -3.683  0.1724E-18  0.2000E+02
  -3.673  0.2165E-18  0.2000E+02
  -3.663  0.2717E-18  0.2000E+02
  -3.653  0.3408E-18  0.2000E+02
  -3.643  0.4272E-18  0.2000E+02
  -3.633  0.5351E-18  0.2000E+02
  -3.623  0.6698E-18  0.2000E+02
  -3.613  0.8378E-18  0.2000E+02
  -3.603  0.1047E-17  0.2000E+02
  -3.593  0.1308E-17  0.2000E+02
  -3.583  0.1634E-17  0.2000E+02
  -3.573  0.2038E-17  0.2000E+02
  -3.563  0.2541E-17  0.2000E+02
  -3.553  0.3166E-17  0.2000E+02
  -3.543  0.3943E-17  0.2000E+02
  -3.533  0.4906E-17  0.2000E+02
  -3.523  0.6101E-17  0.2000E+02
  -3.513  0.7582E-17  0.2000E+02
  -3.503  0.9416E-17  0.2000E+02
  -3.493  0.1169E-16  0.2000E+02
  -3.483  0.1449E-16  0.2000E+02
  -3.473  0.1797E-16  0.2000E+02
  -3.463  0.2225E-16  0.2000E+02
  -3.453  0.2755E-16  0.2000E+02
  -3.443  0.3408E-16  0.2000E+02
  -3.433  0.4213E-16  0.2000E+02
  -3.423  0.5205E-16  0.2000E+02
  -3.413  0.6426E-16  0.2000E+02
  -3.403  0.7928E-16  0.2000E+02
  -3.393  0.9776E-16  0.2000E+02
  -3.383  0.1205E-15  0.2000E+02
  -3.373  0.1483E-15  0.2000E+02
  -3.363  0.1825E-15  0.2000E+02
  -3.353  0.2245E-15  0.2000E+02
  -3.343  0.2759E-15  0.2000E+02
  -3.333  0.3388E-15  0.2000E+02
  -3.323  0.4158E-15  0.2000E+02
  -3.313  0.5101E-15  0.2000E+02
  -3.303  0.6252E-15  0.2000E+02
  -3.293  0.7659E-15  0.2000E+02
  -3.283  0.9376E-15  0.2000E+02
  -3.273  0.1147E-14  0.2000E+02
  -3.263  0.1402E-14  0.2000E+02
  -3.253  0.1713E-14  0.2000E+02
  -3.243  0.2092E-14  0.2000E+02
  -3.233  0.2552E-14  0.2000E+02
  -3.223  0.3112E-14  0.2000E+02
  -3.213  0.3793E-14  0.2000E+02
  -3.203  0.4619E-14  0.2000E+02
  -3.193  0.5621E-14  0.2000E+02
  -3.183  0.6836E-14  0.2000E+02
  -3.173  0.8309E-14  0.2000E+02
  -3.163  0.1009E-13  0.2000E+02
  -3.153  0.1225E-13  0.2000E+02
  -3.143  0.1486E-13  0.2000E+02
  -3.133  0.1801E-13  0.2000E+02
  -3.123  0.2182E-13  0.2000E+02
  -3.113  0.2642E-13  0.2000E+02
  -3.103  0.3196E-13  0.2000E+02
  -3.093  0.3865E-13  0.2000E+02
  -3.083  0.4670E-13  0.2000E+02
  -3.073  0.5639E-13  0.2000E+02
  -3.063  0.6804E-13  0.2000E+02
  -3.053  0.8206E-13  0.2000E+02
  -3.043  0.9889E-13  0.2000E+02
  -3.033  0.1191E-12  0.2000E+02
  -3.023  0.1433E-12  0.2000E+02
  -3.013  0.1724E-12  0.2000E+02
  -3.003  0.2073E-12  0.2000E+02
  -2.993  0.2490E-12  0.2000E+02
  -2.983  0.2989E-12  0.2000E+02
  -2.973  0.3586E-12  0.2000E+02
  -2.963  0.4299E-12  0.2000E+02
  -2.953  0.5151E-12  0.2000E+02
  -2.943  0.6167E-12  0.2000E+02
  -2.933  0.7379E-12  0.2000E+02
  -2.923  0.8824E-12  0.2000E+02
  -2.913  0.1054E-11  0.2000E+02
  -2.903  0.1259E-11  0.2000E+02
  -2.893  0.1503E-11  0.2000E+02
  -2.883  0.1793E-11  0.2000E+02
  -2.873  0.2137E-11  0.2000E+02
  -2.863  0.2545E-11  0.2000E+02
  -2.853  0.3030E-11  0.2000E+02
  -2.843  0.3604E-11  0.2000E+02
  -2.833  0.4285E-11  0.2000E+02
  -2.823  0.5091E-11  0.2000E+02
  -2.813  0.6044E-11  0.2000E+02
  -2.803  0.7171E-11  0.2000E+02
  -2.793  0.8504E-11  0.2000E+02
  -2.783  0.1008E-10  0.2000E+02
  -2.773  0.1193E-10  0.2000E+02
  -2.763  0.1412E-10  0.2000E+02
  -2.753  0.1670E-10  0.2000E+02
  -2.743  0.1974E-10  0.2000E+02
  -2.733  0.2332E-10  0.2000E+02
  -2.723  0.2753E-10  0.2000E+02
  -2.713  0.3247E-10  0.2000E+02
  -2.703  0.3828E-10  0.2000E+02
  -2.693  0.4510E-10  0.2000E+02
  -2.683  0.5310E-10  0.2000E+02
  -2.673  0.6248E-10  0.2000E+02
  -2.663  0.7346E-10  0.2000E+02
  -2.653  0.8633E-10  0.2000E+02
  -2.643  0.1014E-09  0.2000E+02
  -2.633  0.1190E-09  0.2000E+02
  -2.623  0.1395E-09  0.2000E+02
  -2.613  0.1635E-09  0.2000E+02
  -2.603  0.1916E-09  0.2000E+02
  -2.593  0.2242E-09  0.2000E+02
  -2.583  0.2623E-09  0.2000E+02
  -2.573  0.3067E-09  0.2000E+02
  -2.563  0.3583E-09  0.2000E+02
  -2.553  0.4183E-09  0.2000E+02
  -2.543  0.4881E-09  0.2000E+02
  -2.533  0.5691E-09  0.2000E+02
  -2.523  0.6632E-09  0.2000E+02
  -2.513  0.7723E-09  0.2000E+02
  -2.503  0.8988E-09  0.2000E+02
  -2.493  0.1045E-08  0.2000E+02
  -2.483  0.1215E-08  0.2000E+02
  -2.473  0.1411E-08  0.2000E+02
  -2.463  0.1638E-08  0.2000E+02
  -2.453  0.1901E-08  0.2000E+02
  -2.443  0.2203E-08  0.2000E+02
  -2.433  0.2553E-08  0.2000E+02
  -2.423  0.2956E-08  0.2000E+02
  -2.413  0.3420E-08  0.2000E+02
  -2.403  0.3955E-08  0.2000E+02
  -2.393  0.4571E-08  0.2000E+02
  -2.383  0.5279E-08  0.2000E+02
  -2.373  0.6092E-08  0.2000E+02
  -2.363  0.7027E-08  0.2000E+02
  -2.353  0.8100E-08  0.2000E+02
  -2.343  0.9331E-08  0.2000E+02
  -2.333  0.1074E-07  0.2000E+02
  -2.323  0.1236E-07  0.2000E+02
  -2.313  0.1421E-07  0.2000E+02
  -2.303  0.1633E-07  0.2000E+02
  -2.293  0.1875E-07  0.2000E+02
  -2.283  0.2151E-07  0.2000E+02
  -2.273  0.2467E-07  0.2000E+02
  -2.263  0.2827E-07  0.2000E+02
  -2.253  0.3238E-07  0.2000E+02
  -2.243  0.3707E-07  0.2000E+02
  -2.233  0.4240E-07  0.2000E+02
  -2.223  0.4847E-07  0.2000E+02
  -2.213  0.5537E-07  0.2000E+02
  -2.203  0.6322E-07  0.2000E+02
  -2.193  0.7214E-07  0.2000E+02
  -2.183  0.8225E-07  0.2000E+02
  -2.173  0.9373E-07  0.2000E+02
  -2.163  0.1067E-06  0.2000E+02
  -2.153  0.1215E-06  0.2000E+02
  -2.143  0.1382E-06  0.2000E+02
  -2.133  0.1571E-06  0.2000E+02
  -2.123  0.1784E-06  0.2000E+02
  -2.113  0.2025E-06  0.2000E+02
  -2.103  0.2298E-06  0.2000E+02
  -2.093  0.2605E-06  0.2000E+02
  -2.083  0.2952E-06  0.2000E+02
  -2.073  0.3342E-06  0.2000E+02
  -2.063  0.3782E-06  0.2000E+02
  -2.053  0.4277E-06  0.2000E+02
  -2.043  0.4834E-06  0.2000E+02
  -2.033  0.5460E-06  0.2000E+02
  -2.023  0.6163E-06  0.2000E+02
  -2.013  0.6953E-06  0.2000E+02
  -2.003  0.7838E-06  0.2000E+02
  -1.993  0.8831E-06  0.2000E+02
  -1.983  0.9943E-06  0.2000E+02
  -1.973  0.1119E-05  0.2000E+02
  -1.963  0.1258E-05  0.2000E+02
  -1.953  0.1414E-05  0.2000E+02
  -1.943  0.1588E-05  0.2000E+02
  -1.933  0.1782E-05  0.2000E+02
  -1.923  0.1999E-05  0.2000E+02
  -1.913  0.2241E-05  0.2000E+02
  -1.903  0.2511E-05  0.2000E+02
  -1.893  0.2811E-05  0.2000E+02
  -1.883  0.3145E-05  0.2000E+02
  -1.873  0.3517E-05  0.2000E+02
  -1.863  0.3931E-05  0.2000E+02
  -1.853  0.4390E-05  0.2000E+02
  -1.843  0.4899E-05  0.2000E+02
  -1.833  0.5465E-05  0.2000E+02
  -1.823  0.6092E-05  0.2000E+02
  -1.813  0.6786E-05  0.2000E+02
  -1.803  0.7555E-05  0.2000E+02
  -1.793  0.8406E-05  0.2000E+02
  -1.783  0.9347E-05  0.2000E+02
  -1.773  0.1039E-04  0.2000E+02
  -1.763  0.1154E-04  0.2000E+02
  -1.753  0.1280E-04  0.2000E+02
  -1.743  0.1420E-04  0.2000E+02
  -1.733  0.1574E-04  0.2000E+02
  -1.723  0.1744E-04  0.2000E+02
  -1.713  0.1931E-04  0.2000E+02
  -1.703  0.2136E-04  0.2000E+02
  -1.693  0.2362E-04  0.2000E+02
  -1.683  0.2610E-04  0.2000E+02
  -1.673  0.2883E-04  0.2000E+02
  -1.663  0.3182E-04  0.2000E+02
  -1.653  0.3510E-04  0.2000E+02
  -1.643  0.3869E-04  0.2000E+02
  -1.633  0.4263E-04  0.2000E+02
  -1.623  0.4693E-04  0.2000E+02
  -1.613  0.5164E-04  0.2000E+02
  -1.603  0.5679E-04  0.2000E+02
  -1.593  0.6241E-04  0.2000E+02
  -1.583  0.6854E-04  0.2000E+02
  -1.573  0.7524E-04  0.2000E+02
  -1.563  0.8253E-04  0.2000E+02
  -1.553  0.9048E-04  0.2000E+02
  -1.543  0.9913E-04  0.2000E+02
  -1.533  0.1085E-03  0.2000E+02
  -1.523  0.1188E-03  0.2000E+02
  -1.513  0.1299E-03  0.2000E+02
  -1.503  0.1420E-03  0.2000E+02
  -1.493  0.1551E-03  0.2000E+02
  -1.483  0.1693E-03  0.2000E+02
  -1.473  0.1847E-03  0.2000E+02
  -1.463  0.2014E-03  0.2000E+02
  -1.453  0.2195E-03  0.2000E+02
  -1.443  0.2390E-03  0.2000E+02
  -1.433  0.2601E-03  0.2000E+02
  -1.423  0.2829E-03  0.2000E+02
  -1.413  0.3075E-03  0.2000E+02
  -1.403  0.3341E-03  0.2000E+02
  -1.393  0.3628E-03  0.2000E+02
  -1.383  0.3936E-03  0.2000E+02
  -1.373  0.4269E-03  0.2000E+02
  -1.363  0.4626E-03  0.2000E+02
  -1.353  0.5011E-03  0.2000E+02
  -1.343  0.5424E-03  0.2000E+02
  -1.333  0.5868E-03  0.2000E+02
  -1.323  0.6345E-03  0.2000E+02
  -1.313  0.6856E-03  0.2000E+02
  -1.303  0.7404E-03  0.2000E+02
  -1.293  0.7991E-03  0.2000E+02
  -1.283  0.8620E-03  0.2000E+02
  -1.273  0.9292E-03  0.2000E+02
  -1.263  0.1001E-02  0.2000E+02
  -1.253  0.1078E-02  0.2000E+02
  -1.243  0.1160E-02  0.2000E+02
  -1.233  0.1248E-02  0.2000E+02
  -1.223  0.1341E-02  0.2000E+02
  -1.213  0.1441E-02  0.2000E+02
  -1.203  0.1547E-02  0.2000E+02
  -1.193  0.1659E-02  0.2000E+02
  -1.183  0.1780E-02  0.2000E+02
  -1.173  0.1907E-02  0.2000E+02
  -1.163  0.2043E-02  0.2000E+02
  -1.153  0.2187E-02  0.2000E+02
  -1.143  0.2340E-02  0.2000E+02
  -1.133  0.2502E-02  0.2000E+02
  -1.123  0.2673E-02  0.2000E+02
  -1.113  0.2855E-02  0.2000E+02
  -1.103  0.3048E-02  0.2000E+02
  -1.093  0.3251E-02  0.2000E+02
  -1.083  0.3466E-02  0.2000E+02
  -1.073  0.3694E-02  0.2000E+02
  -1.063  0.3934E-02  0.2000E+02
  -1.053  0.4187E-02  0.2000E+02
  -1.043  0.4454E-02  0.2000E+02
  -1.033  0.4735E-02  0.2000E+02
  -1.023  0.5032E-02  0.2000E+02
  -1.013  0.5344E-02  0.2000E+02
  -1.003  0.5672E-02  0.2000E+02
  -0.993  0.6017E-02  0.2000E+02
  -0.983  0.6379E-02  0.2000E+02
  -0.973  0.6759E-02  0.2000E+02
  -0.963  0.7158E-02  0.2000E+02
  -0.953  0.7576E-02  0.2000E+02
  -0.943  0.8015E-02  0.2000E+02
  -0.933  0.8474E-02  0.2000E+02
  -0.923  0.8954E-02  0.2000E+02
  -0.913  0.9457E-02  0.2000E+02
  -0.903  0.9982E-02  0.2000E+02
  -0.893  0.1053E-01  0.2000E+02
  -0.883  0.1110E-01  0.2000E+02
  -0.873  0.1170E-01  0.2000E+02
  -0.863  0.1232E-01  0.2000E+02
  -0.853  0.1297E-01  0.2000E+02
  -0.843  0.1365E-01  0.2000E+02
  -0.833  0.1435E-01  0.2000E+02
  -0.823  0.1509E-01  0.2000E+02
  -0.813  0.1585E-01  0.2000E+02
  -0.803  0.1664E-01  0.2000E+02
  -0.793  0.1746E-01  0.2000E+02
  -0.783  0.1831E-01  0.2000E+02
  -0.773  0.1919E-01  0.2000E+02
  -0.763  0.2011E-01  0.2000E+02
  -0.753  0.2106E-01  0.2000E+02
  -0.743  0.2204E-01  0.2000E+02
  -0.733  0.2306E-01  0.2000E+02
  -0.723  0.2411E-01  0.2000E+02
  -0.713  0.2519E-01  0.2000E+02
  -0.703  0.2631E-01  0.2001E+02
  -0.693  0.2747E-01  0.2001E+02
  -0.683  0.2866E-01  0.2001E+02
  -0.673  0.2989E-01  0.2001E+02
  -0.663  0.3116E-01  0.2001E+02
  -0.653  0.3247E-01  0.2001E+02
  -0.643  0.3381E-01  0.2001E+02
  -0.633  0.3519E-01  0.2001E+02
  -0.623  0.3661E-01  0.2001E+02
  -0.613  0.3807E-01  0.2001E+02
  -0.603  0.3957E-01  0.2001E+02
  -0.593  0.4111E-01  0.2001E+02
  -0.583  0.4269E-01  0.2001E+02
  -0.573  0.4430E-01  0.2001E+02
  -0.563  0.4596E-01  0.2001E+02
  -0.553  0.4766E-01  0.2001E+02
  -0.543  0.4939E-01  0.2001E+02
  -0.533  0.5117E-01  0.2001E+02
  -0.523  0.5298E-01  0.2001E+02
  -0.513  0.5484E-01  0.2001E+02
  -0.503  0.5673E-01  0.2001E+02
  -0.493  0.5867E-01  0.2001E+02
  -0.483  0.6064E-01  0.2001E+02
  -0.473  0.6265E-01  0.2002E+02
  -0.463  0.6470E-01  0.2002E+02
  -0.453  0.6678E-01  0.2002E+02
  -0.443  0.6890E-01  0.2002E+02
  -0.433  0.7106E-01  0.2002E+02
  -0.423  0.7326E-01  0.2002E+02
  -0.413  0.7549E-01  0.2002E+02
  -0.403  0.7776E-01  0.2002E+02
  -0.393  0.8006E-01  0.2002E+02
  -0.383  0.8240E-01  0.2002E+02
  -0.373  0.8477E-01  0.2002E+02
  -0.363  0.8718E-01  0.2002E+02
  -0.353  0.8961E-01  0.2002E+02
  -0.343  0.9208E-01  0.2003E+02
  -0.333  0.9457E-01  0.2003E+02
  -0.323  0.9710E-01  0.2003E+02
  -0.313  0.9966E-01  0.2003E+02
  -0.303  0.1022E+00  0.2003E+02
  -0.293  0.1048E+00  0.2003E+02
  -0.283  0.1075E+00  0.2003E+02
  -0.273  0.1101E+00  0.2003E+02
  -0.263  0.1128E+00  0.2003E+02
  -0.253  0.1155E+00  0.2003E+02
  -0.243  0.1183E+00  0.2004E+02
  -0.233  0.1210E+00  0.2004E+02
  -0.223  0.1238E+00  0.2004E+02
  -0.213  0.1266E+00  0.2004E+02
  -0.203  0.1294E+00  0.2004E+02
  -0.193  0.1322E+00  0.2004E+02
  -0.183  0.1351E+00  0.2004E+02
  -0.173  0.1379E+00  0.2004E+02
  -0.163  0.1408E+00  0.2005E+02
  -0.153  0.1437E+00  0.2005E+02
  -0.143  0.1466E+00  0.2005E+02
  -0.133  0.1495E+00  0.2005E+02
  -0.123  0.1524E+00  0.2005E+02
  -0.113  0.1553E+00  0.2005E+02
  -0.103  0.1582E+00  0.2006E+02
  -0.093  0.1612E+00  0.2006E+02
  -0.083  0.1641E+00  0.2006E+02
  -0.073  0.1670E+00  0.2006E+02
  -0.063  0.1700E+00  0.2006E+02
  -0.053  0.1729E+00  0.2006E+02
  -0.043  0.1759E+00  0.2007E+02
  -0.033  0.1788E+00  0.2007E+02
  -0.023  0.1818E+00  0.2007E+02
  -0.013  0.1847E+00  0.2007E+02
  -0.003  0.1877E+00  0.2007E+02
   0.007  0.1906E+00  0.2007E+02
   0.017  0.1935E+00  0.2008E+02
   0.027  0.1965E+00  0.2008E+02
   0.037  0.1994E+00  0.2008E+02
   0.047  0.2023E+00  0.2008E+02
   0.057  0.2052E+00  0.2008E+02
   0.067  0.2081E+00  0.2009E+02
   0.077  0.2110E+00  0.2009E+02
   0.087  0.2138E+00  0.2009E+02
   0.097  0.2167E+00  0.2009E+02
   0.107  0.2196E+00  0.2010E+02
   0.117  0.2224E+00  0.2010E+02
   0.127  0.2252E+00  0.2010E+02
   0.137  0.2280E+00  0.2010E+02
   0.147  0.2308E+00  0.2010E+02
   0.157  0.2336E+00  0.2011E+02
   0.167  0.2363E+00  0.2011E+02
   0.177  0.2391E+00  0.2011E+02
   0.187  0.2418E+00  0.2011E+02
   0.197  0.2445E+00  0.2012E+02
   0.207  0.2472E+00  0.2012E+02
   0.217  0.2499E+00  0.2012E+02
   0.227  0.2525E+00  0.2012E+02
   0.237  0.2551E+00  0.2013E+02
   0.247  0.2578E+00  0.2013E+02
   0.257  0.2604E+00  0.2013E+02
   0.267  0.2629E+00  0.2013E+02
   0.277  0.2655E+00  0.2014E+02
   0.287  0.2680E+00  0.2014E+02
   0.297  0.2705E+00  0.2014E+02
   0.307  0.2730E+00  0.2015E+02
   0.317  0.2755E+00  0.2015E+02
   0.327  0.2780E+00  0.2015E+02
   0.337  0.2804E+00  0.2015E+02
   0.347  0.2828E+00  0.2016E+02
   0.357  0.2852E+00  0.2016E+02
   0.367  0.2876E+00  0.2016E+02
   0.377  0.2900E+00  0.2016E+02
   0.387  0.2923E+00  0.2017E+02
   0.397  0.2946E+00  0.2017E+02
   0.407  0.2969E+00  0.2017E+02
   0.417  0.2992E+00  0.2018E+02
   0.427  0.3015E+00  0.2018E+02
   0.437  0.3037E+00  0.2018E+02
   0.447  0.3060E+00  0.2019E+02
   0.457  0.3082E+00  0.2019E+02
   0.467  0.3104E+00  0.2019E+02
   0.477  0.3126E+00  0.2020E+02
   0.487  0.3147E+00  0.2020E+02
   0.497  0.3169E+00  0.2020E+02
   0.507  0.3190E+00  0.2020E+02
   0.517  0.3212E+00  0.2021E+02
   0.527  0.3233E+00  0.2021E+02
   0.537  0.3254E+00  0.2021E+02
   0.547  0.3275E+00  0.2022E+02
   0.557  0.3296E+00  0.2022E+02
   0.567  0.3316E+00  0.2022E+02
   0.577  0.3337E+00  0.2023E+02
   0.587  0.3357E+00  0.2023E+02
   0.597  0.3378E+00  0.2023E+02
   0.607  0.3398E+00  0.2024E+02
   0.617  0.3418E+00  0.2024E+02
   0.627  0.3438E+00  0.2024E+02
   0.637  0.3458E+00  0.2025E+02
   0.647  0.3478E+00  0.2025E+02
   0.657  0.3498E+00  0.2026E+02
   0.667  0.3518E+00  0.2026E+02
   0.677  0.3538E+00  0.2026E+02
   0.687  0.3557E+00  0.2027E+02
   0.697  0.3577E+00  0.2027E+02
   0.707  0.3597E+00  0.2027E+02
   0.717  0.3616E+00  0.2028E+02
   0.727  0.3636E+00  0.2028E+02
   0.737  0.3655E+00  0.2028E+02
   0.747  0.3674E+00  0.2029E+02
   0.757  0.3694E+00  0.2029E+02
   0.767  0.3713E+00  0.2029E+02
   0.777  0.3732E+00  0.2030E+02
   0.787  0.3751E+00  0.2030E+02
   0.797  0.3770E+00  0.2031E+02
   0.807  0.3790E+00  0.2031E+02
   0.817  0.3809E+00  0.2031E+02
   0.827  0.3828E+00  0.2032E+02
   0.837  0.3846E+00  0.2032E+02
   0.847  0.3865E+00  0.2033E+02
   0.857  0.3884E+00  0.2033E+02
   0.867  0.3903E+00  0.2033E+02
   0.877  0.3922E+00  0.2034E+02
   0.887  0.3940E+00  0.2034E+02
   0.897  0.3959E+00  0.2034E+02
   0.907  0.3977E+00  0.2035E+02
   0.917  0.3996E+00  0.2035E+02
   0.927  0.4014E+00  0.2036E+02
   0.937  0.4033E+00  0.2036E+02
   0.947  0.4051E+00  0.2036E+02
   0.957  0.4069E+00  0.2037E+02
   0.967  0.4087E+00  0.2037E+02
   0.977  0.4105E+00  0.2038E+02
   0.987  0.4123E+00  0.2038E+02
   0.997  0.4141E+00  0.2039E+02
   1.007  0.4159E+00  0.2039E+02
   1.017  0.4176E+00  0.2039E+02
   1.027  0.4194E+00  0.2040E+02
   1.037  0.4211E+00  0.2040E+02
   1.047  0.4229E+00  0.2041E+02
   1.057  0.4246E+00  0.2041E+02
   1.067  0.4263E+00  0.2041E+02
   1.077  0.4280E+00  0.2042E+02
   1.087  0.4297E+00  0.2042E+02
   1.097  0.4314E+00  0.2043E+02
   1.107  0.4331E+00  0.2043E+02
   1.117  0.4348E+00  0.2044E+02
   1.127  0.4364E+00  0.2044E+02
   1.137  0.4381E+00  0.2045E+02
   1.147  0.4397E+00  0.2045E+02
   1.157  0.4413E+00  0.2045E+02
   1.167  0.4430E+00  0.2046E+02
   1.177  0.4446E+00  0.2046E+02
   1.187  0.4462E+00  0.2047E+02
   1.197  0.4477E+00  0.2047E+02
   1.207  0.4493E+00  0.2048E+02
   1.217  0.4509E+00  0.2048E+02
   1.227  0.4524E+00  0.2049E+02
   1.237  0.4540E+00  0.2049E+02
   1.247  0.4555E+00  0.2049E+02
   1.257  0.4571E+00  0.2050E+02
   1.267  0.4586E+00  0.2050E+02
   1.277  0.4601E+00  0.2051E+02
   1.287  0.4616E+00  0.2051E+02
   1.297  0.4631E+00  0.2052E+02
   1.307  0.4646E+00  0.2052E+02
   1.317  0.4661E+00  0.2053E+02
   1.327  0.4676E+00  0.2053E+02
   1.337  0.4691E+00  0.2054E+02
   1.347  0.4706E+00  0.2054E+02
   1.357  0.4721E+00  0.2055E+02
   1.367  0.4735E+00  0.2055E+02
   1.377  0.4750E+00  0.2056E+02
   1.387  0.4765E+00  0.2056E+02
   1.397  0.4779E+00  0.2056E+02
   1.407  0.4794E+00  0.2057E+02
   1.417  0.4808E+00  0.2057E+02
   1.427  0.4823E+00  0.2058E+02
   1.437  0.4838E+00  0.2058E+02
   1.447  0.4852E+00  0.2059E+02
   1.457  0.4867E+00  0.2059E+02
   1.467  0.4881E+00  0.2060E+02
   1.477  0.4896E+00  0.2060E+02
   1.487  0.4910E+00  0.2061E+02
   1.497  0.4925E+00  0.2061E+02
   1.507  0.4939E+00  0.2062E+02
   1.517  0.4954E+00  0.2062E+02
   1.527  0.4968E+00  0.2063E+02
   1.537  0.4983E+00  0.2063E+02
   1.547  0.4998E+00  0.2064E+02
   1.557  0.5012E+00  0.2064E+02
   1.567  0.5027E+00  0.2065E+02
   1.577  0.5042E+00  0.2065E+02
   1.587  0.5056E+00  0.2066E+02
   1.597  0.5071E+00  0.2066E+02
   1.607  0.5086E+00  0.2067E+02
   1.617  0.5100E+00  0.2067E+02
   1.627  0.5115E+00  0.2068E+02
   1.637  0.5130E+00  0.2068E+02
   1.647  0.5145E+00  0.2069E+02
   1.657  0.5160E+00  0.2069E+02
   1.667  0.5174E+00  0.2070E+02
   1.677  0.5189E+00  0.2070E+02
   1.687  0.5204E+00  0.2071E+02
   1.697  0.5219E+00  0.2071E+02
   1.707  0.5234E+00  0.2072E+02
   1.717  0.5249E+00  0.2073E+02
   1.727  0.5264E+00  0.2073E+02
   1.737  0.5279E+00  0.2074E+02
   1.747  0.5294E+00  0.2074E+02
   1.757  0.5309E+00  0.2075E+02
   1.767  0.5325E+00  0.2075E+02
   1.777  0.5340E+00  0.2076E+02
   1.787  0.5355E+00  0.2076E+02
   1.797  0.5370E+00  0.2077E+02
   1.807  0.5386E+00  0.2077E+02
   1.817  0.5401E+00  0.2078E+02
   1.827  0.5417E+00  0.2078E+02
   1.837  0.5432E+00  0.2079E+02
   1.847  0.5448E+00  0.2079E+02
   1.857  0.5463E+00  0.2080E+02
   1.867  0.5479E+00  0.2081E+02
   1.877  0.5495E+00  0.2081E+02
   1.887  0.5510E+00  0.2082E+02
   1.897  0.5526E+00  0.2082E+02
   1.907  0.5542E+00  0.2083E+02
   1.917  0.5558E+00  0.2083E+02
   1.927  0.5575E+00  0.2084E+02
   1.937  0.5591E+00  0.2084E+02
   1.947  0.5607E+00  0.2085E+02
   1.957  0.5623E+00  0.2086E+02
   1.967  0.5640E+00  0.2086E+02
   1.977  0.5657E+00  0.2087E+02
   1.987  0.5673E+00  0.2087E+02
   1.997  0.5690E+00  0.2088E+02
   2.007  0.5707E+00  0.2088E+02
   2.017  0.5724E+00  0.2089E+02
   2.027  0.5742E+00  0.2090E+02
   2.037  0.5759E+00  0.2090E+02
   2.047  0.5776E+00  0.2091E+02
   2.057  0.5794E+00  0.2091E+02
   2.067  0.5812E+00  0.2092E+02
   2.077  0.5830E+00  0.2092E+02
   2.087  0.5848E+00  0.2093E+02
   2.097  0.5866E+00  0.2094E+02
   2.107  0.5884E+00  0.2094E+02
   2.117  0.5903E+00  0.2095E+02
   2.127  0.5922E+00  0.2095E+02
   2.137  0.5941E+00  0.2096E+02
   2.147  0.5959E+00  0.2097E+02
   2.157  0.5979E+00  0.2097E+02
   2.167  0.5998E+00  0.2098E+02
   2.177  0.6017E+00  0.2098E+02
   2.187  0.6037E+00  0.2099E+02
   2.197  0.6057E+00  0.2100E+02
   2.207  0.6077E+00  0.2100E+02
   2.217  0.6097E+00  0.2101E+02
   2.227  0.6117E+00  0.2101E+02
   2.237  0.6137E+00  0.2102E+02
   2.247  0.6157E+00  0.2103E+02
   2.257  0.6178E+00  0.2103E+02
   2.267  0.6199E+00  0.2104E+02
   2.277  0.6219E+00  0.2105E+02
   2.287  0.6240E+00  0.2105E+02
   2.297  0.6261E+00  0.2106E+02
   2.307  0.6282E+00  0.2106E+02
   2.317  0.6304E+00  0.2107E+02
   2.327  0.6325E+00  0.2108E+02
   2.337  0.6346E+00  0.2108E+02
   2.347  0.6368E+00  0.2109E+02
   2.357  0.6389E+00  0.2110E+02
   2.367  0.6410E+00  0.2110E+02
   2.377  0.6432E+00  0.2111E+02
   2.387  0.6453E+00  0.2112E+02
   2.397  0.6475E+00  0.2112E+02
   2.407  0.6497E+00  0.2113E+02
   2.417  0.6518E+00  0.2113E+02
   2.427  0.6540E+00  0.2114E+02
   2.437  0.6561E+00  0.2115E+02
   2.447  0.6583E+00  0.2115E+02
   2.457  0.6604E+00  0.2116E+02
   2.467  0.6625E+00  0.2117E+02
   2.477  0.6647E+00  0.2117E+02
   2.487  0.6668E+00  0.2118E+02
   2.497  0.6689E+00  0.2119E+02
   2.507  0.6710E+00  0.2119E+02
   2.517  0.6731E+00  0.2120E+02
   2.527  0.6752E+00  0.2121E+02
   2.537  0.6773E+00  0.2121E+02
   2.547  0.6794E+00  0.2122E+02
   2.557  0.6814E+00  0.2123E+02
   2.567  0.6835E+00  0.2123E+02
   2.577  0.6855E+00  0.2124E+02
   2.587  0.6876E+00  0.2125E+02
   2.597  0.6896E+00  0.2126E+02
   2.607  0.6916E+00  0.2126E+02
   2.617  0.6936E+00  0.2127E+02
   2.627  0.6955E+00  0.2128E+02
   2.637  0.6975E+00  0.2128E+02
   2.647  0.6995E+00  0.2129E+02
   2.657  0.7014E+00  0.2130E+02
   2.667  0.7033E+00  0.2130E+02
   2.677  0.7053E+00  0.2131E+02
   2.687  0.7072E+00  0.2132E+02
   2.697  0.7091E+00  0.2133E+02
   2.707  0.7110E+00  0.2133E+02
   2.717  0.7128E+00  0.2134E+02
   2.727  0.7147E+00  0.2135E+02
   2.737  0.7166E+00  0.2135E+02
   2.747  0.7185E+00  0.2136E+02
   2.757  0.7203E+00  0.2137E+02
   2.767  0.7222E+00  0.2138E+02
   2.777  0.7241E+00  0.2138E+02
   2.787  0.7259E+00  0.2139E+02
   2.797  0.7278E+00  0.2140E+02
   2.807  0.7297E+00  0.2140E+02
   2.817  0.7315E+00  0.2141E+02
   2.827  0.7334E+00  0.2142E+02
   2.837  0.7353E+00  0.2143E+02
   2.847  0.7372E+00  0.2143E+02
   2.857  0.7391E+00  0.2144E+02
   2.867  0.7410E+00  0.2145E+02
   2.877  0.7430E+00  0.2146E+02
   2.887  0.7449E+00  0.2146E+02
   2.897  0.7469E+00  0.2147E+02
   2.907  0.7489E+00  0.2148E+02
   2.917  0.7509E+00  0.2149E+02
   2.927  0.7530E+00  0.2149E+02
   2.937  0.7550E+00  0.2150E+02
   2.947  0.7571E+00  0.2151E+02
   2.957  0.7593E+00  0.2152E+02
   2.967  0.7614E+00  0.2152E+02
   2.977  0.7636E+00  0.2153E+02
   2.987  0.7658E+00  0.2154E+02
   2.997  0.7681E+00  0.2155E+02
   3.007  0.7704E+00  0.2155E+02
   3.017  0.7727E+00  0.2156E+02
   3.027  0.7750E+00  0.2157E+02
   3.037  0.7774E+00  0.2158E+02
   3.047  0.7799E+00  0.2159E+02
   3.057  0.7824E+00  0.2159E+02
   3.067  0.7849E+00  0.2160E+02
   3.077  0.7874E+00  0.2161E+02
   3.087  0.7900E+00  0.2162E+02
   3.097  0.7927E+00  0.2163E+02
   3.107  0.7954E+00  0.2163E+02
   3.117  0.7981E+00  0.2164E+02
   3.127  0.8009E+00  0.2165E+02
   3.137  0.8037E+00  0.2166E+02
   3.147  0.8065E+00  0.2167E+02
   3.157  0.8094E+00  0.2167E+02
   3.167  0.8123E+00  0.2168E+02
   3.177  0.8152E+00  0.2169E+02
   3.187  0.8182E+00  0.2170E+02
   3.197  0.8212E+00  0.2171E+02
   3.207  0.8243E+00  0.2171E+02
   3.217  0.8273E+00  0.2172E+02
   3.227  0.8304E+00  0.2173E+02
   3.237  0.8335E+00  0.2174E+02
   3.247  0.8367E+00  0.2175E+02
   3.257  0.8398E+00  0.2176E+02
   3.267  0.8430E+00  0.2176E+02
   3.277  0.8462E+00  0.2177E+02
   3.287  0.8494E+00  0.2178E+02
   3.297  0.8526E+00  0.2179E+02
   3.307  0.8558E+00  0.2180E+02
   3.317  0.8589E+00  0.2181E+02
   3.327  0.8621E+00  0.2182E+02
   3.337  0.8653E+00  0.2182E+02
   3.347  0.8684E+00  0.2183E+02
   3.357  0.8716E+00  0.2184E+02
   3.367  0.8747E+00  0.2185E+02
   3.377  0.8778E+00  0.2186E+02
   3.387  0.8808E+00  0.2187E+02
   3.397  0.8838E+00  0.2188E+02
   3.407  0.8868E+00  0.2189E+02
   3.417  0.8897E+00  0.2189E+02
   3.427  0.8925E+00  0.2190E+02
   3.437  0.8953E+00  0.2191E+02
   3.447  0.8981E+00  0.2192E+02
   3.457  0.9007E+00  0.2193E+02
   3.467  0.9033E+00  0.2194E+02
   3.477  0.9058E+00  0.2195E+02
   3.487  0.9083E+00  0.2196E+02
   3.497  0.9106E+00  0.2197E+02
   3.507  0.9129E+00  0.2198E+02
   3.517  0.9150E+00  0.2199E+02
   3.527  0.9171E+00  0.2199E+02
   3.537  0.9190E+00  0.2200E+02
   3.547  0.9209E+00  0.2201E+02
   3.557  0.9226E+00  0.2202E+02
   3.567  0.9242E+00  0.2203E+02
   3.577  0.9256E+00  0.2204E+02
   3.587  0.9270E+00  0.2205E+02
   3.597  0.9282E+00  0.2206E+02
   3.607  0.9293E+00  0.2207E+02
   3.617  0.9302E+00  0.2208E+02
   3.627  0.9310E+00  0.2209E+02
   3.637  0.9317E+00  0.2210E+02
   3.647  0.9322E+00  0.2211E+02
   3.657  0.9326E+00  0.2211E+02
   3.667  0.9328E+00  0.2212E+02
   3.677  0.9328E+00  0.2213E+02
   3.687  0.9327E+00  0.2214E+02
   3.697  0.9325E+00  0.2215E+02
   3.707  0.9321E+00  0.2216E+02
   3.717  0.9315E+00  0.2217E+02
   3.727  0.9308E+00  0.2218E+02
   3.737  0.9299E+00  0.2219E+02
   3.747  0.9288E+00  0.2220E+02
   3.757  0.9276E+00  0.2221E+02
   3.767  0.9263E+00  0.2222E+02
   3.777  0.9248E+00  0.2223E+02
   3.787  0.9231E+00  0.2224E+02
   3.797  0.9213E+00  0.2224E+02
   3.807  0.9193E+00  0.2225E+02
   3.817  0.9171E+00  0.2226E+02
   3.827  0.9149E+00  0.2227E+02
   3.837  0.9124E+00  0.2228E+02
   3.847  0.9099E+00  0.2229E+02
   3.857  0.9072E+00  0.2230E+02
   3.867  0.9043E+00  0.2231E+02
   3.877  0.9013E+00  0.2232E+02
   3.887  0.8982E+00  0.2233E+02
   3.897  0.8950E+00  0.2234E+02
   3.907  0.8916E+00  0.2234E+02
   3.917  0.8881E+00  0.2235E+02
   3.927  0.8845E+00  0.2236E+02
   3.937  0.8808E+00  0.2237E+02
   3.947  0.8770E+00  0.2238E+02
   3.957  0.8731E+00  0.2239E+02
   3.967  0.8691E+00  0.2240E+02
   3.977  0.8651E+00  0.2241E+02
   3.987  0.8609E+00  0.2241E+02
   3.997  0.8566E+00  0.2242E+02
   4.007  0.8523E+00  0.2243E+02
   4.017  0.8479E+00  0.2244E+02
   4.027  0.8435E+00  0.2245E+02
   4.037  0.8390E+00  0.2246E+02
   4.047  0.8345E+00  0.2247E+02
   4.057  0.8299E+00  0.2247E+02
   4.067  0.8252E+00  0.2248E+02
   4.077  0.8206E+00  0.2249E+02
   4.087  0.8159E+00  0.2250E+02
   4.097  0.8112E+00  0.2251E+02
   4.107  0.8065E+00  0.2251E+02
   4.117  0.8017E+00  0.2252E+02
   4.127  0.7970E+00  0.2253E+02
   4.137  0.7923E+00  0.2254E+02
   4.147  0.7875E+00  0.2255E+02
   4.157  0.7828E+00  0.2255E+02
   4.167  0.7781E+00  0.2256E+02
   4.177  0.7734E+00  0.2257E+02
   4.187  0.7688E+00  0.2258E+02
   4.197  0.7641E+00  0.2258E+02
   4.207  0.7595E+00  0.2259E+02
   4.217  0.7550E+00  0.2260E+02
   4.227  0.7505E+00  0.2261E+02
   4.237  0.7460E+00  0.2261E+02
   4.247  0.7416E+00  0.2262E+02
   4.257  0.7372E+00  0.2263E+02
   4.267  0.7329E+00  0.2264E+02
   4.277  0.7286E+00  0.2264E+02
   4.287  0.7244E+00  0.2265E+02
   4.297  0.7203E+00  0.2266E+02
   4.307  0.7162E+00  0.2267E+02
   4.317  0.7122E+00  0.2267E+02
   4.327  0.7083E+00  0.2268E+02
   4.337  0.7044E+00  0.2269E+02
   4.347  0.7006E+00  0.2269E+02
   4.357  0.6969E+00  0.2270E+02
   4.367  0.6932E+00  0.2271E+02
   4.377  0.6896E+00  0.2271E+02
   4.387  0.6861E+00  0.2272E+02
   4.397  0.6826E+00  0.2273E+02
   4.407  0.6792E+00  0.2274E+02
   4.417  0.6759E+00  0.2274E+02
   4.427  0.6727E+00  0.2275E+02
   4.437  0.6695E+00  0.2276E+02
   4.447  0.6664E+00  0.2276E+02
   4.457  0.6634E+00  0.2277E+02
   4.467  0.6604E+00  0.2278E+02
   4.477  0.6575E+00  0.2278E+02
   4.487  0.6547E+00  0.2279E+02
   4.497  0.6519E+00  0.2280E+02
   4.507  0.6492E+00  0.2280E+02
   4.517  0.6466E+00  0.2281E+02
   4.527  0.6440E+00  0.2281E+02
   4.537  0.6414E+00  0.2282E+02
   4.547  0.6390E+00  0.2283E+02
   4.557  0.6365E+00  0.2283E+02
   4.567  0.6341E+00  0.2284E+02
   4.577  0.6318E+00  0.2285E+02
   4.587  0.6295E+00  0.2285E+02
   4.597  0.6273E+00  0.2286E+02
   4.607  0.6251E+00  0.2287E+02
   4.617  0.6229E+00  0.2287E+02
   4.627  0.6208E+00  0.2288E+02
   4.637  0.6187E+00  0.2288E+02
   4.647  0.6167E+00  0.2289E+02
   4.657  0.6146E+00  0.2290E+02
   4.667  0.6127E+00  0.2290E+02
   4.677  0.6107E+00  0.2291E+02
   4.687  0.6088E+00  0.2291E+02
   4.697  0.6069E+00  0.2292E+02
   4.707  0.6050E+00  0.2293E+02
   4.717  0.6032E+00  0.2293E+02
   4.727  0.6014E+00  0.2294E+02
   4.737  0.5996E+00  0.2294E+02
   4.747  0.5978E+00  0.2295E+02
   4.757  0.5960E+00  0.2296E+02
   4.767  0.5943E+00  0.2296E+02
   4.777  0.5926E+00  0.2297E+02
   4.787  0.5909E+00  0.2297E+02
   4.797  0.5892E+00  0.2298E+02
   4.807  0.5876E+00  0.2299E+02
   4.817  0.5860E+00  0.2299E+02
   4.827  0.5844E+00  0.2300E+02
   4.837  0.5828E+00  0.2300E+02
   4.847  0.5812E+00  0.2301E+02
   4.857  0.5797E+00  0.2302E+02
   4.867  0.5782E+00  0.2302E+02
   4.877  0.5767E+00  0.2303E+02
   4.887  0.5752E+00  0.2303E+02
   4.897  0.5737E+00  0.2304E+02
   4.907  0.5723E+00  0.2304E+02
   4.917  0.5709E+00  0.2305E+02
   4.927  0.5695E+00  0.2306E+02
   4.937  0.5682E+00  0.2306E+02
   4.947  0.5669E+00  0.2307E+02
   4.957  0.5656E+00  0.2307E+02
   4.967  0.5643E+00  0.2308E+02
   4.977  0.5631E+00  0.2308E+02
   4.987  0.5619E+00  0.2309E+02
   4.997  0.5608E+00  0.2309E+02
   5.007  0.5596E+00  0.2310E+02
   5.017  0.5585E+00  0.2311E+02
   5.027  0.5575E+00  0.2311E+02
   5.037  0.5565E+00  0.2312E+02
   5.047  0.5555E+00  0.2312E+02
   5.057  0.5546E+00  0.2313E+02
   5.067  0.5537E+00  0.2313E+02
   5.077  0.5528E+00  0.2314E+02
   5.087  0.5520E+00  0.2314E+02
   5.097  0.5512E+00  0.2315E+02
   5.107  0.5505E+00  0.2316E+02
   5.117  0.5498E+00  0.2316E+02
   5.127  0.5492E+00  0.2317E+02
   5.137  0.5485E+00  0.2317E+02
   5.147  0.5480E+00  0.2318E+02
   5.157  0.5475E+00  0.2318E+02
   5.167  0.5470E+00  0.2319E+02
   5.177  0.5466E+00  0.2319E+02
   5.187  0.5462E+00  0.2320E+02
   5.197  0.5458E+00  0.2321E+02
   5.207  0.5455E+00  0.2321E+02
   5.217  0.5452E+00  0.2322E+02
   5.227  0.5450E+00  0.2322E+02
   5.237  0.5448E+00  0.2323E+02
   5.247  0.5446E+00  0.2323E+02
   5.257  0.5445E+00  0.2324E+02
   5.267  0.5444E+00  0.2324E+02
   5.277  0.5443E+00  0.2325E+02
   5.287  0.5443E+00  0.2325E+02
   5.297  0.5443E+00  0.2326E+02
   5.307  0.5443E+00  0.2327E+02
   5.317  0.5443E+00  0.2327E+02
   5.327  0.5444E+00  0.2328E+02
   5.337  0.5445E+00  0.2328E+02
   5.347  0.5446E+00  0.2329E+02
   5.357  0.5447E+00  0.2329E+02
   5.367  0.5448E+00  0.2330E+02
   5.377  0.5449E+00  0.2330E+02
   5.387  0.5451E+00  0.2331E+02
   5.397  0.5452E+00  0.2331E+02
   5.407  0.5453E+00  0.2332E+02
   5.417  0.5455E+00  0.2333E+02
   5.427  0.5456E+00  0.2333E+02
   5.437  0.5457E+00  0.2334E+02
   5.447  0.5458E+00  0.2334E+02
   5.457  0.5459E+00  0.2335E+02
   5.467  0.5460E+00  0.2335E+02
   5.477  0.5460E+00  0.2336E+02
   5.487  0.5460E+00  0.2336E+02
   5.497  0.5460E+00  0.2337E+02
   5.507  0.5460E+00  0.2337E+02
   5.517  0.5459E+00  0.2338E+02
   5.527  0.5458E+00  0.2339E+02
   5.537  0.5457E+00  0.2339E+02
   5.547  0.5455E+00  0.2340E+02
   5.557  0.5452E+00  0.2340E+02
   5.567  0.5450E+00  0.2341E+02
   5.577  0.5446E+00  0.2341E+02
   5.587  0.5443E+00  0.2342E+02
   5.597  0.5438E+00  0.2342E+02
   5.607  0.5433E+00  0.2343E+02
   5.617  0.5428E+00  0.2343E+02
   5.627  0.5422E+00  0.2344E+02
   5.637  0.5415E+00  0.2344E+02
   5.647  0.5408E+00  0.2345E+02
   5.657  0.5400E+00  0.2346E+02
   5.667  0.5392E+00  0.2346E+02
   5.677  0.5382E+00  0.2347E+02
   5.687  0.5372E+00  0.2347E+02
   5.697  0.5362E+00  0.2348E+02
   5.707  0.5351E+00  0.2348E+02
   5.717  0.5339E+00  0.2349E+02
   5.727  0.5326E+00  0.2349E+02
   5.737  0.5313E+00  0.2350E+02
   5.747  0.5299E+00  0.2350E+02
   5.757  0.5285E+00  0.2351E+02
   5.767  0.5270E+00  0.2351E+02
   5.777  0.5254E+00  0.2352E+02
   5.787  0.5237E+00  0.2352E+02
   5.797  0.5221E+00  0.2353E+02
   5.807  0.5203E+00  0.2354E+02
   5.817  0.5185E+00  0.2354E+02
   5.827  0.5166E+00  0.2355E+02
   5.837  0.5147E+00  0.2355E+02
   5.847  0.5127E+00  0.2356E+02
   5.857  0.5107E+00  0.2356E+02
   5.867  0.5087E+00  0.2357E+02
   5.877  0.5066E+00  0.2357E+02
   5.887  0.5045E+00  0.2358E+02
   5.897  0.5023E+00  0.2358E+02
   5.907  0.5001E+00  0.2359E+02
   5.917  0.4979E+00  0.2359E+02
   5.927  0.4957E+00  0.2360E+02
   5.937  0.4934E+00  0.2360E+02
   5.947  0.4912E+00  0.2361E+02
   5.957  0.4889E+00  0.2361E+02
   5.967  0.4866E+00  0.2362E+02
   5.977  0.4843E+00  0.2362E+02
   5.987  0.4821E+00  0.2363E+02
   5.997  0.4798E+00  0.2363E+02
   6.007  0.4776E+00  0.2364E+02
   6.017  0.4754E+00  0.2364E+02
   6.027  0.4732E+00  0.2364E+02
   6.037  0.4710E+00  0.2365E+02
   6.047  0.4689E+00  0.2365E+02
   6.057  0.4668E+00  0.2366E+02
   6.067  0.4648E+00  0.2366E+02
   6.077  0.4628E+00  0.2367E+02
   6.087  0.4608E+00  0.2367E+02
   6.097  0.4590E+00  0.2368E+02
   6.107  0.4572E+00  0.2368E+02
   6.117  0.4554E+00  0.2369E+02
   6.127  0.4538E+00  0.2369E+02
   6.137  0.4522E+00  0.2370E+02
   6.147  0.4507E+00  0.2370E+02
   6.157  0.4493E+00  0.2370E+02
   6.167  0.4479E+00  0.2371E+02
   6.177  0.4467E+00  0.2371E+02
   6.187  0.4456E+00  0.2372E+02
   6.197  0.4445E+00  0.2372E+02
   6.207  0.4436E+00  0.2373E+02
   6.217  0.4428E+00  0.2373E+02
   6.227  0.4421E+00  0.2374E+02
   6.237  0.4415E+00  0.2374E+02
   6.247  0.4411E+00  0.2374E+02
   6.257  0.4407E+00  0.2375E+02
   6.267  0.4405E+00  0.2375E+02
   6.277  0.4404E+00  0.2376E+02
   6.287  0.4405E+00  0.2376E+02
   6.297  0.4406E+00  0.2377E+02
   6.307  0.4410E+00  0.2377E+02
   6.317  0.4414E+00  0.2378E+02
   6.327  0.4420E+00  0.2378E+02
   6.337  0.4427E+00  0.2378E+02
   6.347  0.4435E+00  0.2379E+02
   6.357  0.4445E+00  0.2379E+02
   6.367  0.4456E+00  0.2380E+02
   6.377  0.4469E+00  0.2380E+02
   6.387  0.4483E+00  0.2381E+02
   6.397  0.4498E+00  0.2381E+02
   6.407  0.4515E+00  0.2382E+02
   6.417  0.4533E+00  0.2382E+02
   6.427  0.4553E+00  0.2382E+02
   6.437  0.4573E+00  0.2383E+02
   6.447  0.4596E+00  0.2383E+02
   6.457  0.4619E+00  0.2384E+02
   6.467  0.4644E+00  0.2384E+02
   6.477  0.4670E+00  0.2385E+02
   6.487  0.4697E+00  0.2385E+02
   6.497  0.4726E+00  0.2386E+02
   6.507  0.4756E+00  0.2386E+02
   6.517  0.4787E+00  0.2387E+02
   6.527  0.4819E+00  0.2387E+02
   6.537  0.4853E+00  0.2388E+02
   6.547  0.4887E+00  0.2388E+02
   6.557  0.4923E+00  0.2389E+02
   6.567  0.4959E+00  0.2389E+02
   6.577  0.4997E+00  0.2390E+02
   6.587  0.5036E+00  0.2390E+02
   6.597  0.5075E+00  0.2391E+02
   6.607  0.5116E+00  0.2391E+02
   6.617  0.5157E+00  0.2392E+02
   6.627  0.5200E+00  0.2392E+02
   6.637  0.5243E+00  0.2393E+02
   6.647  0.5287E+00  0.2393E+02
   6.657  0.5331E+00  0.2394E+02
   6.667  0.5377E+00  0.2394E+02
   6.677  0.5423E+00  0.2395E+02
   6.687  0.5469E+00  0.2395E+02
   6.697  0.5516E+00  0.2396E+02
   6.707  0.5564E+00  0.2396E+02
   6.717  0.5612E+00  0.2397E+02
   6.727  0.5661E+00  0.2398E+02
   6.737  0.5710E+00  0.2398E+02
   6.747  0.5760E+00  0.2399E+02
   6.757  0.5809E+00  0.2399E+02
   6.767  0.5860E+00  0.2400E+02
   6.777  0.5910E+00  0.2400E+02
   6.787  0.5960E+00  0.2401E+02
   6.797  0.6011E+00  0.2402E+02
   6.807  0.6062E+00  0.2402E+02
   6.817  0.6113E+00  0.2403E+02
   6.827  0.6164E+00  0.2404E+02
   6.837  0.6215E+00  0.2404E+02
   6.847  0.6266E+00  0.2405E+02
   6.857  0.6316E+00  0.2405E+02
   6.867  0.6367E+00  0.2406E+02
   6.877  0.6418E+00  0.2407E+02
   6.887  0.6468E+00  0.2407E+02
   6.897  0.6518E+00  0.2408E+02
   6.907  0.6568E+00  0.2409E+02
   6.917  0.6618E+00  0.2409E+02
   6.927  0.6667E+00  0.2410E+02
   6.937  0.6716E+00  0.2411E+02
   6.947  0.6765E+00  0.2411E+02
   6.957  0.6813E+00  0.2412E+02
   6.967  0.6861E+00  0.2413E+02
   6.977  0.6908E+00  0.2413E+02
   6.987  0.6955E+00  0.2414E+02
   6.997  0.7001E+00  0.2415E+02
   7.007  0.7047E+00  0.2415E+02
   7.017  0.7092E+00  0.2416E+02
   7.027  0.7137E+00  0.2417E+02
   7.037  0.7181E+00  0.2418E+02
   7.047  0.7224E+00  0.2418E+02
   7.057  0.7267E+00  0.2419E+02
   7.067  0.7309E+00  0.2420E+02
   7.077  0.7350E+00  0.2421E+02
   7.087  0.7391E+00  0.2421E+02
   7.097  0.7431E+00  0.2422E+02
   7.107  0.7470E+00  0.2423E+02
   7.117  0.7509E+00  0.2424E+02
   7.127  0.7547E+00  0.2424E+02
   7.137  0.7584E+00  0.2425E+02
   7.147  0.7621E+00  0.2426E+02
   7.157  0.7656E+00  0.2427E+02
   7.167  0.7691E+00  0.2427E+02
   7.177  0.7725E+00  0.2428E+02
   7.187  0.7759E+00  0.2429E+02
   7.197  0.7792E+00  0.2430E+02
   7.207  0.7824E+00  0.2430E+02
   7.217  0.7855E+00  0.2431E+02
   7.227  0.7885E+00  0.2432E+02
   7.237  0.7915E+00  0.2433E+02
   7.247  0.7944E+00  0.2434E+02
   7.257  0.7973E+00  0.2434E+02
   7.267  0.8001E+00  0.2435E+02
   7.277  0.8028E+00  0.2436E+02
   7.287  0.8054E+00  0.2437E+02
   7.297  0.8080E+00  0.2438E+02
   7.307  0.8105E+00  0.2438E+02
   7.317  0.8129E+00  0.2439E+02
   7.327  0.8153E+00  0.2440E+02
   7.337  0.8176E+00  0.2441E+02
   7.347  0.8199E+00  0.2442E+02
   7.357  0.8221E+00  0.2443E+02
   7.367  0.8242E+00  0.2443E+02
   7.377  0.8263E+00  0.2444E+02
   7.387  0.8283E+00  0.2445E+02
   7.397  0.8303E+00  0.2446E+02
   7.407  0.8323E+00  0.2447E+02
   7.417  0.8342E+00  0.2447E+02
   7.427  0.8360E+00  0.2448E+02
   7.437  0.8378E+00  0.2449E+02
   7.447  0.8396E+00  0.2450E+02
   7.457  0.8413E+00  0.2451E+02
   7.467  0.8430E+00  0.2452E+02
   7.477  0.8447E+00  0.2453E+02
   7.487  0.8463E+00  0.2453E+02
   7.497  0.8479E+00  0.2454E+02
   7.507  0.8494E+00  0.2455E+02
   7.517  0.8510E+00  0.2456E+02
   7.527  0.8525E+00  0.2457E+02
   7.537  0.8540E+00  0.2458E+02
   7.547  0.8554E+00  0.2458E+02
   7.557  0.8568E+00  0.2459E+02
   7.567  0.8582E+00  0.2460E+02
   7.577  0.8596E+00  0.2461E+02
   7.587  0.8610E+00  0.2462E+02
   7.597  0.8624E+00  0.2463E+02
   7.607  0.8637E+00  0.2464E+02
   7.617  0.8650E+00  0.2465E+02
   7.627  0.8664E+00  0.2465E+02
   7.637  0.8677E+00  0.2466E+02
   7.647  0.8690E+00  0.2467E+02
   7.657  0.8702E+00  0.2468E+02
   7.667  0.8715E+00  0.2469E+02
   7.677  0.8728E+00  0.2470E+02
   7.687  0.8740E+00  0.2471E+02
   7.697  0.8753E+00  0.2471E+02
   7.707  0.8765E+00  0.2472E+02
   7.717  0.8778E+00  0.2473E+02
   7.727  0.8790E+00  0.2474E+02
   7.737  0.8802E+00  0.2475E+02
   7.747  0.8814E+00  0.2476E+02
   7.757  0.8827E+00  0.2477E+02
   7.767  0.8839E+00  0.2478E+02
   7.777  0.8851E+00  0.2479E+02
   7.787  0.8863E+00  0.2479E+02
   7.797  0.8875E+00  0.2480E+02
   7.807  0.8887E+00  0.2481E+02
   7.817  0.8899E+00  0.2482E+02
   7.827  0.8911E+00  0.2483E+02
   7.837  0.8923E+00  0.2484E+02
   7.847  0.8934E+00  0.2485E+02
   7.857  0.8946E+00  0.2486E+02
   7.867  0.8958E+00  0.2487E+02
   7.877  0.8970E+00  0.2487E+02
   7.887  0.8981E+00  0.2488E+02
   7.897  0.8993E+00  0.2489E+02
   7.907  0.9005E+00  0.2490E+02
   7.917  0.9016E+00  0.2491E+02
   7.927  0.9028E+00  0.2492E+02
   7.937  0.9039E+00  0.2493E+02
   7.947  0.9051E+00  0.2494E+02
   7.957  0.9062E+00  0.2495E+02
   7.967  0.9073E+00  0.2496E+02
   7.977  0.9085E+00  0.2496E+02
   7.987  0.9096E+00  0.2497E+02
   7.997  0.9107E+00  0.2498E+02
   8.007  0.9119E+00  0.2499E+02
   8.017  0.9130E+00  0.2500E+02
   8.027  0.9141E+00  0.2501E+02
   8.037  0.9152E+00  0.2502E+02
   8.047  0.9163E+00  0.2503E+02
   8.057  0.9174E+00  0.2504E+02
   8.067  0.9186E+00  0.2505E+02
   8.077  0.9197E+00  0.2506E+02
   8.087  0.9208E+00  0.2507E+02
   8.097  0.9219E+00  0.2507E+02
   8.107  0.9230E+00  0.2508E+02
   8.117  0.9241E+00  0.2509E+02
   8.127  0.9253E+00  0.2510E+02
   8.137  0.9264E+00  0.2511E+02
   8.147  0.9276E+00  0.2512E+02
   8.157  0.9287E+00  0.2513E+02
   8.167  0.9299E+00  0.2514E+02
   8.177  0.9310E+00  0.2515E+02
   8.187  0.9322E+00  0.2516E+02
   8.197  0.9334E+00  0.2517E+02
   8.207  0.9346E+00  0.2518E+02
   8.217  0.9359E+00  0.2519E+02
   8.227  0.9371E+00  0.2520E+02
   8.237  0.9384E+00  0.2520E+02
   8.247  0.9397E+00  0.2521E+02
   8.257  0.9410E+00  0.2522E+02
   8.267  0.9423E+00  0.2523E+02
   8.277  0.9437E+00  0.2524E+02
   8.287  0.9451E+00  0.2525E+02
   8.297  0.9465E+00  0.2526E+02
   8.307  0.9480E+00  0.2527E+02
   8.317  0.9495E+00  0.2528E+02
   8.327  0.9510E+00  0.2529E+02
   8.337  0.9526E+00  0.2530E+02
   8.347  0.9542E+00  0.2531E+02
   8.357  0.9559E+00  0.2532E+02
   8.367  0.9576E+00  0.2533E+02
   8.377  0.9593E+00  0.2534E+02
   8.387  0.9611E+00  0.2535E+02
   8.397  0.9629E+00  0.2536E+02
   8.407  0.9648E+00  0.2537E+02
   8.417  0.9668E+00  0.2538E+02
   8.427  0.9687E+00  0.2539E+02
   8.437  0.9708E+00  0.2540E+02
   8.447  0.9729E+00  0.2541E+02
   8.457  0.9750E+00  0.2542E+02
   8.467  0.9772E+00  0.2542E+02
   8.477  0.9795E+00  0.2543E+02
   8.487  0.9818E+00  0.2544E+02
   8.497  0.9842E+00  0.2545E+02
   8.507  0.9866E+00  0.2546E+02
   8.517  0.9891E+00  0.2547E+02
   8.527  0.9917E+00  0.2548E+02
   8.537  0.9943E+00  0.2549E+02
   8.547  0.9970E+00  0.2550E+02
   8.557  0.9997E+00  0.2551E+02
   8.567  0.1002E+01  0.2552E+02
   8.577  0.1005E+01  0.2553E+02
   8.587  0.1008E+01  0.2554E+02
   8.597  0.1011E+01  0.2555E+02
   8.607  0.1014E+01  0.2556E+02
   8.617  0.1017E+01  0.2557E+02
   8.627  0.1020E+01  0.2558E+02
   8.637  0.1023E+01  0.2560E+02
   8.647  0.1027E+01  0.2561E+02
   8.657  0.1030E+01  0.2562E+02
   8.667  0.1033E+01  0.2563E+02
   8.677  0.1036E+01  0.2564E+02
   8.687  0.1040E+01  0.2565E+02
   8.697  0.1043E+01  0.2566E+02
   8.707  0.1047E+01  0.2567E+02
   8.717  0.1050E+01  0.2568E+02
   8.727  0.1053E+01  0.2569E+02
   8.737  0.1057E+01  0.2570E+02
   8.747  0.1060E+01  0.2571E+02
   8.757  0.1064E+01  0.2572E+02
   8.767  0.1068E+01  0.2573E+02
   8.777  0.1071E+01  0.2574E+02
   8.787  0.1075E+01  0.2575E+02
   8.797  0.1078E+01  0.2576E+02
   8.807  0.1082E+01  0.2577E+02
   8.817  0.1085E+01  0.2579E+02
   8.827  0.1089E+01  0.2580E+02
   8.837  0.1092E+01  0.2581E+02
   8.847  0.1096E+01  0.2582E+02
   8.857  0.1099E+01  0.2583E+02
   8.867  0.1103E+01  0.2584E+02
   8.877  0.1106E+01  0.2585E+02
   8.887  0.1109E+01  0.2586E+02
   8.897  0.1113E+01  0.2587E+02
   8.907  0.1116E+01  0.2588E+02
   8.917  0.1119E+01  0.2590E+02
   8.927  0.1123E+01  0.2591E+02
   8.937  0.1126E+01  0.2592E+02
   8.947  0.1129E+01  0.2593E+02
   8.957  0.1132E+01  0.2594E+02
   8.967  0.1135E+01  0.2595E+02
   8.977  0.1138E+01  0.2596E+02
   8.987  0.1141E+01  0.2597E+02
   8.997  0.1144E+01  0.2599E+02
   9.007  0.1147E+01  0.2600E+02
   9.017  0.1150E+01  0.2601E+02
   9.027  0.1152E+01  0.2602E+02
   9.037  0.1155E+01  0.2603E+02
   9.047  0.1158E+01  0.2604E+02
   9.057  0.1160E+01  0.2606E+02
   9.067  0.1163E+01  0.2607E+02
   9.077  0.1165E+01  0.2608E+02
   9.087  0.1167E+01  0.2609E+02
   9.097  0.1170E+01  0.2610E+02
   9.107  0.1172E+01  0.2611E+02
   9.117  0.1174E+01  0.2613E+02
   9.127  0.1176E+01  0.2614E+02
   9.137  0.1178E+01  0.2615E+02
   9.147  0.1180E+01  0.2616E+02
   9.157  0.1182E+01  0.2617E+02
   9.167  0.1184E+01  0.2618E+02
   9.177  0.1185E+01  0.2620E+02
   9.187  0.1187E+01  0.2621E+02
   9.197  0.1189E+01  0.2622E+02
   9.207  0.1190E+01  0.2623E+02
   9.217  0.1192E+01  0.2624E+02
   9.227  0.1193E+01  0.2626E+02
   9.237  0.1194E+01  0.2627E+02
   9.247  0.1196E+01  0.2628E+02
   9.257  0.1197E+01  0.2629E+02
   9.267  0.1198E+01  0.2630E+02
   9.277  0.1199E+01  0.2632E+02
   9.287  0.1201E+01  0.2633E+02
   9.297  0.1202E+01  0.2634E+02
   9.307  0.1203E+01  0.2635E+02
   9.317  0.1204E+01  0.2636E+02
   9.327  0.1205E+01  0.2638E+02
   9.337  0.1205E+01  0.2639E+02
   9.347  0.1206E+01  0.2640E+02
   9.357  0.1207E+01  0.2641E+02
   9.367  0.1208E+01  0.2642E+02
   9.377  0.1208E+01  0.2644E+02
   9.387  0.1209E+01  0.2645E+02
   9.397  0.1210E+01  0.2646E+02
   9.407  0.1210E+01  0.2647E+02
   9.417  0.1211E+01  0.2648E+02
   9.427  0.1211E+01  0.2650E+02
   9.437  0.1212E+01  0.2651E+02
   9.447  0.1212E+01  0.2652E+02
   9.457  0.1212E+01  0.2653E+02
   9.467  0.1213E+01  0.2655E+02
   9.477  0.1213E+01  0.2656E+02
   9.487  0.1213E+01  0.2657E+02
   9.497  0.1213E+01  0.2658E+02
   9.507  0.1213E+01  0.2659E+02
   9.517  0.1213E+01  0.2661E+02
   9.527  0.1213E+01  0.2662E+02
   9.537  0.1213E+01  0.2663E+02
   9.547  0.1213E+01  0.2664E+02
   9.557  0.1213E+01  0.2665E+02
   9.567  0.1213E+01  0.2667E+02
   9.577  0.1212E+01  0.2668E+02
   9.587  0.1212E+01  0.2669E+02
   9.597  0.1211E+01  0.2670E+02
   9.607  0.1211E+01  0.2671E+02
   9.617  0.1210E+01  0.2673E+02
   9.627  0.1210E+01  0.2674E+02
   9.637  0.1209E+01  0.2675E+02
   9.647  0.1208E+01  0.2676E+02
   9.657  0.1207E+01  0.2678E+02
   9.667  0.1206E+01  0.2679E+02
   9.677  0.1205E+01  0.2680E+02
   9.687  0.1204E+01  0.2681E+02
   9.697  0.1203E+01  0.2682E+02
   9.707  0.1202E+01  0.2684E+02
   9.717  0.1200E+01  0.2685E+02
   9.727  0.1199E+01  0.2686E+02
   9.737  0.1197E+01  0.2687E+02
   9.747  0.1195E+01  0.2688E+02
   9.757  0.1194E+01  0.2690E+02
   9.767  0.1192E+01  0.2691E+02
   9.777  0.1190E+01  0.2692E+02
   9.787  0.1188E+01  0.2693E+02
   9.797  0.1186E+01  0.2694E+02
   9.807  0.1184E+01  0.2695E+02
   9.817  0.1181E+01  0.2697E+02
   9.827  0.1179E+01  0.2698E+02
   9.837  0.1177E+01  0.2699E+02
   9.847  0.1174E+01  0.2700E+02
   9.857  0.1171E+01  0.2701E+02
   9.867  0.1169E+01  0.2703E+02
   9.877  0.1166E+01  0.2704E+02
   9.887  0.1163E+01  0.2705E+02
   9.897  0.1160E+01  0.2706E+02
   9.907  0.1157E+01  0.2707E+02
   9.917  0.1154E+01  0.2708E+02
   9.927  0.1151E+01  0.2709E+02
   9.937  0.1147E+01  0.2711E+02
   9.947  0.1144E+01  0.2712E+02
   9.957  0.1141E+01  0.2713E+02
   9.967  0.1137E+01  0.2714E+02
   9.977  0.1134E+01  0.2715E+02
   9.987  0.1130E+01  0.2716E+02
   9.997  0.1127E+01  0.2717E+02
  10.007  0.1123E+01  0.2719E+02
  10.017  0.1119E+01  0.2720E+02
  10.027  0.1115E+01  0.2721E+02
  10.037  0.1112E+01  0.2722E+02
  10.047  0.1108E+01  0.2723E+02
  10.057  0.1104E+01  0.2724E+02
  10.067  0.1100E+01  0.2725E+02
  10.077  0.1096E+01  0.2726E+02
  10.087  0.1092E+01  0.2727E+02
  10.097  0.1088E+01  0.2728E+02
  10.107  0.1084E+01  0.2730E+02
  10.117  0.1080E+01  0.2731E+02
  10.127  0.1076E+01  0.2732E+02
  10.137  0.1072E+01  0.2733E+02
  10.147  0.1068E+01  0.2734E+02
  10.157  0.1065E+01  0.2735E+02
  10.167  0.1061E+01  0.2736E+02
  10.177  0.1057E+01  0.2737E+02
  10.187  0.1053E+01  0.2738E+02
  10.197  0.1049E+01  0.2739E+02
  10.207  0.1045E+01  0.2740E+02
  10.217  0.1041E+01  0.2741E+02
  10.227  0.1038E+01  0.2742E+02
  10.237  0.1034E+01  0.2743E+02
  10.247  0.1030E+01  0.2744E+02
  10.257  0.1027E+01  0.2745E+02
  10.267  0.1023E+01  0.2746E+02
  10.277  0.1020E+01  0.2747E+02
  10.287  0.1016E+01  0.2748E+02
  10.297  0.1013E+01  0.2749E+02
  10.307  0.1009E+01  0.2750E+02
  10.317  0.1006E+01  0.2751E+02
  10.327  0.1003E+01  0.2752E+02
  10.337  0.9999E+00  0.2753E+02
  10.347  0.9969E+00  0.2754E+02
  10.357  0.9939E+00  0.2755E+02
  10.367  0.9911E+00  0.2756E+02
  10.377  0.9883E+00  0.2757E+02
  10.387  0.9856E+00  0.2758E+02
  10.397  0.9830E+00  0.2759E+02
  10.407  0.9805E+00  0.2760E+02
  10.417  0.9781E+00  0.2761E+02
  10.427  0.9758E+00  0.2762E+02
  10.437  0.9736E+00  0.2763E+02
  10.447  0.9714E+00  0.2764E+02
  10.457  0.9694E+00  0.2765E+02
  10.467  0.9675E+00  0.2766E+02
  10.477  0.9657E+00  0.2767E+02
  10.487  0.9639E+00  0.2768E+02
  10.497  0.9623E+00  0.2769E+02
  10.507  0.9608E+00  0.2770E+02
  10.517  0.9594E+00  0.2771E+02
  10.527  0.9581E+00  0.2772E+02
  10.537  0.9569E+00  0.2773E+02
  10.547  0.9558E+00  0.2774E+02
  10.557  0.9548E+00  0.2775E+02
  10.567  0.9539E+00  0.2776E+02
  10.577  0.9531E+00  0.2777E+02
  10.587  0.9524E+00  0.2778E+02
  10.597  0.9518E+00  0.2779E+02
  10.607  0.9513E+00  0.2780E+02
  10.617  0.9509E+00  0.2781E+02
  10.627  0.9506E+00  0.2782E+02
  10.637  0.9504E+00  0.2782E+02
  10.647  0.9503E+00  0.2783E+02
  10.657  0.9503E+00  0.2784E+02
  10.667  0.9504E+00  0.2785E+02
  10.677  0.9506E+00  0.2786E+02
  10.687  0.9508E+00  0.2787E+02
  10.697  0.9512E+00  0.2788E+02
  10.707  0.9516E+00  0.2789E+02
  10.717  0.9521E+00  0.2790E+02
  10.727  0.9527E+00  0.2791E+02
  10.737  0.9533E+00  0.2792E+02
  10.747  0.9541E+00  0.2793E+02
  10.757  0.9549E+00  0.2794E+02
  10.767  0.9557E+00  0.2795E+02
  10.777  0.9567E+00  0.2796E+02
  10.787  0.9577E+00  0.2797E+02
  10.797  0.9587E+00  0.2798E+02
  10.807  0.9598E+00  0.2799E+02
  10.817  0.9610E+00  0.2800E+02
  10.827  0.9622E+00  0.2801E+02
  10.837  0.9634E+00  0.2802E+02
  10.847  0.9647E+00  0.2803E+02
  10.857  0.9660E+00  0.2803E+02
  10.867  0.9674E+00  0.2804E+02
  10.877  0.9688E+00  0.2805E+02
  10.887  0.9702E+00  0.2806E+02
  10.897  0.9716E+00  0.2807E+02
  10.907  0.9731E+00  0.2808E+02
  10.917  0.9746E+00  0.2809E+02
  10.927  0.9761E+00  0.2810E+02
  10.937  0.9776E+00  0.2811E+02
  10.947  0.9791E+00  0.2812E+02
  10.957  0.9807E+00  0.2813E+02
  10.967  0.9822E+00  0.2814E+02
  10.977  0.9837E+00  0.2815E+02
  10.987  0.9853E+00  0.2816E+02
  10.997  0.9868E+00  0.2817E+02
  11.007  0.9883E+00  0.2818E+02
  11.017  0.9898E+00  0.2819E+02
  11.027  0.9913E+00  0.2820E+02
  11.037  0.9927E+00  0.2821E+02
  11.047  0.9942E+00  0.2822E+02
  11.057  0.9956E+00  0.2823E+02
  11.067  0.9970E+00  0.2824E+02
  11.077  0.9984E+00  0.2825E+02
  11.087  0.9997E+00  0.2826E+02
  11.097  0.1001E+01  0.2827E+02
  11.107  0.1002E+01  0.2828E+02
  11.117  0.1004E+01  0.2829E+02
  11.127  0.1005E+01  0.2830E+02
  11.137  0.1006E+01  0.2831E+02
  11.147  0.1007E+01  0.2832E+02
  11.157  0.1008E+01  0.2833E+02
  11.167  0.1009E+01  0.2834E+02
  11.177  0.1010E+01  0.2835E+02
  11.187  0.1011E+01  0.2836E+02
  11.197  0.1012E+01  0.2837E+02
  11.207  0.1013E+01  0.2838E+02
  11.217  0.1014E+01  0.2839E+02
  11.227  0.1014E+01  0.2840E+02
  11.237  0.1015E+01  0.2841E+02
  11.247  0.1016E+01  0.2842E+02
  11.257  0.1016E+01  0.2843E+02
  11.267  0.1017E+01  0.2844E+02
  11.277  0.1017E+01  0.2845E+02
  11.287  0.1017E+01  0.2846E+02
  11.297  0.1018E+01  0.2847E+02
  11.307  0.1018E+01  0.2848E+02
  11.317  0.1018E+01  0.2849E+02
  11.327  0.1019E+01  0.2850E+02
  11.337  0.1019E+01  0.2851E+02
  11.347  0.1019E+01  0.2852E+02
  11.357  0.1019E+01  0.2853E+02
  11.367  0.1019E+01  0.2854E+02
  11.377  0.1019E+01  0.2856E+02
  11.387  0.1018E+01  0.2857E+02
  11.397  0.1018E+01  0.2858E+02
  11.407  0.1018E+01  0.2859E+02
  11.417  0.1018E+01  0.2860E+02
  11.427  0.1017E+01  0.2861E+02
  11.437  0.1017E+01  0.2862E+02
  11.447  0.1016E+01  0.2863E+02
  11.457  0.1016E+01  0.2864E+02
  11.467  0.1015E+01  0.2865E+02
  11.477  0.1014E+01  0.2866E+02
  11.487  0.1014E+01  0.2867E+02
  11.497  0.1013E+01  0.2868E+02
  11.507  0.1012E+01  0.2869E+02
  11.517  0.1011E+01  0.2870E+02
  11.527  0.1010E+01  0.2871E+02
  11.537  0.1009E+01  0.2872E+02
  11.547  0.1008E+01  0.2873E+02
  11.557  0.1007E+01  0.2874E+02
  11.567  0.1006E+01  0.2875E+02
  11.577  0.1005E+01  0.2876E+02
  11.587  0.1004E+01  0.2877E+02
  11.597  0.1003E+01  0.2878E+02
  11.607  0.1001E+01  0.2879E+02
  11.617  0.1000E+01  0.2880E+02
  11.627  0.9988E+00  0.2881E+02
  11.637  0.9974E+00  0.2882E+02
  11.647  0.9960E+00  0.2883E+02
  11.657  0.9946E+00  0.2884E+02
  11.667  0.9932E+00  0.2885E+02
  11.677  0.9917E+00  0.2886E+02
  11.687  0.9903E+00  0.2887E+02
  11.697  0.9888E+00  0.2888E+02
  11.707  0.9872E+00  0.2889E+02
  11.717  0.9857E+00  0.2890E+02
  11.727  0.9842E+00  0.2891E+02
  11.737  0.9826E+00  0.2892E+02
  11.747  0.9810E+00  0.2893E+02
  11.757  0.9795E+00  0.2894E+02
  11.767  0.9779E+00  0.2895E+02
  11.777  0.9763E+00  0.2896E+02
  11.787  0.9748E+00  0.2897E+02
  11.797  0.9732E+00  0.2898E+02
  11.807  0.9716E+00  0.2898E+02
  11.817  0.9700E+00  0.2899E+02
  11.827  0.9685E+00  0.2900E+02
  11.837  0.9670E+00  0.2901E+02
  11.847  0.9654E+00  0.2902E+02
  11.857  0.9639E+00  0.2903E+02
  11.867  0.9624E+00  0.2904E+02
  11.877  0.9610E+00  0.2905E+02
  11.887  0.9595E+00  0.2906E+02
  11.897  0.9581E+00  0.2907E+02
  11.907  0.9567E+00  0.2908E+02
  11.917  0.9553E+00  0.2909E+02
  11.927  0.9540E+00  0.2910E+02
  11.937  0.9527E+00  0.2911E+02
  11.947  0.9514E+00  0.2912E+02
  11.957  0.9501E+00  0.2913E+02
  11.967  0.9489E+00  0.2914E+02
  11.977  0.9477E+00  0.2915E+02
  11.987  0.9466E+00  0.2916E+02
  11.997  0.9455E+00  0.2917E+02
  12.007  0.9444E+00  0.2918E+02
  12.017  0.9434E+00  0.2919E+02
  12.027  0.9424E+00  0.2920E+02
  12.037  0.9414E+00  0.2920E+02
  12.047  0.9405E+00  0.2921E+02
  12.057  0.9397E+00  0.2922E+02
  12.067  0.9388E+00  0.2923E+02
  12.077  0.9380E+00  0.2924E+02
  12.087  0.9373E+00  0.2925E+02
  12.097  0.9366E+00  0.2926E+02
  12.107  0.9359E+00  0.2927E+02
  12.117  0.9352E+00  0.2928E+02
  12.127  0.9346E+00  0.2929E+02
  12.137  0.9341E+00  0.2930E+02
  12.147  0.9336E+00  0.2931E+02
  12.157  0.9331E+00  0.2932E+02
  12.167  0.9326E+00  0.2933E+02
  12.177  0.9322E+00  0.2934E+02
  12.187  0.9318E+00  0.2934E+02
  12.197  0.9314E+00  0.2935E+02
  12.207  0.9311E+00  0.2936E+02
  12.217  0.9308E+00  0.2937E+02
  12.227  0.9305E+00  0.2938E+02
  12.237  0.9303E+00  0.2939E+02
  12.247  0.9300E+00  0.2940E+02
  12.257  0.9298E+00  0.2941E+02
  12.267  0.9297E+00  0.2942E+02
  12.277  0.9295E+00  0.2943E+02
  12.287  0.9294E+00  0.2944E+02
  12.297  0.9293E+00  0.2945E+02
  12.307  0.9292E+00  0.2946E+02
  12.317  0.9291E+00  0.2947E+02
  12.327  0.9290E+00  0.2948E+02
  12.337  0.9290E+00  0.2948E+02
  12.347  0.9289E+00  0.2949E+02
  12.357  0.9289E+00  0.2950E+02
  12.367  0.9289E+00  0.2951E+02
  12.377  0.9289E+00  0.2952E+02
  12.387  0.9289E+00  0.2953E+02
  12.397  0.9290E+00  0.2954E+02
  12.407  0.9290E+00  0.2955E+02
  12.417  0.9291E+00  0.2956E+02
  12.427  0.9291E+00  0.2957E+02
  12.437  0.9292E+00  0.2958E+02
  12.447  0.9293E+00  0.2959E+02
  12.457  0.9294E+00  0.2960E+02
  12.467  0.9295E+00  0.2961E+02
  12.477  0.9296E+00  0.2961E+02
  12.487  0.9297E+00  0.2962E+02
  12.497  0.9299E+00  0.2963E+02
  12.507  0.9300E+00  0.2964E+02
  12.517  0.9302E+00  0.2965E+02
  12.527  0.9304E+00  0.2966E+02
  12.537  0.9306E+00  0.2967E+02
  12.547  0.9308E+00  0.2968E+02
  12.557  0.9311E+00  0.2969E+02
  12.567  0.9313E+00  0.2970E+02
  12.577  0.9316E+00  0.2971E+02
  12.587  0.9319E+00  0.2972E+02
  12.597  0.9323E+00  0.2973E+02
  12.607  0.9327E+00  0.2974E+02
  12.617  0.9331E+00  0.2974E+02
  12.627  0.9335E+00  0.2975E+02
  12.637  0.9340E+00  0.2976E+02
  12.647  0.9345E+00  0.2977E+02
  12.657  0.9351E+00  0.2978E+02
  12.667  0.9357E+00  0.2979E+02
  12.677  0.9363E+00  0.2980E+02
  12.687  0.9370E+00  0.2981E+02
  12.697  0.9377E+00  0.2982E+02
  12.707  0.9385E+00  0.2983E+02
  12.717  0.9393E+00  0.2984E+02
  12.727  0.9402E+00  0.2985E+02
  12.737  0.9412E+00  0.2986E+02
  12.747  0.9422E+00  0.2987E+02
  12.757  0.9433E+00  0.2988E+02
  12.767  0.9444E+00  0.2989E+02
  12.777  0.9456E+00  0.2989E+02
  12.787  0.9469E+00  0.2990E+02
  12.797  0.9483E+00  0.2991E+02
  12.807  0.9497E+00  0.2992E+02
  12.817  0.9512E+00  0.2993E+02
  12.827  0.9528E+00  0.2994E+02
  12.837  0.9544E+00  0.2995E+02
  12.847  0.9562E+00  0.2996E+02
  12.857  0.9580E+00  0.2997E+02
  12.867  0.9599E+00  0.2998E+02
  12.877  0.9619E+00  0.2999E+02
  12.887  0.9640E+00  0.3000E+02
  12.897  0.9661E+00  0.3001E+02
  12.907  0.9684E+00  0.3002E+02
  12.917  0.9707E+00  0.3003E+02
  12.927  0.9732E+00  0.3004E+02
  12.937  0.9757E+00  0.3005E+02
  12.947  0.9783E+00  0.3006E+02
  12.957  0.9810E+00  0.3007E+02
  12.967  0.9838E+00  0.3008E+02
  12.977  0.9867E+00  0.3009E+02
  12.987  0.9897E+00  0.3010E+02
  12.997  0.9928E+00  0.3011E+02
  13.007  0.9960E+00  0.3012E+02
  13.017  0.9992E+00  0.3013E+02
  13.027  0.1003E+01  0.3014E+02
  13.037  0.1006E+01  0.3015E+02
  13.047  0.1010E+01  0.3016E+02
  13.057  0.1013E+01  0.3017E+02
  13.067  0.1017E+01  0.3018E+02
  13.077  0.1021E+01  0.3019E+02
  13.087  0.1025E+01  0.3020E+02
  13.097  0.1028E+01  0.3021E+02
  13.107  0.1032E+01  0.3022E+02
  13.117  0.1037E+01  0.3023E+02
  13.127  0.1041E+01  0.3024E+02
  13.137  0.1045E+01  0.3025E+02
  13.147  0.1049E+01  0.3026E+02
  13.157  0.1054E+01  0.3027E+02
  13.167  0.1058E+01  0.3028E+02
  13.177  0.1063E+01  0.3029E+02
  13.187  0.1067E+01  0.3030E+02
  13.197  0.1072E+01  0.3031E+02
  13.207  0.1076E+01  0.3032E+02
  13.217  0.1081E+01  0.3034E+02
  13.227  0.1086E+01  0.3035E+02
  13.237  0.1091E+01  0.3036E+02
  13.247  0.1095E+01  0.3037E+02
  13.257  0.1100E+01  0.3038E+02
  13.267  0.1105E+01  0.3039E+02
  13.277  0.1110E+01  0.3040E+02
  13.287  0.1115E+01  0.3041E+02
  13.297  0.1120E+01  0.3042E+02
  13.307  0.1125E+01  0.3044E+02
  13.317  0.1130E+01  0.3045E+02
  13.327  0.1135E+01  0.3046E+02
  13.337  0.1140E+01  0.3047E+02
  13.347  0.1145E+01  0.3048E+02
  13.357  0.1150E+01  0.3049E+02
  13.367  0.1155E+01  0.3050E+02
  13.377  0.1160E+01  0.3052E+02
  13.387  0.1164E+01  0.3053E+02
  13.397  0.1169E+01  0.3054E+02
  13.407  0.1174E+01  0.3055E+02
  13.417  0.1179E+01  0.3056E+02
  13.427  0.1184E+01  0.3057E+02
  13.437  0.1188E+01  0.3059E+02
  13.447  0.1193E+01  0.3060E+02
  13.457  0.1197E+01  0.3061E+02
  13.467  0.1202E+01  0.3062E+02
  13.477  0.1206E+01  0.3063E+02
  13.487  0.1211E+01  0.3065E+02
  13.497  0.1215E+01  0.3066E+02
  13.507  0.1219E+01  0.3067E+02
  13.517  0.1224E+01  0.3068E+02
  13.527  0.1228E+01  0.3069E+02
  13.537  0.1232E+01  0.3071E+02
  13.547  0.1235E+01  0.3072E+02
  13.557  0.1239E+01  0.3073E+02
  13.567  0.1243E+01  0.3074E+02
  13.577  0.1247E+01  0.3076E+02
  13.587  0.1250E+01  0.3077E+02
  13.597  0.1253E+01  0.3078E+02
  13.607  0.1257E+01  0.3079E+02
  13.617  0.1260E+01  0.3081E+02
  13.627  0.1263E+01  0.3082E+02
  13.637  0.1266E+01  0.3083E+02
  13.647  0.1268E+01  0.3084E+02
  13.657  0.1271E+01  0.3086E+02
  13.667  0.1274E+01  0.3087E+02
  13.677  0.1276E+01  0.3088E+02
  13.687  0.1278E+01  0.3090E+02
  13.697  0.1280E+01  0.3091E+02
  13.707  0.1282E+01  0.3092E+02
  13.717  0.1284E+01  0.3093E+02
  13.727  0.1286E+01  0.3095E+02
  13.737  0.1288E+01  0.3096E+02
  13.747  0.1289E+01  0.3097E+02
  13.757  0.1290E+01  0.3099E+02
  13.767  0.1292E+01  0.3100E+02
  13.777  0.1293E+01  0.3101E+02
  13.787  0.1294E+01  0.3102E+02
  13.797  0.1295E+01  0.3104E+02
  13.807  0.1295E+01  0.3105E+02
  13.817  0.1296E+01  0.3106E+02
  13.827  0.1296E+01  0.3108E+02
  13.837  0.1297E+01  0.3109E+02
  13.847  0.1297E+01  0.3110E+02
  13.857  0.1297E+01  0.3112E+02
  13.867  0.1297E+01  0.3113E+02
  13.877  0.1297E+01  0.3114E+02
  13.887  0.1297E+01  0.3115E+02
  13.897  0.1296E+01  0.3117E+02
  13.907  0.1296E+01  0.3118E+02
  13.917  0.1296E+01  0.3119E+02
  13.927  0.1295E+01  0.3121E+02
  13.937  0.1294E+01  0.3122E+02
  13.947  0.1294E+01  0.3123E+02
  13.957  0.1293E+01  0.3124E+02
  13.967  0.1292E+01  0.3126E+02
  13.977  0.1291E+01  0.3127E+02
  13.987  0.1290E+01  0.3128E+02
  13.997  0.1289E+01  0.3130E+02
  14.007  0.1288E+01  0.3131E+02
  14.017  0.1287E+01  0.3132E+02
  14.027  0.1286E+01  0.3134E+02
  14.037  0.1285E+01  0.3135E+02
  14.047  0.1284E+01  0.3136E+02
  14.057  0.1283E+01  0.3137E+02
  14.067  0.1282E+01  0.3139E+02
  14.077  0.1280E+01  0.3140E+02
  14.087  0.1279E+01  0.3141E+02
  14.097  0.1278E+01  0.3142E+02
  14.107  0.1277E+01  0.3144E+02
  14.117  0.1276E+01  0.3145E+02
  14.127  0.1275E+01  0.3146E+02
  14.137  0.1275E+01  0.3148E+02
  14.147  0.1274E+01  0.3149E+02
  14.157  0.1273E+01  0.3150E+02
  14.167  0.1272E+01  0.3151E+02
  14.177  0.1272E+01  0.3153E+02
  14.187  0.1271E+01  0.3154E+02
  14.197  0.1271E+01  0.3155E+02
  14.207  0.1271E+01  0.3156E+02
  14.217  0.1270E+01  0.3158E+02
  14.227  0.1270E+01  0.3159E+02
  14.237  0.1270E+01  0.3160E+02
  14.247  0.1271E+01  0.3162E+02
  14.257  0.1271E+01  0.3163E+02
  14.267  0.1271E+01  0.3164E+02
  14.277  0.1272E+01  0.3165E+02
  14.287  0.1272E+01  0.3167E+02
  14.297  0.1273E+01  0.3168E+02
  14.307  0.1274E+01  0.3169E+02
  14.317  0.1275E+01  0.3170E+02
  14.327  0.1277E+01  0.3172E+02
  14.337  0.1278E+01  0.3173E+02
  14.347  0.1279E+01  0.3174E+02
  14.357  0.1281E+01  0.3176E+02
  14.367  0.1283E+01  0.3177E+02
  14.377  0.1285E+01  0.3178E+02
  14.387  0.1287E+01  0.3179E+02
  14.397  0.1289E+01  0.3181E+02
  14.407  0.1292E+01  0.3182E+02
  14.417  0.1294E+01  0.3183E+02
  14.427  0.1297E+01  0.3185E+02
  14.437  0.1300E+01  0.3186E+02
  14.447  0.1303E+01  0.3187E+02
  14.457  0.1306E+01  0.3189E+02
  14.467  0.1309E+01  0.3190E+02
  14.477  0.1312E+01  0.3191E+02
  14.487  0.1316E+01  0.3192E+02
  14.497  0.1319E+01  0.3194E+02
  14.507  0.1323E+01  0.3195E+02
  14.517  0.1327E+01  0.3196E+02
  14.527  0.1331E+01  0.3198E+02
  14.537  0.1335E+01  0.3199E+02
  14.547  0.1339E+01  0.3200E+02
  14.557  0.1343E+01  0.3202E+02
  14.567  0.1347E+01  0.3203E+02
  14.577  0.1351E+01  0.3204E+02
  14.587  0.1355E+01  0.3206E+02
  14.597  0.1359E+01  0.3207E+02
  14.607  0.1364E+01  0.3209E+02
  14.617  0.1368E+01  0.3210E+02
  14.627  0.1372E+01  0.3211E+02
  14.637  0.1377E+01  0.3213E+02
  14.647  0.1381E+01  0.3214E+02
  14.657  0.1385E+01  0.3215E+02
  14.667  0.1390E+01  0.3217E+02
  14.677  0.1394E+01  0.3218E+02
  14.687  0.1398E+01  0.3220E+02
  14.697  0.1402E+01  0.3221E+02
  14.707  0.1407E+01  0.3222E+02
  14.717  0.1411E+01  0.3224E+02
  14.727  0.1415E+01  0.3225E+02
  14.737  0.1419E+01  0.3227E+02
  14.747  0.1423E+01  0.3228E+02
  14.757  0.1426E+01  0.3230E+02
  14.767  0.1430E+01  0.3231E+02
  14.777  0.1434E+01  0.3232E+02
  14.787  0.1437E+01  0.3234E+02
  14.797  0.1441E+01  0.3235E+02
  14.807  0.1444E+01  0.3237E+02
  14.817  0.1447E+01  0.3238E+02
  14.827  0.1450E+01  0.3240E+02
  14.837  0.1453E+01  0.3241E+02
  14.847  0.1456E+01  0.3243E+02
  14.857  0.1458E+01  0.3244E+02
  14.867  0.1461E+01  0.3245E+02
  14.877  0.1463E+01  0.3247E+02
  14.887  0.1466E+01  0.3248E+02
  14.897  0.1468E+01  0.3250E+02
  14.907  0.1469E+01  0.3251E+02
  14.917  0.1471E+01  0.3253E+02
  14.927  0.1473E+01  0.3254E+02
  14.937  0.1474E+01  0.3256E+02
  14.947  0.1476E+01  0.3257E+02
  14.957  0.1477E+01  0.3259E+02
  14.967  0.1478E+01  0.3260E+02
  14.977  0.1479E+01  0.3262E+02
  14.987  0.1479E+01  0.3263E+02
  14.997  0.1480E+01  0.3265E+02
  15.007  0.1480E+01  0.3266E+02
  15.017  0.1481E+01  0.3268E+02
  15.027  0.1481E+01  0.3269E+02
  15.037  0.1481E+01  0.3271E+02
  15.047  0.1481E+01  0.3272E+02
  15.057  0.1481E+01  0.3273E+02
  15.067  0.1480E+01  0.3275E+02
  15.077  0.1480E+01  0.3276E+02
  15.087  0.1479E+01  0.3278E+02
  15.097  0.1478E+01  0.3279E+02
  15.107  0.1477E+01  0.3281E+02
  15.117  0.1476E+01  0.3282E+02
  15.127  0.1475E+01  0.3284E+02
  15.137  0.1474E+01  0.3285E+02
  15.147  0.1473E+01  0.3287E+02
  15.157  0.1472E+01  0.3288E+02
  15.167  0.1470E+01  0.3290E+02
  15.177  0.1469E+01  0.3291E+02
  15.187  0.1467E+01  0.3293E+02
  15.197  0.1465E+01  0.3294E+02
  15.207  0.1463E+01  0.3296E+02
  15.217  0.1462E+01  0.3297E+02
  15.227  0.1460E+01  0.3299E+02
  15.237  0.1458E+01  0.3300E+02
  15.247  0.1456E+01  0.3301E+02
  15.257  0.1454E+01  0.3303E+02
  15.267  0.1452E+01  0.3304E+02
  15.277  0.1450E+01  0.3306E+02
  15.287  0.1447E+01  0.3307E+02
  15.297  0.1445E+01  0.3309E+02
  15.307  0.1443E+01  0.3310E+02
  15.317  0.1441E+01  0.3312E+02
  15.327  0.1439E+01  0.3313E+02
  15.337  0.1436E+01  0.3314E+02
  15.347  0.1434E+01  0.3316E+02
  15.357  0.1432E+01  0.3317E+02
  15.367  0.1429E+01  0.3319E+02
  15.377  0.1427E+01  0.3320E+02
  15.387  0.1425E+01  0.3322E+02
  15.397  0.1423E+01  0.3323E+02
  15.407  0.1420E+01  0.3324E+02
  15.417  0.1418E+01  0.3326E+02
  15.427  0.1416E+01  0.3327E+02
  15.437  0.1413E+01  0.3329E+02
  15.447  0.1411E+01  0.3330E+02
  15.457  0.1409E+01  0.3331E+02
  15.467  0.1407E+01  0.3333E+02
  15.477  0.1405E+01  0.3334E+02
  15.487  0.1402E+01  0.3336E+02
  15.497  0.1400E+01  0.3337E+02
  15.507  0.1398E+01  0.3338E+02
  15.517  0.1396E+01  0.3340E+02
  15.527  0.1394E+01  0.3341E+02
  15.537  0.1392E+01  0.3343E+02
  15.547  0.1390E+01  0.3344E+02
  15.557  0.1388E+01  0.3345E+02
  15.567  0.1386E+01  0.3347E+02
  15.577  0.1384E+01  0.3348E+02
  15.587  0.1383E+01  0.3350E+02
  15.597  0.1381E+01  0.3351E+02
  15.607  0.1379E+01  0.3352E+02
  15.617  0.1377E+01  0.3354E+02
  15.627  0.1375E+01  0.3355E+02
  15.637  0.1374E+01  0.3356E+02
  15.647  0.1372E+01  0.3358E+02
  15.657  0.1371E+01  0.3359E+02
  15.667  0.1369E+01  0.3361E+02
  15.677  0.1368E+01  0.3362E+02
  15.687  0.1366E+01  0.3363E+02
  15.697  0.1365E+01  0.3365E+02
  15.707  0.1363E+01  0.3366E+02
  15.717  0.1362E+01  0.3367E+02
  15.727  0.1361E+01  0.3369E+02
  15.737  0.1359E+01  0.3370E+02
  15.747  0.1358E+01  0.3372E+02
  15.757  0.1357E+01  0.3373E+02
  15.767  0.1356E+01  0.3374E+02
  15.777  0.1354E+01  0.3376E+02
  15.787  0.1353E+01  0.3377E+02
  15.797  0.1352E+01  0.3378E+02
  15.807  0.1351E+01  0.3380E+02
  15.817  0.1350E+01  0.3381E+02
  15.827  0.1349E+01  0.3382E+02
  15.837  0.1348E+01  0.3384E+02
  15.847  0.1347E+01  0.3385E+02
  15.857  0.1346E+01  0.3386E+02
  15.867  0.1345E+01  0.3388E+02
  15.877  0.1344E+01  0.3389E+02
  15.887  0.1344E+01  0.3390E+02
  15.897  0.1343E+01  0.3392E+02
  15.907  0.1342E+01  0.3393E+02
  15.917  0.1341E+01  0.3394E+02
  15.927  0.1340E+01  0.3396E+02
  15.937  0.1340E+01  0.3397E+02
  15.947  0.1339E+01  0.3398E+02
  15.957  0.1338E+01  0.3400E+02
  15.967  0.1337E+01  0.3401E+02
  15.977  0.1337E+01  0.3402E+02
  15.987  0.1336E+01  0.3404E+02
  15.997  0.1335E+01  0.3405E+02
  16.007  0.1335E+01  0.3406E+02
  16.017  0.1334E+01  0.3408E+02
  16.027  0.1333E+01  0.3409E+02
  16.037  0.1333E+01  0.3410E+02
  16.047  0.1332E+01  0.3412E+02
  16.057  0.1331E+01  0.3413E+02
  16.067  0.1331E+01  0.3414E+02
  16.077  0.1330E+01  0.3416E+02
  16.087  0.1329E+01  0.3417E+02
  16.097  0.1328E+01  0.3418E+02
  16.107  0.1328E+01  0.3420E+02
  16.117  0.1327E+01  0.3421E+02
  16.127  0.1326E+01  0.3422E+02
  16.137  0.1326E+01  0.3424E+02
  16.147  0.1325E+01  0.3425E+02
  16.157  0.1324E+01  0.3426E+02
  16.167  0.1324E+01  0.3428E+02
  16.177  0.1323E+01  0.3429E+02
  16.187  0.1322E+01  0.3430E+02
  16.197  0.1321E+01  0.3432E+02
  16.207  0.1321E+01  0.3433E+02
  16.217  0.1320E+01  0.3434E+02
  16.227  0.1319E+01  0.3436E+02
  16.237  0.1318E+01  0.3437E+02
  16.247  0.1318E+01  0.3438E+02
  16.257  0.1317E+01  0.3440E+02
  16.267  0.1316E+01  0.3441E+02
  16.277  0.1315E+01  0.3442E+02
  16.287  0.1315E+01  0.3444E+02
  16.297  0.1314E+01  0.3445E+02
  16.307  0.1313E+01  0.3446E+02
  16.317  0.1312E+01  0.3447E+02
  16.327  0.1312E+01  0.3449E+02
  16.337  0.1311E+01  0.3450E+02
  16.347  0.1310E+01  0.3451E+02
  16.357  0.1309E+01  0.3453E+02
  16.367  0.1309E+01  0.3454E+02
  16.377  0.1308E+01  0.3455E+02
  16.387  0.1307E+01  0.3457E+02
  16.397  0.1307E+01  0.3458E+02
  16.407  0.1306E+01  0.3459E+02
  16.417  0.1305E+01  0.3461E+02
  16.427  0.1305E+01  0.3462E+02
  16.437  0.1304E+01  0.3463E+02
  16.447  0.1303E+01  0.3464E+02
  16.457  0.1303E+01  0.3466E+02
  16.467  0.1302E+01  0.3467E+02
  16.477  0.1301E+01  0.3468E+02
  16.487  0.1301E+01  0.3470E+02
  16.497  0.1300E+01  0.3471E+02
  16.507  0.1300E+01  0.3472E+02
  16.517  0.1299E+01  0.3474E+02
  16.527  0.1299E+01  0.3475E+02
  16.537  0.1298E+01  0.3476E+02
  16.547  0.1298E+01  0.3477E+02
  16.557  0.1297E+01  0.3479E+02
  16.567  0.1297E+01  0.3480E+02
  16.577  0.1297E+01  0.3481E+02
  16.587  0.1296E+01  0.3483E+02
  16.597  0.1296E+01  0.3484E+02
  16.607  0.1296E+01  0.3485E+02
  16.617  0.1295E+01  0.3487E+02
  16.627  0.1295E+01  0.3488E+02
  16.637  0.1295E+01  0.3489E+02
  16.647  0.1295E+01  0.3490E+02
  16.657  0.1294E+01  0.3492E+02
  16.667  0.1294E+01  0.3493E+02
  16.677  0.1294E+01  0.3494E+02
  16.687  0.1294E+01  0.3496E+02
  16.697  0.1293E+01  0.3497E+02
  16.707  0.1293E+01  0.3498E+02
  16.717  0.1293E+01  0.3500E+02
  16.727  0.1293E+01  0.3501E+02
  16.737  0.1293E+01  0.3502E+02
  16.747  0.1293E+01  0.3503E+02
  16.757  0.1293E+01  0.3505E+02
  16.767  0.1292E+01  0.3506E+02
  16.777  0.1292E+01  0.3507E+02
  16.787  0.1292E+01  0.3509E+02
  16.797  0.1292E+01  0.3510E+02
  16.807  0.1292E+01  0.3511E+02
  16.817  0.1292E+01  0.3512E+02
  16.827  0.1291E+01  0.3514E+02
  16.837  0.1291E+01  0.3515E+02
  16.847  0.1291E+01  0.3516E+02
  16.857  0.1291E+01  0.3518E+02
  16.867  0.1290E+01  0.3519E+02
  16.877  0.1290E+01  0.3520E+02
  16.887  0.1290E+01  0.3521E+02
  16.897  0.1289E+01  0.3523E+02
  16.907  0.1289E+01  0.3524E+02
  16.917  0.1289E+01  0.3525E+02
  16.927  0.1288E+01  0.3527E+02
  16.937  0.1288E+01  0.3528E+02
  16.947  0.1287E+01  0.3529E+02
  16.957  0.1287E+01  0.3530E+02
  16.967  0.1286E+01  0.3532E+02
  16.977  0.1286E+01  0.3533E+02
  16.987  0.1285E+01  0.3534E+02
  16.997  0.1284E+01  0.3536E+02
  17.007  0.1284E+01  0.3537E+02
  17.017  0.1283E+01  0.3538E+02
  17.027  0.1282E+01  0.3539E+02
  17.037  0.1281E+01  0.3541E+02
  17.047  0.1281E+01  0.3542E+02
  17.057  0.1280E+01  0.3543E+02
  17.067  0.1279E+01  0.3545E+02
  17.077  0.1278E+01  0.3546E+02
  17.087  0.1277E+01  0.3547E+02
  17.097  0.1276E+01  0.3548E+02
  17.107  0.1275E+01  0.3550E+02
  17.117  0.1273E+01  0.3551E+02
  17.127  0.1272E+01  0.3552E+02
  17.137  0.1271E+01  0.3554E+02
  17.147  0.1270E+01  0.3555E+02
  17.157  0.1268E+01  0.3556E+02
  17.167  0.1267E+01  0.3557E+02
  17.177  0.1266E+01  0.3559E+02
  17.187  0.1264E+01  0.3560E+02
  17.197  0.1263E+01  0.3561E+02
  17.207  0.1261E+01  0.3562E+02
  17.217  0.1260E+01  0.3564E+02
  17.227  0.1258E+01  0.3565E+02
  17.237  0.1257E+01  0.3566E+02
  17.247  0.1255E+01  0.3567E+02
  17.257  0.1254E+01  0.3569E+02
  17.267  0.1252E+01  0.3570E+02
  17.277  0.1250E+01  0.3571E+02
  17.287  0.1249E+01  0.3572E+02
  17.297  0.1247E+01  0.3574E+02
  17.307  0.1245E+01  0.3575E+02
  17.317  0.1243E+01  0.3576E+02
  17.327  0.1242E+01  0.3577E+02
  17.337  0.1240E+01  0.3579E+02
  17.347  0.1238E+01  0.3580E+02
  17.357  0.1236E+01  0.3581E+02
  17.367  0.1234E+01  0.3582E+02
  17.377  0.1233E+01  0.3584E+02
  17.387  0.1231E+01  0.3585E+02
  17.397  0.1229E+01  0.3586E+02
  17.407  0.1227E+01  0.3587E+02
  17.417  0.1225E+01  0.3588E+02
  17.427  0.1223E+01  0.3590E+02
  17.437  0.1222E+01  0.3591E+02
  17.447  0.1220E+01  0.3592E+02
  17.457  0.1218E+01  0.3593E+02
  17.467  0.1216E+01  0.3595E+02
  17.477  0.1214E+01  0.3596E+02
  17.487  0.1212E+01  0.3597E+02
  17.497  0.1211E+01  0.3598E+02
  17.507  0.1209E+01  0.3599E+02
  17.517  0.1207E+01  0.3601E+02
  17.527  0.1205E+01  0.3602E+02
  17.537  0.1203E+01  0.3603E+02
  17.547  0.1202E+01  0.3604E+02
  17.557  0.1200E+01  0.3605E+02
  17.567  0.1198E+01  0.3607E+02
  17.577  0.1196E+01  0.3608E+02
  17.587  0.1195E+01  0.3609E+02
  17.597  0.1193E+01  0.3610E+02
  17.607  0.1191E+01  0.3611E+02
  17.617  0.1190E+01  0.3613E+02
  17.627  0.1188E+01  0.3614E+02
  17.637  0.1186E+01  0.3615E+02
  17.647  0.1185E+01  0.3616E+02
  17.657  0.1183E+01  0.3617E+02
  17.667  0.1182E+01  0.3619E+02
  17.677  0.1180E+01  0.3620E+02
  17.687  0.1179E+01  0.3621E+02
  17.697  0.1177E+01  0.3622E+02
  17.707  0.1176E+01  0.3623E+02
  17.717  0.1174E+01  0.3624E+02
  17.727  0.1173E+01  0.3626E+02
  17.737  0.1171E+01  0.3627E+02
  17.747  0.1170E+01  0.3628E+02
  17.757  0.1169E+01  0.3629E+02
  17.767  0.1167E+01  0.3630E+02
  17.777  0.1166E+01  0.3631E+02
  17.787  0.1165E+01  0.3633E+02
  17.797  0.1163E+01  0.3634E+02
  17.807  0.1162E+01  0.3635E+02
  17.817  0.1161E+01  0.3636E+02
  17.827  0.1160E+01  0.3637E+02
  17.837  0.1159E+01  0.3638E+02
  17.847  0.1158E+01  0.3640E+02
  17.857  0.1157E+01  0.3641E+02
  17.867  0.1156E+01  0.3642E+02
  17.877  0.1155E+01  0.3643E+02
  17.887  0.1154E+01  0.3644E+02
  17.897  0.1153E+01  0.3645E+02
  17.907  0.1152E+01  0.3646E+02
  17.917  0.1151E+01  0.3648E+02
  17.927  0.1150E+01  0.3649E+02
  17.937  0.1149E+01  0.3650E+02
  17.947  0.1148E+01  0.3651E+02
  17.957  0.1148E+01  0.3652E+02
  17.967  0.1147E+01  0.3653E+02
  17.977  0.1146E+01  0.3655E+02
  17.987  0.1145E+01  0.3656E+02
  17.997  0.1145E+01  0.3657E+02
  18.007  0.1144E+01  0.3658E+02
  18.017  0.1144E+01  0.3659E+02
  18.027  0.1143E+01  0.3660E+02
  18.037  0.1143E+01  0.3661E+02
  18.047  0.1142E+01  0.3663E+02
  18.057  0.1142E+01  0.3664E+02
  18.067  0.1141E+01  0.3665E+02
  18.077  0.1141E+01  0.3666E+02
  18.087  0.1140E+01  0.3667E+02
  18.097  0.1140E+01  0.3668E+02
  18.107  0.1140E+01  0.3669E+02
  18.117  0.1139E+01  0.3671E+02
  18.127  0.1139E+01  0.3672E+02
  18.137  0.1139E+01  0.3673E+02
  18.147  0.1139E+01  0.3674E+02
  18.157  0.1139E+01  0.3675E+02
  18.167  0.1138E+01  0.3676E+02
  18.177  0.1138E+01  0.3677E+02
  18.187  0.1138E+01  0.3678E+02
  18.197  0.1138E+01  0.3680E+02
  18.207  0.1138E+01  0.3681E+02
  18.217  0.1138E+01  0.3682E+02
  18.227  0.1138E+01  0.3683E+02
  18.237  0.1138E+01  0.3684E+02
  18.247  0.1138E+01  0.3685E+02
  18.257  0.1138E+01  0.3686E+02
  18.267  0.1138E+01  0.3688E+02
  18.277  0.1138E+01  0.3689E+02
  18.287  0.1138E+01  0.3690E+02
  18.297  0.1138E+01  0.3691E+02
  18.307  0.1138E+01  0.3692E+02
  18.317  0.1138E+01  0.3693E+02
  18.327  0.1138E+01  0.3694E+02
  18.337  0.1138E+01  0.3696E+02
  18.347  0.1138E+01  0.3697E+02
  18.357  0.1138E+01  0.3698E+02
  18.367  0.1138E+01  0.3699E+02
  18.377  0.1138E+01  0.3700E+02
  18.387  0.1138E+01  0.3701E+02
  18.397  0.1138E+01  0.3702E+02
  18.407  0.1138E+01  0.3704E+02
  18.417  0.1139E+01  0.3705E+02
  18.427  0.1139E+01  0.3706E+02
  18.437  0.1139E+01  0.3707E+02
  18.447  0.1139E+01  0.3708E+02
  18.457  0.1139E+01  0.3709E+02
  18.467  0.1139E+01  0.3710E+02
  18.477  0.1139E+01  0.3711E+02
  18.487  0.1139E+01  0.3713E+02
  18.497  0.1139E+01  0.3714E+02
  18.507  0.1139E+01  0.3715E+02
  18.517  0.1139E+01  0.3716E+02
  18.527  0.1139E+01  0.3717E+02
  18.537  0.1138E+01  0.3718E+02
  18.547  0.1138E+01  0.3719E+02
  18.557  0.1138E+01  0.3721E+02
  18.567  0.1138E+01  0.3722E+02
  18.577  0.1138E+01  0.3723E+02
  18.587  0.1138E+01  0.3724E+02
  18.597  0.1138E+01  0.3725E+02
  18.607  0.1138E+01  0.3726E+02
  18.617  0.1138E+01  0.3727E+02
  18.627  0.1138E+01  0.3729E+02
  18.637  0.1138E+01  0.3730E+02
  18.647  0.1138E+01  0.3731E+02
  18.657  0.1138E+01  0.3732E+02
  18.667  0.1137E+01  0.3733E+02
  18.677  0.1137E+01  0.3734E+02
  18.687  0.1137E+01  0.3735E+02
  18.697  0.1137E+01  0.3737E+02
  18.707  0.1137E+01  0.3738E+02
  18.717  0.1137E+01  0.3739E+02
  18.727  0.1137E+01  0.3740E+02
  18.737  0.1137E+01  0.3741E+02
  18.747  0.1137E+01  0.3742E+02
  18.757  0.1137E+01  0.3743E+02
  18.767  0.1137E+01  0.3744E+02
  18.777  0.1137E+01  0.3746E+02
  18.787  0.1138E+01  0.3747E+02
  18.797  0.1138E+01  0.3748E+02
  18.807  0.1138E+01  0.3749E+02
  18.817  0.1138E+01  0.3750E+02
  18.827  0.1139E+01  0.3751E+02
  18.837  0.1139E+01  0.3752E+02
  18.847  0.1139E+01  0.3754E+02
  18.857  0.1140E+01  0.3755E+02
  18.867  0.1140E+01  0.3756E+02
  18.877  0.1141E+01  0.3757E+02
  18.887  0.1141E+01  0.3758E+02
  18.897  0.1142E+01  0.3759E+02
  18.907  0.1143E+01  0.3760E+02
  18.917  0.1143E+01  0.3762E+02
  18.927  0.1144E+01  0.3763E+02
  18.937  0.1145E+01  0.3764E+02
  18.947  0.1146E+01  0.3765E+02
  18.957  0.1147E+01  0.3766E+02
  18.967  0.1148E+01  0.3767E+02
  18.977  0.1149E+01  0.3768E+02
  18.987  0.1150E+01  0.3770E+02
  18.997  0.1152E+01  0.3771E+02
  19.007  0.1153E+01  0.3772E+02
  19.017  0.1155E+01  0.3773E+02
  19.027  0.1156E+01  0.3774E+02
  19.037  0.1158E+01  0.3775E+02
  19.047  0.1159E+01  0.3777E+02
  19.057  0.1161E+01  0.3778E+02
  19.067  0.1163E+01  0.3779E+02
  19.077  0.1165E+01  0.3780E+02
  19.087  0.1167E+01  0.3781E+02
  19.097  0.1169E+01  0.3782E+02
  19.107  0.1171E+01  0.3784E+02
  19.117  0.1173E+01  0.3785E+02
  19.127  0.1175E+01  0.3786E+02
  19.137  0.1178E+01  0.3787E+02
  19.147  0.1180E+01  0.3788E+02
  19.157  0.1182E+01  0.3789E+02
  19.167  0.1185E+01  0.3791E+02
  19.177  0.1188E+01  0.3792E+02
  19.187  0.1190E+01  0.3793E+02
  19.197  0.1193E+01  0.3794E+02
  19.207  0.1196E+01  0.3795E+02
  19.217  0.1198E+01  0.3797E+02
  19.227  0.1201E+01  0.3798E+02
  19.237  0.1204E+01  0.3799E+02
  19.247  0.1207E+01  0.3800E+02
  19.257  0.1210E+01  0.3801E+02
  19.267  0.1213E+01  0.3803E+02
  19.277  0.1215E+01  0.3804E+02
  19.287  0.1218E+01  0.3805E+02
  19.297  0.1221E+01  0.3806E+02
  19.307  0.1224E+01  0.3807E+02
  19.317  0.1227E+01  0.3809E+02
  19.327  0.1230E+01  0.3810E+02
  19.337  0.1233E+01  0.3811E+02
  19.347  0.1236E+01  0.3812E+02
  19.357  0.1239E+01  0.3814E+02
  19.367  0.1242E+01  0.3815E+02
  19.377  0.1245E+01  0.3816E+02
  19.387  0.1248E+01  0.3817E+02
  19.397  0.1250E+01  0.3819E+02
  19.407  0.1253E+01  0.3820E+02
  19.417  0.1256E+01  0.3821E+02
  19.427  0.1258E+01  0.3822E+02
  19.437  0.1261E+01  0.3824E+02
  19.447  0.1264E+01  0.3825E+02
  19.457  0.1266E+01  0.3826E+02
  19.467  0.1268E+01  0.3827E+02
  19.477  0.1271E+01  0.3829E+02
  19.487  0.1273E+01  0.3830E+02
  19.497  0.1275E+01  0.3831E+02
  19.507  0.1277E+01  0.3833E+02
  19.517  0.1279E+01  0.3834E+02
  19.527  0.1281E+01  0.3835E+02
  19.537  0.1283E+01  0.3836E+02
  19.547  0.1284E+01  0.3838E+02
  19.557  0.1286E+01  0.3839E+02
  19.567  0.1288E+01  0.3840E+02
  19.577  0.1289E+01  0.3842E+02
  19.587  0.1290E+01  0.3843E+02
  19.597  0.1291E+01  0.3844E+02
  19.607  0.1292E+01  0.3845E+02
  19.617  0.1293E+01  0.3847E+02
  19.627  0.1294E+01  0.3848E+02
  19.637  0.1295E+01  0.3849E+02
  19.647  0.1295E+01  0.3851E+02
  19.657  0.1296E+01  0.3852E+02
  19.667  0.1296E+01  0.3853E+02
  19.677  0.1297E+01  0.3854E+02
  19.687  0.1297E+01  0.3856E+02
  19.697  0.1297E+01  0.3857E+02
  19.707  0.1297E+01  0.3858E+02
  19.717  0.1297E+01  0.3860E+02
  19.727  0.1297E+01  0.3861E+02
  19.737  0.1296E+01  0.3862E+02
  19.747  0.1296E+01  0.3864E+02
  19.757  0.1295E+01  0.3865E+02
  19.767  0.1295E+01  0.3866E+02
  19.777  0.1294E+01  0.3867E+02
  19.787  0.1294E+01  0.3869E+02
  19.797  0.1293E+01  0.3870E+02
  19.807  0.1292E+01  0.3871E+02
  19.817  0.1291E+01  0.3873E+02
  19.827  0.1290E+01  0.3874E+02
  19.837  0.1289E+01  0.3875E+02
  19.847  0.1288E+01  0.3876E+02
  19.857  0.1287E+01  0.3878E+02
  19.867  0.1286E+01  0.3879E+02
  19.877  0.1285E+01  0.3880E+02
  19.887  0.1284E+01  0.3882E+02
  19.897  0.1283E+01  0.3883E+02
  19.907  0.1282E+01  0.3884E+02
  19.917  0.1281E+01  0.3885E+02
  19.927  0.1280E+01  0.3887E+02
  19.937  0.1279E+01  0.3888E+02
  19.947  0.1278E+01  0.3889E+02
  19.957  0.1277E+01  0.3891E+02
  19.967  0.1276E+01  0.3892E+02
  19.977  0.1275E+01  0.3893E+02
  19.987  0.1274E+01  0.3894E+02
  19.997  0.1274E+01  0.3896E+02
  20.007  0.1273E+01  0.3897E+02
  20.017  0.1273E+01  0.3898E+02
  20.027  0.1272E+01  0.3900E+02
  20.037  0.1272E+01  0.3901E+02
  20.047  0.1272E+01  0.3902E+02
  20.057  0.1272E+01  0.3903E+02
  20.067  0.1272E+01  0.3905E+02
  20.077  0.1272E+01  0.3906E+02
  20.087  0.1272E+01  0.3907E+02
  20.097  0.1272E+01  0.3908E+02
  20.107  0.1273E+01  0.3910E+02
  20.117  0.1274E+01  0.3911E+02
  20.127  0.1274E+01  0.3912E+02
  20.137  0.1275E+01  0.3914E+02
  20.147  0.1277E+01  0.3915E+02
  20.157  0.1278E+01  0.3916E+02
  20.167  0.1279E+01  0.3917E+02
  20.177  0.1281E+01  0.3919E+02
  20.187  0.1283E+01  0.3920E+02
  20.197  0.1285E+01  0.3921E+02
  20.207  0.1287E+01  0.3922E+02
  20.217  0.1289E+01  0.3924E+02
  20.227  0.1292E+01  0.3925E+02
  20.237  0.1294E+01  0.3926E+02
  20.247  0.1297E+01  0.3928E+02
  20.257  0.1300E+01  0.3929E+02
  20.267  0.1304E+01  0.3930E+02
  20.277  0.1307E+01  0.3932E+02
  20.287  0.1311E+01  0.3933E+02
  20.297  0.1314E+01  0.3934E+02
  20.307  0.1318E+01  0.3936E+02
  20.317  0.1322E+01  0.3937E+02
  20.327  0.1327E+01  0.3938E+02
  20.337  0.1331E+01  0.3939E+02
  20.347  0.1335E+01  0.3941E+02
  20.357  0.1340E+01  0.3942E+02
  20.367  0.1345E+01  0.3944E+02
  20.377  0.1350E+01  0.3945E+02
  20.387  0.1355E+01  0.3946E+02
  20.397  0.1360E+01  0.3948E+02
  20.407  0.1366E+01  0.3949E+02
  20.417  0.1371E+01  0.3950E+02
  20.427  0.1377E+01  0.3952E+02
  20.437  0.1382E+01  0.3953E+02
  20.447  0.1388E+01  0.3954E+02
  20.457  0.1394E+01  0.3956E+02
  20.467  0.1400E+01  0.3957E+02
  20.477  0.1406E+01  0.3959E+02
  20.487  0.1412E+01  0.3960E+02
  20.497  0.1418E+01  0.3961E+02
  20.507  0.1424E+01  0.3963E+02
  20.517  0.1430E+01  0.3964E+02
  20.527  0.1436E+01  0.3966E+02
  20.537  0.1443E+01  0.3967E+02
  20.547  0.1449E+01  0.3969E+02
  20.557  0.1455E+01  0.3970E+02
  20.567  0.1461E+01  0.3972E+02
  20.577  0.1467E+01  0.3973E+02
  20.587  0.1474E+01  0.3975E+02
  20.597  0.1480E+01  0.3976E+02
  20.607  0.1486E+01  0.3977E+02
  20.617  0.1492E+01  0.3979E+02
  20.627  0.1498E+01  0.3980E+02
  20.637  0.1504E+01  0.3982E+02
  20.647  0.1510E+01  0.3983E+02
  20.657  0.1515E+01  0.3985E+02
  20.667  0.1521E+01  0.3987E+02
  20.677  0.1527E+01  0.3988E+02
  20.687  0.1532E+01  0.3990E+02
  20.697  0.1537E+01  0.3991E+02
  20.707  0.1543E+01  0.3993E+02
  20.717  0.1548E+01  0.3994E+02
  20.727  0.1553E+01  0.3996E+02
  20.737  0.1558E+01  0.3997E+02
  20.747  0.1562E+01  0.3999E+02
  20.757  0.1567E+01  0.4000E+02
  20.767  0.1571E+01  0.4002E+02
  20.777  0.1576E+01  0.4004E+02
  20.787  0.1580E+01  0.4005E+02
  20.797  0.1584E+01  0.4007E+02
  20.807  0.1588E+01  0.4008E+02
  20.817  0.1591E+01  0.4010E+02
  20.827  0.1595E+01  0.4012E+02
  20.837  0.1598E+01  0.4013E+02
  20.847  0.1602E+01  0.4015E+02
  20.857  0.1605E+01  0.4016E+02
  20.867  0.1607E+01  0.4018E+02
  20.877  0.1610E+01  0.4020E+02
  20.887  0.1613E+01  0.4021E+02
  20.897  0.1615E+01  0.4023E+02
  20.907  0.1617E+01  0.4024E+02
  20.917  0.1619E+01  0.4026E+02
  20.927  0.1621E+01  0.4028E+02
  20.937  0.1623E+01  0.4029E+02
  20.947  0.1625E+01  0.4031E+02
  20.957  0.1626E+01  0.4033E+02
  20.967  0.1627E+01  0.4034E+02
  20.977  0.1628E+01  0.4036E+02
  20.987  0.1629E+01  0.4037E+02
  20.997  0.1630E+01  0.4039E+02
  21.007  0.1630E+01  0.4041E+02
  21.017  0.1631E+01  0.4042E+02
  21.027  0.1631E+01  0.4044E+02
  21.037  0.1631E+01  0.4046E+02
  21.047  0.1631E+01  0.4047E+02
  21.057  0.1631E+01  0.4049E+02
  21.067  0.1631E+01  0.4050E+02
  21.077  0.1631E+01  0.4052E+02
  21.087  0.1630E+01  0.4054E+02
  21.097  0.1629E+01  0.4055E+02
  21.107  0.1629E+01  0.4057E+02
  21.117  0.1628E+01  0.4059E+02
  21.127  0.1627E+01  0.4060E+02
  21.137  0.1626E+01  0.4062E+02
  21.147  0.1624E+01  0.4063E+02
  21.157  0.1623E+01  0.4065E+02
  21.167  0.1622E+01  0.4067E+02
  21.177  0.1620E+01  0.4068E+02
  21.187  0.1619E+01  0.4070E+02
  21.197  0.1617E+01  0.4072E+02
  21.207  0.1615E+01  0.4073E+02
  21.217  0.1613E+01  0.4075E+02
  21.227  0.1611E+01  0.4076E+02
  21.237  0.1609E+01  0.4078E+02
  21.247  0.1607E+01  0.4080E+02
  21.257  0.1605E+01  0.4081E+02
  21.267  0.1603E+01  0.4083E+02
  21.277  0.1601E+01  0.4084E+02
  21.287  0.1599E+01  0.4086E+02
  21.297  0.1596E+01  0.4088E+02
  21.307  0.1594E+01  0.4089E+02
  21.317  0.1591E+01  0.4091E+02
  21.327  0.1589E+01  0.4092E+02
  21.337  0.1587E+01  0.4094E+02
  21.347  0.1584E+01  0.4096E+02
  21.357  0.1582E+01  0.4097E+02
  21.367  0.1579E+01  0.4099E+02
  21.377  0.1577E+01  0.4100E+02
  21.387  0.1574E+01  0.4102E+02
  21.397  0.1572E+01  0.4103E+02
  21.407  0.1569E+01  0.4105E+02
  21.417  0.1567E+01  0.4107E+02
  21.427  0.1564E+01  0.4108E+02
  21.437  0.1562E+01  0.4110E+02
  21.447  0.1559E+01  0.4111E+02
  21.457  0.1557E+01  0.4113E+02
  21.467  0.1554E+01  0.4114E+02
  21.477  0.1552E+01  0.4116E+02
  21.487  0.1550E+01  0.4117E+02
  21.497  0.1547E+01  0.4119E+02
  21.507  0.1545E+01  0.4121E+02
  21.517  0.1543E+01  0.4122E+02
  21.527  0.1541E+01  0.4124E+02
  21.537  0.1539E+01  0.4125E+02
  21.547  0.1537E+01  0.4127E+02
  21.557  0.1535E+01  0.4128E+02
  21.567  0.1533E+01  0.4130E+02
  21.577  0.1531E+01  0.4131E+02
  21.587  0.1529E+01  0.4133E+02
  21.597  0.1528E+01  0.4134E+02
  21.607  0.1526E+01  0.4136E+02
  21.617  0.1525E+01  0.4137E+02
  21.627  0.1523E+01  0.4139E+02
  21.637  0.1522E+01  0.4140E+02
  21.647  0.1521E+01  0.4142E+02
  21.657  0.1520E+01  0.4144E+02
  21.667  0.1519E+01  0.4145E+02
  21.677  0.1518E+01  0.4147E+02
  21.687  0.1517E+01  0.4148E+02
  21.697  0.1516E+01  0.4150E+02
  21.707  0.1515E+01  0.4151E+02
  21.717  0.1515E+01  0.4153E+02
  21.727  0.1514E+01  0.4154E+02
  21.737  0.1514E+01  0.4156E+02
  21.747  0.1514E+01  0.4157E+02
  21.757  0.1514E+01  0.4159E+02
  21.767  0.1514E+01  0.4160E+02
  21.777  0.1514E+01  0.4162E+02
  21.787  0.1514E+01  0.4163E+02
  21.797  0.1514E+01  0.4165E+02
  21.807  0.1515E+01  0.4166E+02
  21.817  0.1515E+01  0.4168E+02
  21.827  0.1516E+01  0.4169E+02
  21.837  0.1517E+01  0.4171E+02
  21.847  0.1518E+01  0.4172E+02
  21.857  0.1519E+01  0.4174E+02
  21.867  0.1520E+01  0.4175E+02
  21.877  0.1521E+01  0.4177E+02
  21.887  0.1522E+01  0.4178E+02
  21.897  0.1524E+01  0.4180E+02
  21.907  0.1525E+01  0.4181E+02
  21.917  0.1527E+01  0.4183E+02
  21.927  0.1528E+01  0.4185E+02
  21.937  0.1530E+01  0.4186E+02
  21.947  0.1532E+01  0.4188E+02
  21.957  0.1534E+01  0.4189E+02
  21.967  0.1536E+01  0.4191E+02
  21.977  0.1538E+01  0.4192E+02
  21.987  0.1540E+01  0.4194E+02
  21.997  0.1543E+01  0.4195E+02
  22.007  0.1545E+01  0.4197E+02
  22.017  0.1547E+01  0.4198E+02
  22.027  0.1550E+01  0.4200E+02
  22.037  0.1553E+01  0.4201E+02
  22.047  0.1555E+01  0.4203E+02
  22.057  0.1558E+01  0.4205E+02
  22.067  0.1561E+01  0.4206E+02
  22.077  0.1564E+01  0.4208E+02
  22.087  0.1567E+01  0.4209E+02
  22.097  0.1570E+01  0.4211E+02
  22.107  0.1573E+01  0.4212E+02
  22.117  0.1576E+01  0.4214E+02
  22.127  0.1579E+01  0.4216E+02
  22.137  0.1582E+01  0.4217E+02
  22.147  0.1585E+01  0.4219E+02
  22.157  0.1588E+01  0.4220E+02
  22.167  0.1592E+01  0.4222E+02
  22.177  0.1595E+01  0.4224E+02
  22.187  0.1598E+01  0.4225E+02
  22.197  0.1602E+01  0.4227E+02
  22.207  0.1605E+01  0.4228E+02
  22.217  0.1608E+01  0.4230E+02
  22.227  0.1612E+01  0.4232E+02
  22.237  0.1615E+01  0.4233E+02
  22.247  0.1619E+01  0.4235E+02
  22.257  0.1622E+01  0.4236E+02
  22.267  0.1625E+01  0.4238E+02
  22.277  0.1629E+01  0.4240E+02
  22.287  0.1632E+01  0.4241E+02
  22.297  0.1636E+01  0.4243E+02
  22.307  0.1639E+01  0.4245E+02
  22.317  0.1643E+01  0.4246E+02
  22.327  0.1646E+01  0.4248E+02
  22.337  0.1649E+01  0.4249E+02
  22.347  0.1653E+01  0.4251E+02
  22.357  0.1656E+01  0.4253E+02
  22.367  0.1659E+01  0.4254E+02
  22.377  0.1663E+01  0.4256E+02
  22.387  0.1666E+01  0.4258E+02
  22.397  0.1669E+01  0.4259E+02
  22.407  0.1672E+01  0.4261E+02
  22.417  0.1675E+01  0.4263E+02
  22.427  0.1678E+01  0.4264E+02
  22.437  0.1682E+01  0.4266E+02
  22.447  0.1685E+01  0.4268E+02
  22.457  0.1688E+01  0.4270E+02
  22.467  0.1690E+01  0.4271E+02
  22.477  0.1693E+01  0.4273E+02
  22.487  0.1696E+01  0.4275E+02
  22.497  0.1699E+01  0.4276E+02
  22.507  0.1702E+01  0.4278E+02
  22.517  0.1704E+01  0.4280E+02
  22.527  0.1707E+01  0.4281E+02
  22.537  0.1709E+01  0.4283E+02
  22.547  0.1712E+01  0.4285E+02
  22.557  0.1714E+01  0.4287E+02
  22.567  0.1717E+01  0.4288E+02
  22.577  0.1719E+01  0.4290E+02
  22.587  0.1721E+01  0.4292E+02
  22.597  0.1723E+01  0.4293E+02
  22.607  0.1725E+01  0.4295E+02
  22.617  0.1727E+01  0.4297E+02
  22.627  0.1729E+01  0.4299E+02
  22.637  0.1731E+01  0.4300E+02
  22.647  0.1733E+01  0.4302E+02
  22.657  0.1735E+01  0.4304E+02
  22.667  0.1736E+01  0.4306E+02
  22.677  0.1738E+01  0.4307E+02
  22.687  0.1739E+01  0.4309E+02
  22.697  0.1741E+01  0.4311E+02
  22.707  0.1742E+01  0.4313E+02
  22.717  0.1743E+01  0.4314E+02
  22.727  0.1745E+01  0.4316E+02
  22.737  0.1746E+01  0.4318E+02
  22.747  0.1747E+01  0.4319E+02
  22.757  0.1748E+01  0.4321E+02
  22.767  0.1749E+01  0.4323E+02
  22.777  0.1750E+01  0.4325E+02
  22.787  0.1750E+01  0.4326E+02
  22.797  0.1751E+01  0.4328E+02
  22.807  0.1752E+01  0.4330E+02
  22.817  0.1752E+01  0.4332E+02
  22.827  0.1753E+01  0.4334E+02
  22.837  0.1753E+01  0.4335E+02
  22.847  0.1753E+01  0.4337E+02
  22.857  0.1754E+01  0.4339E+02
  22.867  0.1754E+01  0.4341E+02
  22.877  0.1754E+01  0.4342E+02
  22.887  0.1754E+01  0.4344E+02
  22.897  0.1754E+01  0.4346E+02
  22.907  0.1754E+01  0.4348E+02
  22.917  0.1754E+01  0.4349E+02
  22.927  0.1753E+01  0.4351E+02
  22.937  0.1753E+01  0.4353E+02
  22.947  0.1753E+01  0.4355E+02
  22.957  0.1752E+01  0.4356E+02
  22.967  0.1752E+01  0.4358E+02
  22.977  0.1751E+01  0.4360E+02
  22.987  0.1751E+01  0.4362E+02
  22.997  0.1750E+01  0.4363E+02
  23.007  0.1749E+01  0.4365E+02
  23.017  0.1748E+01  0.4367E+02
  23.027  0.1748E+01  0.4369E+02
  23.037  0.1747E+01  0.4370E+02
  23.047  0.1746E+01  0.4372E+02
  23.057  0.1745E+01  0.4374E+02
  23.067  0.1744E+01  0.4376E+02
  23.077  0.1743E+01  0.4377E+02
  23.087  0.1742E+01  0.4379E+02
  23.097  0.1741E+01  0.4381E+02
  23.107  0.1739E+01  0.4382E+02
  23.117  0.1738E+01  0.4384E+02
  23.127  0.1737E+01  0.4386E+02
  23.137  0.1736E+01  0.4388E+02
  23.147  0.1734E+01  0.4389E+02
  23.157  0.1733E+01  0.4391E+02
  23.167  0.1732E+01  0.4393E+02
  23.177  0.1730E+01  0.4395E+02
  23.187  0.1729E+01  0.4396E+02
  23.197  0.1727E+01  0.4398E+02
  23.207  0.1726E+01  0.4400E+02
  23.217  0.1724E+01  0.4402E+02
  23.227  0.1723E+01  0.4403E+02
  23.237  0.1721E+01  0.4405E+02
  23.247  0.1720E+01  0.4407E+02
  23.257  0.1718E+01  0.4408E+02
  23.267  0.1717E+01  0.4410E+02
  23.277  0.1715E+01  0.4412E+02
  23.287  0.1714E+01  0.4414E+02
  23.297  0.1712E+01  0.4415E+02
  23.307  0.1710E+01  0.4417E+02
  23.317  0.1709E+01  0.4419E+02
  23.327  0.1707E+01  0.4420E+02
  23.337  0.1706E+01  0.4422E+02
  23.347  0.1704E+01  0.4424E+02
  23.357  0.1703E+01  0.4426E+02
  23.367  0.1701E+01  0.4427E+02
  23.377  0.1700E+01  0.4429E+02
  23.387  0.1699E+01  0.4431E+02
  23.397  0.1697E+01  0.4432E+02
  23.407  0.1696E+01  0.4434E+02
  23.417  0.1694E+01  0.4436E+02
  23.427  0.1693E+01  0.4437E+02
  23.437  0.1692E+01  0.4439E+02
  23.447  0.1690E+01  0.4441E+02
  23.457  0.1689E+01  0.4442E+02
  23.467  0.1688E+01  0.4444E+02
  23.477  0.1687E+01  0.4446E+02
  23.487  0.1686E+01  0.4448E+02
  23.497  0.1685E+01  0.4449E+02
  23.507  0.1684E+01  0.4451E+02
  23.517  0.1683E+01  0.4453E+02
  23.527  0.1682E+01  0.4454E+02
  23.537  0.1681E+01  0.4456E+02
  23.547  0.1680E+01  0.4458E+02
  23.557  0.1679E+01  0.4459E+02
  23.567  0.1678E+01  0.4461E+02
  23.577  0.1677E+01  0.4463E+02
  23.587  0.1677E+01  0.4464E+02
  23.597  0.1676E+01  0.4466E+02
  23.607  0.1676E+01  0.4468E+02
  23.617  0.1675E+01  0.4469E+02
  23.627  0.1674E+01  0.4471E+02
  23.637  0.1674E+01  0.4473E+02
  23.647  0.1674E+01  0.4474E+02
  23.657  0.1673E+01  0.4476E+02
  23.667  0.1673E+01  0.4478E+02
  23.677  0.1673E+01  0.4479E+02
  23.687  0.1672E+01  0.4481E+02
  23.697  0.1672E+01  0.4483E+02
  23.707  0.1672E+01  0.4484E+02
  23.717  0.1672E+01  0.4486E+02
  23.727  0.1672E+01  0.4488E+02
  23.737  0.1672E+01  0.4489E+02
  23.747  0.1672E+01  0.4491E+02
  23.757  0.1672E+01  0.4493E+02
  23.767  0.1672E+01  0.4494E+02
  23.777  0.1672E+01  0.4496E+02
  23.787  0.1672E+01  0.4498E+02
  23.797  0.1672E+01  0.4499E+02
  23.807  0.1673E+01  0.4501E+02
  23.817  0.1673E+01  0.4503E+02
  23.827  0.1673E+01  0.4504E+02
  23.837  0.1673E+01  0.4506E+02
  23.847  0.1674E+01  0.4508E+02
  23.857  0.1674E+01  0.4510E+02
  23.867  0.1674E+01  0.4511E+02
  23.877  0.1674E+01  0.4513E+02
  23.887  0.1675E+01  0.4515E+02
  23.897  0.1675E+01  0.4516E+02
