#  E (eV)   dos(E)     Int dos(E) EFermi =   2.573 eV
 -17.180  0.5207E-05  0.5207E-07
 -17.170  0.8268E-05  0.1347E-06
 -17.160  0.1300E-04  0.2648E-06
 -17.150  0.2025E-04  0.4672E-06
 -17.140  0.3124E-04  0.7796E-06
 -17.130  0.4772E-04  0.1257E-05
 -17.120  0.7222E-04  0.1979E-05
 -17.110  0.1083E-03  0.3062E-05
 -17.100  0.1608E-03  0.4669E-05
 -17.090  0.2365E-03  0.7034E-05
 -17.080  0.3445E-03  0.1048E-04
 -17.070  0.4973E-03  0.1545E-04
 -17.060  0.7112E-03  0.2257E-04
 -17.050  0.1008E-02  0.3264E-04
 -17.040  0.1414E-02  0.4678E-04
 -17.030  0.1967E-02  0.6645E-04
 -17.020  0.2710E-02  0.9355E-04
 -17.010  0.3699E-02  0.1305E-03
 -17.000  0.5004E-02  0.1806E-03
 -16.990  0.6707E-02  0.2477E-03
 -16.980  0.8908E-02  0.3367E-03
 -16.970  0.1172E-01  0.4540E-03
 -16.960  0.1529E-01  0.6069E-03
 -16.950  0.1977E-01  0.8046E-03
 -16.940  0.2533E-01  0.1058E-02
 -16.930  0.3216E-01  0.1379E-02
 -16.920  0.4048E-01  0.1784E-02
 -16.910  0.5050E-01  0.2289E-02
 -16.900  0.6247E-01  0.2914E-02
 -16.890  0.7661E-01  0.3680E-02
 -16.880  0.9315E-01  0.4612E-02
 -16.870  0.1123E+00  0.5735E-02
 -16.860  0.1343E+00  0.7078E-02
 -16.850  0.1594E+00  0.8672E-02
 -16.840  0.1876E+00  0.1055E-01
 -16.830  0.2191E+00  0.1274E-01
 -16.820  0.2539E+00  0.1528E-01
 -16.810  0.2922E+00  0.1820E-01
 -16.800  0.3338E+00  0.2154E-01
 -16.790  0.3787E+00  0.2532E-01
 -16.780  0.4268E+00  0.2959E-01
 -16.770  0.4780E+00  0.3437E-01
 -16.760  0.5321E+00  0.3969E-01
 -16.750  0.5890E+00  0.4558E-01
 -16.740  0.6483E+00  0.5207E-01
 -16.730  0.7099E+00  0.5916E-01
 -16.720  0.7735E+00  0.6690E-01
 -16.710  0.8389E+00  0.7529E-01
 -16.700  0.9059E+00  0.8435E-01
 -16.690  0.9742E+00  0.9409E-01
 -16.680  0.1044E+01  0.1045E+00
 -16.670  0.1114E+01  0.1157E+00
 -16.660  0.1185E+01  0.1275E+00
 -16.650  0.1256E+01  0.1401E+00
 -16.640  0.1327E+01  0.1533E+00
 -16.630  0.1398E+01  0.1673E+00
 -16.620  0.1469E+01  0.1820E+00
 -16.610  0.1540E+01  0.1974E+00
 -16.600  0.1610E+01  0.2135E+00
 -16.590  0.1680E+01  0.2303E+00
 -16.580  0.1750E+01  0.2478E+00
 -16.570  0.1821E+01  0.2660E+00
 -16.560  0.1891E+01  0.2849E+00
 -16.550  0.1963E+01  0.3046E+00
 -16.540  0.2037E+01  0.3249E+00
 -16.530  0.2113E+01  0.3461E+00
 -16.520  0.2192E+01  0.3680E+00
 -16.510  0.2276E+01  0.3908E+00
 -16.500  0.2364E+01  0.4144E+00
 -16.490  0.2458E+01  0.4390E+00
 -16.480  0.2558E+01  0.4646E+00
 -16.470  0.2665E+01  0.4912E+00
 -16.460  0.2779E+01  0.5190E+00
 -16.450  0.2900E+01  0.5480E+00
 -16.440  0.3028E+01  0.5783E+00
 -16.430  0.3163E+01  0.6099E+00
 -16.420  0.3303E+01  0.6430E+00
 -16.410  0.3448E+01  0.6774E+00
 -16.400  0.3597E+01  0.7134E+00
 -16.390  0.3748E+01  0.7509E+00
 -16.380  0.3900E+01  0.7899E+00
 -16.370  0.4051E+01  0.8304E+00
 -16.360  0.4200E+01  0.8724E+00
 -16.350  0.4343E+01  0.9158E+00
 -16.340  0.4480E+01  0.9606E+00
 -16.330  0.4608E+01  0.1007E+01
 -16.320  0.4724E+01  0.1054E+01
 -16.310  0.4827E+01  0.1102E+01
 -16.300  0.4914E+01  0.1151E+01
 -16.290  0.4984E+01  0.1201E+01
 -16.280  0.5034E+01  0.1252E+01
 -16.270  0.5062E+01  0.1302E+01
 -16.260  0.5069E+01  0.1353E+01
 -16.250  0.5051E+01  0.1403E+01
 -16.240  0.5009E+01  0.1453E+01
 -16.230  0.4943E+01  0.1503E+01
 -16.220  0.4853E+01  0.1551E+01
 -16.210  0.4740E+01  0.1599E+01
 -16.200  0.4605E+01  0.1645E+01
 -16.190  0.4451E+01  0.1689E+01
 -16.180  0.4279E+01  0.1732E+01
 -16.170  0.4094E+01  0.1773E+01
 -16.160  0.3897E+01  0.1812E+01
 -16.150  0.3694E+01  0.1849E+01
 -16.140  0.3486E+01  0.1884E+01
 -16.130  0.3279E+01  0.1917E+01
 -16.120  0.3076E+01  0.1947E+01
 -16.110  0.2881E+01  0.1976E+01
 -16.100  0.2696E+01  0.2003E+01
 -16.090  0.2526E+01  0.2028E+01
 -16.080  0.2372E+01  0.2052E+01
 -16.070  0.2238E+01  0.2075E+01
 -16.060  0.2125E+01  0.2096E+01
 -16.050  0.2036E+01  0.2116E+01
 -16.040  0.1972E+01  0.2136E+01
 -16.030  0.1933E+01  0.2155E+01
 -16.020  0.1922E+01  0.2174E+01
 -16.010  0.1937E+01  0.2194E+01
 -16.000  0.1980E+01  0.2214E+01
 -15.990  0.2049E+01  0.2234E+01
 -15.980  0.2144E+01  0.2256E+01
 -15.970  0.2264E+01  0.2278E+01
 -15.960  0.2407E+01  0.2302E+01
 -15.950  0.2571E+01  0.2328E+01
 -15.940  0.2752E+01  0.2355E+01
 -15.930  0.2949E+01  0.2385E+01
 -15.920  0.3158E+01  0.2417E+01
 -15.910  0.3374E+01  0.2450E+01
 -15.900  0.3593E+01  0.2486E+01
 -15.890  0.3811E+01  0.2524E+01
 -15.880  0.4023E+01  0.2565E+01
 -15.870  0.4226E+01  0.2607E+01
 -15.860  0.4414E+01  0.2651E+01
 -15.850  0.4584E+01  0.2697E+01
 -15.840  0.4731E+01  0.2744E+01
 -15.830  0.4855E+01  0.2793E+01
 -15.820  0.4950E+01  0.2842E+01
 -15.810  0.5017E+01  0.2892E+01
 -15.800  0.5054E+01  0.2943E+01
 -15.790  0.5061E+01  0.2993E+01
 -15.780  0.5039E+01  0.3044E+01
 -15.770  0.4988E+01  0.3094E+01
 -15.760  0.4911E+01  0.3143E+01
 -15.750  0.4810E+01  0.3191E+01
 -15.740  0.4687E+01  0.3238E+01
 -15.730  0.4545E+01  0.3283E+01
 -15.720  0.4388E+01  0.3327E+01
 -15.710  0.4219E+01  0.3369E+01
 -15.700  0.4042E+01  0.3410E+01
 -15.690  0.3858E+01  0.3448E+01
 -15.680  0.3671E+01  0.3485E+01
 -15.670  0.3484E+01  0.3520E+01
 -15.660  0.3298E+01  0.3553E+01
 -15.650  0.3117E+01  0.3584E+01
 -15.640  0.2940E+01  0.3613E+01
 -15.630  0.2770E+01  0.3641E+01
 -15.620  0.2608E+01  0.3667E+01
 -15.610  0.2454E+01  0.3692E+01
 -15.600  0.2309E+01  0.3715E+01
 -15.590  0.2174E+01  0.3737E+01
 -15.580  0.2048E+01  0.3757E+01
 -15.570  0.1932E+01  0.3776E+01
 -15.560  0.1826E+01  0.3795E+01
 -15.550  0.1731E+01  0.3812E+01
 -15.540  0.1646E+01  0.3828E+01
 -15.530  0.1573E+01  0.3844E+01
 -15.520  0.1511E+01  0.3859E+01
 -15.510  0.1461E+01  0.3874E+01
 -15.500  0.1424E+01  0.3888E+01
 -15.490  0.1401E+01  0.3902E+01
 -15.480  0.1391E+01  0.3916E+01
 -15.470  0.1396E+01  0.3930E+01
 -15.460  0.1416E+01  0.3944E+01
 -15.450  0.1452E+01  0.3959E+01
 -15.440  0.1504E+01  0.3974E+01
 -15.430  0.1573E+01  0.3989E+01
 -15.420  0.1659E+01  0.4006E+01
 -15.410  0.1762E+01  0.4024E+01
 -15.400  0.1882E+01  0.4042E+01
 -15.390  0.2019E+01  0.4063E+01
 -15.380  0.2173E+01  0.4084E+01
 -15.370  0.2343E+01  0.4108E+01
 -15.360  0.2527E+01  0.4133E+01
 -15.350  0.2726E+01  0.4160E+01
 -15.340  0.2936E+01  0.4190E+01
 -15.330  0.3155E+01  0.4221E+01
 -15.320  0.3381E+01  0.4255E+01
 -15.310  0.3611E+01  0.4291E+01
 -15.300  0.3841E+01  0.4330E+01
 -15.290  0.4067E+01  0.4370E+01
 -15.280  0.4286E+01  0.4413E+01
 -15.270  0.4492E+01  0.4458E+01
 -15.260  0.4681E+01  0.4505E+01
 -15.250  0.4849E+01  0.4553E+01
 -15.240  0.4993E+01  0.4603E+01
 -15.230  0.5108E+01  0.4654E+01
 -15.220  0.5193E+01  0.4706E+01
 -15.210  0.5244E+01  0.4759E+01
 -15.200  0.5261E+01  0.4811E+01
 -15.190  0.5243E+01  0.4864E+01
 -15.180  0.5191E+01  0.4916E+01
 -15.170  0.5107E+01  0.4967E+01
 -15.160  0.4993E+01  0.5017E+01
 -15.150  0.4853E+01  0.5065E+01
 -15.140  0.4690E+01  0.5112E+01
 -15.130  0.4509E+01  0.5157E+01
 -15.120  0.4314E+01  0.5200E+01
 -15.110  0.4110E+01  0.5241E+01
 -15.100  0.3901E+01  0.5280E+01
 -15.090  0.3693E+01  0.5317E+01
 -15.080  0.3488E+01  0.5352E+01
 -15.070  0.3290E+01  0.5385E+01
 -15.060  0.3101E+01  0.5416E+01
 -15.050  0.2924E+01  0.5445E+01
 -15.040  0.2760E+01  0.5473E+01
 -15.030  0.2610E+01  0.5499E+01
 -15.020  0.2473E+01  0.5524E+01
 -15.010  0.2349E+01  0.5547E+01
 -15.000  0.2238E+01  0.5570E+01
 -14.990  0.2139E+01  0.5591E+01
 -14.980  0.2052E+01  0.5612E+01
 -14.970  0.1975E+01  0.5631E+01
 -14.960  0.1908E+01  0.5650E+01
 -14.950  0.1852E+01  0.5669E+01
 -14.940  0.1807E+01  0.5687E+01
 -14.930  0.1773E+01  0.5705E+01
 -14.920  0.1754E+01  0.5722E+01
 -14.910  0.1750E+01  0.5740E+01
 -14.900  0.1767E+01  0.5757E+01
 -14.890  0.1807E+01  0.5776E+01
 -14.880  0.1876E+01  0.5794E+01
 -14.870  0.1981E+01  0.5814E+01
 -14.860  0.2126E+01  0.5835E+01
 -14.850  0.2321E+01  0.5859E+01
 -14.840  0.2572E+01  0.5884E+01
 -14.830  0.2889E+01  0.5913E+01
 -14.820  0.3278E+01  0.5946E+01
 -14.810  0.3747E+01  0.5983E+01
 -14.800  0.4304E+01  0.6026E+01
 -14.790  0.4955E+01  0.6076E+01
 -14.780  0.5703E+01  0.6133E+01
 -14.770  0.6551E+01  0.6199E+01
 -14.760  0.7499E+01  0.6274E+01
 -14.750  0.8542E+01  0.6359E+01
 -14.740  0.9674E+01  0.6456E+01
 -14.730  0.1088E+02  0.6565E+01
 -14.720  0.1216E+02  0.6686E+01
 -14.710  0.1348E+02  0.6821E+01
 -14.700  0.1482E+02  0.6969E+01
 -14.690  0.1616E+02  0.7131E+01
 -14.680  0.1747E+02  0.7305E+01
 -14.670  0.1873E+02  0.7493E+01
 -14.660  0.1990E+02  0.7692E+01
 -14.650  0.2095E+02  0.7901E+01
 -14.640  0.2186E+02  0.8120E+01
 -14.630  0.2260E+02  0.8346E+01
 -14.620  0.2316E+02  0.8577E+01
 -14.610  0.2350E+02  0.8812E+01
 -14.600  0.2364E+02  0.9049E+01
 -14.590  0.2355E+02  0.9284E+01
 -14.580  0.2325E+02  0.9517E+01
 -14.570  0.2274E+02  0.9744E+01
 -14.560  0.2202E+02  0.9964E+01
 -14.550  0.2114E+02  0.1018E+02
 -14.540  0.2009E+02  0.1038E+02
 -14.530  0.1892E+02  0.1057E+02
 -14.520  0.1764E+02  0.1074E+02
 -14.510  0.1630E+02  0.1091E+02
 -14.500  0.1491E+02  0.1105E+02
 -14.490  0.1351E+02  0.1119E+02
 -14.480  0.1213E+02  0.1131E+02
 -14.470  0.1078E+02  0.1142E+02
 -14.460  0.9493E+01  0.1151E+02
 -14.450  0.8277E+01  0.1160E+02
 -14.440  0.7147E+01  0.1167E+02
 -14.430  0.6111E+01  0.1173E+02
 -14.420  0.5175E+01  0.1178E+02
 -14.410  0.4340E+01  0.1182E+02
 -14.400  0.3603E+01  0.1186E+02
 -14.390  0.2963E+01  0.1189E+02
 -14.380  0.2412E+01  0.1191E+02
 -14.370  0.1945E+01  0.1193E+02
 -14.360  0.1553E+01  0.1195E+02
 -14.350  0.1227E+01  0.1196E+02
 -14.340  0.9605E+00  0.1197E+02
 -14.330  0.7442E+00  0.1198E+02
 -14.320  0.5710E+00  0.1198E+02
 -14.310  0.4337E+00  0.1199E+02
 -14.300  0.3262E+00  0.1199E+02
 -14.290  0.2429E+00  0.1199E+02
 -14.280  0.1790E+00  0.1200E+02
 -14.270  0.1306E+00  0.1200E+02
 -14.260  0.9439E-01  0.1200E+02
 -14.250  0.6751E-01  0.1200E+02
 -14.240  0.4780E-01  0.1200E+02
 -14.230  0.3351E-01  0.1200E+02
 -14.220  0.2325E-01  0.1200E+02
 -14.210  0.1597E-01  0.1200E+02
 -14.200  0.1086E-01  0.1200E+02
 -14.190  0.7312E-02  0.1200E+02
 -14.180  0.4873E-02  0.1200E+02
 -14.170  0.3214E-02  0.1200E+02
 -14.160  0.2099E-02  0.1200E+02
 -14.150  0.1357E-02  0.1200E+02
 -14.140  0.8679E-03  0.1200E+02
 -14.130  0.5497E-03  0.1200E+02
 -14.120  0.3446E-03  0.1200E+02
 -14.110  0.2138E-03  0.1200E+02
 -14.100  0.1313E-03  0.1200E+02
 -14.090  0.7984E-04  0.1200E+02
 -14.080  0.4805E-04  0.1200E+02
 -14.070  0.2862E-04  0.1200E+02
 -14.060  0.1687E-04  0.1200E+02
 -14.050  0.9845E-05  0.1200E+02
 -14.040  0.5686E-05  0.1200E+02
 -14.030  0.3251E-05  0.1200E+02
 -14.020  0.1839E-05  0.1200E+02
 -14.010  0.1030E-05  0.1200E+02
 -14.000  0.5709E-06  0.1200E+02
 -13.990  0.3132E-06  0.1200E+02
 -13.980  0.1701E-06  0.1200E+02
 -13.970  0.9140E-07  0.1200E+02
 -13.960  0.4861E-07  0.1200E+02
 -13.950  0.2559E-07  0.1200E+02
 -13.940  0.1333E-07  0.1200E+02
 -13.930  0.6875E-08  0.1200E+02
 -13.920  0.3508E-08  0.1200E+02
 -13.910  0.1772E-08  0.1200E+02
 -13.900  0.8858E-09  0.1200E+02
 -13.890  0.4382E-09  0.1200E+02
 -13.880  0.2146E-09  0.1200E+02
 -13.870  0.1040E-09  0.1200E+02
 -13.860  0.4986E-10  0.1200E+02
 -13.850  0.2366E-10  0.1200E+02
 -13.840  0.1111E-10  0.1200E+02
 -13.830  0.5166E-11  0.1200E+02
 -13.820  0.2376E-11  0.1200E+02
 -13.810  0.1082E-11  0.1200E+02
 -13.800  0.4874E-12  0.1200E+02
 -13.790  0.2173E-12  0.1200E+02
 -13.780  0.9588E-13  0.1200E+02
 -13.770  0.4186E-13  0.1200E+02
 -13.760  0.1809E-13  0.1200E+02
 -13.750  0.7736E-14  0.1200E+02
 -13.740  0.3273E-14  0.1200E+02
 -13.730  0.1371E-14  0.1200E+02
 -13.720  0.5681E-15  0.1200E+02
 -13.710  0.2330E-15  0.1200E+02
 -13.700  0.9455E-16  0.1200E+02
 -13.690  0.3797E-16  0.1200E+02
 -13.680  0.1509E-16  0.1200E+02
 -13.670  0.5934E-17  0.1200E+02
 -13.660  0.2309E-17  0.1200E+02
 -13.650  0.8892E-18  0.1200E+02
 -13.640  0.3389E-18  0.1200E+02
 -13.630  0.1278E-18  0.1200E+02
 -13.620  0.4768E-19  0.1200E+02
 -13.610  0.1761E-19  0.1200E+02
 -13.600  0.6432E-20  0.1200E+02
 -13.590  0.2326E-20  0.1200E+02
 -13.580  0.8320E-21  0.1200E+02
 -13.570  0.2945E-21  0.1200E+02
 -13.560  0.1032E-21  0.1200E+02
 -13.550  0.3576E-22  0.1200E+02
 -13.540  0.1227E-22  0.1200E+02
 -13.530  0.4163E-23  0.1200E+02
 -13.520  0.1398E-23  0.1200E+02
 -13.510  0.4646E-24  0.1200E+02
 -13.500  0.1527E-24  0.1200E+02
 -13.490  0.4970E-25  0.1200E+02
 -13.480  0.1600E-25  0.1200E+02
 -13.470  0.5096E-26  0.1200E+02
 -13.460  0.1606E-26  0.1200E+02
 -13.450  0.5009E-27  0.1200E+02
 -13.440  0.1546E-27  0.1200E+02
 -13.430  0.4720E-28  0.1200E+02
 -13.420  0.1426E-28  0.1200E+02
 -13.410  0.4262E-29  0.1200E+02
 -13.400  0.1261E-29  0.1200E+02
 -13.390  0.3689E-30  0.1200E+02
 -13.380  0.1068E-30  0.1200E+02
 -13.370  0.3061E-31  0.1200E+02
 -13.360  0.8677E-32  0.1200E+02
 -13.350  0.2434E-32  0.1200E+02
 -13.340  0.6755E-33  0.1200E+02
 -13.330  0.1855E-33  0.1200E+02
 -13.320  0.5039E-34  0.1200E+02
 -13.310  0.1355E-34  0.1200E+02
 -13.300  0.3603E-35  0.1200E+02
 -13.290  0.9482E-36  0.1200E+02
 -13.280  0.2469E-36  0.1200E+02
 -13.270  0.6361E-37  0.1200E+02
 -13.260  0.1621E-37  0.1200E+02
 -13.250  0.4089E-38  0.1200E+02
 -13.240  0.1020E-38  0.1200E+02
 -13.230  0.2519E-39  0.1200E+02
 -13.220  0.6153E-40  0.1200E+02
 -13.210  0.1487E-40  0.1200E+02
 -13.200  0.3556E-41  0.1200E+02
 -13.190  0.8412E-42  0.1200E+02
 -13.180  0.1969E-42  0.1200E+02
 -13.170  0.4560E-43  0.1200E+02
 -13.160  0.1045E-43  0.1200E+02
 -13.150  0.2369E-44  0.1200E+02
 -13.140  0.5313E-45  0.1200E+02
 -13.130  0.1179E-45  0.1200E+02
 -13.120  0.2589E-46  0.1200E+02
 -13.110  0.5623E-47  0.1200E+02
 -13.100  0.1209E-47  0.1200E+02
 -13.090  0.2570E-48  0.1200E+02
 -13.080  0.5407E-49  0.1200E+02
 -13.070  0.1125E-49  0.1200E+02
 -13.060  0.2317E-50  0.1200E+02
 -13.050  0.4721E-51  0.1200E+02
 -13.040  0.9517E-52  0.1200E+02
 -13.030  0.1898E-52  0.1200E+02
 -13.020  0.3745E-53  0.1200E+02
 -13.010  0.7311E-54  0.1200E+02
 -13.000  0.1412E-54  0.1200E+02
 -12.990  0.2698E-55  0.1200E+02
 -12.980  0.5101E-56  0.1200E+02
 -12.970  0.9540E-57  0.1200E+02
 -12.960  0.1765E-57  0.1200E+02
 -12.950  0.3232E-58  0.1200E+02
 -12.940  0.5854E-59  0.1200E+02
 -12.930  0.1049E-59  0.1200E+02
 -12.920  0.1860E-60  0.1200E+02
 -12.910  0.3262E-61  0.1200E+02
 -12.900  0.5662E-62  0.1200E+02
 -12.890  0.9720E-63  0.1200E+02
 -12.880  0.1651E-63  0.1200E+02
 -12.870  0.2775E-64  0.1200E+02
 -12.860  0.4613E-65  0.1200E+02
 -12.850  0.7588E-66  0.1200E+02
 -12.840  0.1235E-66  0.1200E+02
 -12.830  0.1988E-67  0.1200E+02
 -12.820  0.3167E-68  0.1200E+02
 -12.810  0.4990E-69  0.1200E+02
 -12.800  0.7780E-70  0.1200E+02
 -12.790  0.1200E-70  0.1200E+02
 -12.780  0.1831E-71  0.1200E+02
 -12.770  0.2765E-72  0.1200E+02
 -12.760  0.4129E-73  0.1200E+02
 -12.750  0.6102E-74  0.1200E+02
 -12.740  0.8920E-75  0.1200E+02
 -12.730  0.1290E-75  0.1200E+02
 -12.720  0.1846E-76  0.1200E+02
 -12.710  0.2613E-77  0.1200E+02
 -12.700  0.3660E-78  0.1200E+02
 -12.690  0.5071E-79  0.1200E+02
 -12.680  0.6952E-80  0.1200E+02
 -12.670  0.9430E-81  0.1200E+02
 -12.660  0.1267E-81  0.1200E+02
 -12.650  0.1705E-82  0.1200E+02
 -12.640  0.2473E-83  0.1200E+02
 -12.630  0.5574E-84  0.1200E+02
 -12.620  0.3101E-84  0.1200E+02
 -12.610  0.2790E-84  0.1200E+02
 -12.600  0.2757E-84  0.1200E+02
 -12.590  0.2755E-84  0.1200E+02
 -12.580  0.2755E-84  0.1200E+02
 -12.570  0.2755E-84  0.1200E+02
 -12.560  0.2755E-84  0.1200E+02
 -12.550  0.2755E-84  0.1200E+02
 -12.540  0.2755E-84  0.1200E+02
 -12.530  0.2755E-84  0.1200E+02
 -12.520  0.2755E-84  0.1200E+02
 -12.510  0.2755E-84  0.1200E+02
 -12.500  0.2755E-84  0.1200E+02
 -12.490  0.2755E-84  0.1200E+02
 -12.480  0.2755E-84  0.1200E+02
 -12.470  0.2755E-84  0.1200E+02
 -12.460  0.2755E-84  0.1200E+02
 -12.450  0.2755E-84  0.1200E+02
 -12.440  0.2755E-84  0.1200E+02
 -12.430  0.2755E-84  0.1200E+02
 -12.420  0.2755E-84  0.1200E+02
 -12.410  0.2755E-84  0.1200E+02
 -12.400  0.2755E-84  0.1200E+02
 -12.390  0.2755E-84  0.1200E+02
 -12.380  0.2755E-84  0.1200E+02
 -12.370  0.2755E-84  0.1200E+02
 -12.360  0.2755E-84  0.1200E+02
 -12.350  0.2755E-84  0.1200E+02
 -12.340  0.2755E-84  0.1200E+02
 -12.330  0.2755E-84  0.1200E+02
 -12.320  0.2755E-84  0.1200E+02
 -12.310  0.2755E-84  0.1200E+02
 -12.300  0.2755E-84  0.1200E+02
 -12.290  0.2755E-84  0.1200E+02
 -12.280  0.2755E-84  0.1200E+02
 -12.270  0.2755E-84  0.1200E+02
 -12.260  0.2755E-84  0.1200E+02
 -12.250  0.2755E-84  0.1200E+02
 -12.240  0.2755E-84  0.1200E+02
 -12.230  0.2755E-84  0.1200E+02
 -12.220  0.2755E-84  0.1200E+02
 -12.210  0.2755E-84  0.1200E+02
 -12.200  0.2755E-84  0.1200E+02
 -12.190  0.2755E-84  0.1200E+02
 -12.180  0.2755E-84  0.1200E+02
 -12.170  0.2755E-84  0.1200E+02
 -12.160  0.2755E-84  0.1200E+02
 -12.150  0.2755E-84  0.1200E+02
 -12.140  0.2755E-84  0.1200E+02
 -12.130  0.2755E-84  0.1200E+02
 -12.120  0.2755E-84  0.1200E+02
 -12.110  0.2755E-84  0.1200E+02
 -12.100  0.2755E-84  0.1200E+02
 -12.090  0.2755E-84  0.1200E+02
 -12.080  0.2755E-84  0.1200E+02
 -12.070  0.2755E-84  0.1200E+02
 -12.060  0.2755E-84  0.1200E+02
 -12.050  0.2755E-84  0.1200E+02
 -12.040  0.2755E-84  0.1200E+02
 -12.030  0.2755E-84  0.1200E+02
 -12.020  0.2755E-84  0.1200E+02
 -12.010  0.2755E-84  0.1200E+02
 -12.000  0.2755E-84  0.1200E+02
 -11.990  0.2755E-84  0.1200E+02
 -11.980  0.2755E-84  0.1200E+02
 -11.970  0.2755E-84  0.1200E+02
 -11.960  0.2755E-84  0.1200E+02
 -11.950  0.2755E-84  0.1200E+02
 -11.940  0.2755E-84  0.1200E+02
 -11.930  0.2755E-84  0.1200E+02
 -11.920  0.2755E-84  0.1200E+02
 -11.910  0.2755E-84  0.1200E+02
 -11.900  0.2755E-84  0.1200E+02
 -11.890  0.2755E-84  0.1200E+02
 -11.880  0.2755E-84  0.1200E+02
 -11.870  0.2755E-84  0.1200E+02
 -11.860  0.2755E-84  0.1200E+02
 -11.850  0.2755E-84  0.1200E+02
 -11.840  0.2755E-84  0.1200E+02
 -11.830  0.2755E-84  0.1200E+02
 -11.820  0.2755E-84  0.1200E+02
 -11.810  0.2755E-84  0.1200E+02
 -11.800  0.2755E-84  0.1200E+02
 -11.790  0.2755E-84  0.1200E+02
 -11.780  0.2755E-84  0.1200E+02
 -11.770  0.2755E-84  0.1200E+02
 -11.760  0.2755E-84  0.1200E+02
 -11.750  0.2755E-84  0.1200E+02
 -11.740  0.2755E-84  0.1200E+02
 -11.730  0.2755E-84  0.1200E+02
 -11.720  0.2755E-84  0.1200E+02
 -11.710  0.2755E-84  0.1200E+02
 -11.700  0.2755E-84  0.1200E+02
 -11.690  0.2755E-84  0.1200E+02
 -11.680  0.2755E-84  0.1200E+02
 -11.670  0.2755E-84  0.1200E+02
 -11.660  0.2755E-84  0.1200E+02
 -11.650  0.2755E-84  0.1200E+02
 -11.640  0.2755E-84  0.1200E+02
 -11.630  0.2755E-84  0.1200E+02
 -11.620  0.2755E-84  0.1200E+02
 -11.610  0.2755E-84  0.1200E+02
 -11.600  0.2755E-84  0.1200E+02
 -11.590  0.2755E-84  0.1200E+02
 -11.580  0.2755E-84  0.1200E+02
 -11.570  0.2755E-84  0.1200E+02
 -11.560  0.2755E-84  0.1200E+02
 -11.550  0.2755E-84  0.1200E+02
 -11.540  0.2755E-84  0.1200E+02
 -11.530  0.2755E-84  0.1200E+02
 -11.520  0.2755E-84  0.1200E+02
 -11.510  0.2755E-84  0.1200E+02
 -11.500  0.2755E-84  0.1200E+02
 -11.490  0.2755E-84  0.1200E+02
 -11.480  0.2755E-84  0.1200E+02
 -11.470  0.2755E-84  0.1200E+02
 -11.460  0.2755E-84  0.1200E+02
 -11.450  0.2755E-84  0.1200E+02
 -11.440  0.2755E-84  0.1200E+02
 -11.430  0.2755E-84  0.1200E+02
 -11.420  0.2755E-84  0.1200E+02
 -11.410  0.2755E-84  0.1200E+02
 -11.400  0.2755E-84  0.1200E+02
 -11.390  0.2755E-84  0.1200E+02
 -11.380  0.2755E-84  0.1200E+02
 -11.370  0.2755E-84  0.1200E+02
 -11.360  0.2755E-84  0.1200E+02
 -11.350  0.2755E-84  0.1200E+02
 -11.340  0.2755E-84  0.1200E+02
 -11.330  0.2755E-84  0.1200E+02
 -11.320  0.2755E-84  0.1200E+02
 -11.310  0.2755E-84  0.1200E+02
 -11.300  0.2755E-84  0.1200E+02
 -11.290  0.2755E-84  0.1200E+02
 -11.280  0.2755E-84  0.1200E+02
 -11.270  0.2755E-84  0.1200E+02
 -11.260  0.2755E-84  0.1200E+02
 -11.250  0.2755E-84  0.1200E+02
 -11.240  0.2755E-84  0.1200E+02
 -11.230  0.2755E-84  0.1200E+02
 -11.220  0.2755E-84  0.1200E+02
 -11.210  0.2755E-84  0.1200E+02
 -11.200  0.2755E-84  0.1200E+02
 -11.190  0.2755E-84  0.1200E+02
 -11.180  0.2755E-84  0.1200E+02
 -11.170  0.2755E-84  0.1200E+02
 -11.160  0.2755E-84  0.1200E+02
 -11.150  0.2755E-84  0.1200E+02
 -11.140  0.2755E-84  0.1200E+02
 -11.130  0.2755E-84  0.1200E+02
 -11.120  0.2755E-84  0.1200E+02
 -11.110  0.2755E-84  0.1200E+02
 -11.100  0.2755E-84  0.1200E+02
 -11.090  0.2755E-84  0.1200E+02
 -11.080  0.2755E-84  0.1200E+02
 -11.070  0.2755E-84  0.1200E+02
 -11.060  0.2755E-84  0.1200E+02
 -11.050  0.2755E-84  0.1200E+02
 -11.040  0.2755E-84  0.1200E+02
 -11.030  0.2755E-84  0.1200E+02
 -11.020  0.2755E-84  0.1200E+02
 -11.010  0.2755E-84  0.1200E+02
 -11.000  0.2755E-84  0.1200E+02
 -10.990  0.2755E-84  0.1200E+02
 -10.980  0.2755E-84  0.1200E+02
 -10.970  0.2755E-84  0.1200E+02
 -10.960  0.2755E-84  0.1200E+02
 -10.950  0.2755E-84  0.1200E+02
 -10.940  0.2755E-84  0.1200E+02
 -10.930  0.2755E-84  0.1200E+02
 -10.920  0.2755E-84  0.1200E+02
 -10.910  0.2755E-84  0.1200E+02
 -10.900  0.2755E-84  0.1200E+02
 -10.890  0.2755E-84  0.1200E+02
 -10.880  0.2755E-84  0.1200E+02
 -10.870  0.2755E-84  0.1200E+02
 -10.860  0.2755E-84  0.1200E+02
 -10.850  0.2755E-84  0.1200E+02
 -10.840  0.2755E-84  0.1200E+02
 -10.830  0.2755E-84  0.1200E+02
 -10.820  0.2755E-84  0.1200E+02
 -10.810  0.2755E-84  0.1200E+02
 -10.800  0.2755E-84  0.1200E+02
 -10.790  0.2755E-84  0.1200E+02
 -10.780  0.2755E-84  0.1200E+02
 -10.770  0.2755E-84  0.1200E+02
 -10.760  0.2755E-84  0.1200E+02
 -10.750  0.2755E-84  0.1200E+02
 -10.740  0.2755E-84  0.1200E+02
 -10.730  0.2755E-84  0.1200E+02
 -10.720  0.2755E-84  0.1200E+02
 -10.710  0.2755E-84  0.1200E+02
 -10.700  0.2755E-84  0.1200E+02
 -10.690  0.2755E-84  0.1200E+02
 -10.680  0.2755E-84  0.1200E+02
 -10.670  0.2755E-84  0.1200E+02
 -10.660  0.2755E-84  0.1200E+02
 -10.650  0.2755E-84  0.1200E+02
 -10.640  0.2755E-84  0.1200E+02
 -10.630  0.2755E-84  0.1200E+02
 -10.620  0.2755E-84  0.1200E+02
 -10.610  0.2755E-84  0.1200E+02
 -10.600  0.2755E-84  0.1200E+02
 -10.590  0.2755E-84  0.1200E+02
 -10.580  0.2755E-84  0.1200E+02
 -10.570  0.2755E-84  0.1200E+02
 -10.560  0.2755E-84  0.1200E+02
 -10.550  0.2755E-84  0.1200E+02
 -10.540  0.2755E-84  0.1200E+02
 -10.530  0.2755E-84  0.1200E+02
 -10.520  0.2755E-84  0.1200E+02
 -10.510  0.2755E-84  0.1200E+02
 -10.500  0.2755E-84  0.1200E+02
 -10.490  0.2755E-84  0.1200E+02
 -10.480  0.2755E-84  0.1200E+02
 -10.470  0.2755E-84  0.1200E+02
 -10.460  0.2755E-84  0.1200E+02
 -10.450  0.2755E-84  0.1200E+02
 -10.440  0.2755E-84  0.1200E+02
 -10.430  0.2755E-84  0.1200E+02
 -10.420  0.2755E-84  0.1200E+02
 -10.410  0.2755E-84  0.1200E+02
 -10.400  0.2755E-84  0.1200E+02
 -10.390  0.2755E-84  0.1200E+02
 -10.380  0.2755E-84  0.1200E+02
 -10.370  0.2755E-84  0.1200E+02
 -10.360  0.2755E-84  0.1200E+02
 -10.350  0.2755E-84  0.1200E+02
 -10.340  0.2755E-84  0.1200E+02
 -10.330  0.2755E-84  0.1200E+02
 -10.320  0.2755E-84  0.1200E+02
 -10.310  0.2755E-84  0.1200E+02
 -10.300  0.2755E-84  0.1200E+02
 -10.290  0.2755E-84  0.1200E+02
 -10.280  0.2755E-84  0.1200E+02
 -10.270  0.2755E-84  0.1200E+02
 -10.260  0.2755E-84  0.1200E+02
 -10.250  0.2755E-84  0.1200E+02
 -10.240  0.2755E-84  0.1200E+02
 -10.230  0.2755E-84  0.1200E+02
 -10.220  0.2755E-84  0.1200E+02
 -10.210  0.2755E-84  0.1200E+02
 -10.200  0.2755E-84  0.1200E+02
 -10.190  0.2755E-84  0.1200E+02
 -10.180  0.2755E-84  0.1200E+02
 -10.170  0.2755E-84  0.1200E+02
 -10.160  0.2755E-84  0.1200E+02
 -10.150  0.2755E-84  0.1200E+02
 -10.140  0.2755E-84  0.1200E+02
 -10.130  0.2755E-84  0.1200E+02
 -10.120  0.2755E-84  0.1200E+02
 -10.110  0.2755E-84  0.1200E+02
 -10.100  0.2755E-84  0.1200E+02
 -10.090  0.2755E-84  0.1200E+02
 -10.080  0.2755E-84  0.1200E+02
 -10.070  0.2755E-84  0.1200E+02
 -10.060  0.2755E-84  0.1200E+02
 -10.050  0.2755E-84  0.1200E+02
 -10.040  0.2755E-84  0.1200E+02
 -10.030  0.2755E-84  0.1200E+02
 -10.020  0.2755E-84  0.1200E+02
 -10.010  0.2755E-84  0.1200E+02
 -10.000  0.2755E-84  0.1200E+02
  -9.990  0.2755E-84  0.1200E+02
  -9.980  0.2755E-84  0.1200E+02
  -9.970  0.2755E-84  0.1200E+02
  -9.960  0.2755E-84  0.1200E+02
  -9.950  0.2755E-84  0.1200E+02
  -9.940  0.2755E-84  0.1200E+02
  -9.930  0.2755E-84  0.1200E+02
  -9.920  0.2755E-84  0.1200E+02
  -9.910  0.2755E-84  0.1200E+02
  -9.900  0.2755E-84  0.1200E+02
  -9.890  0.2755E-84  0.1200E+02
  -9.880  0.2755E-84  0.1200E+02
  -9.870  0.2755E-84  0.1200E+02
  -9.860  0.2755E-84  0.1200E+02
  -9.850  0.2755E-84  0.1200E+02
  -9.840  0.2755E-84  0.1200E+02
  -9.830  0.2755E-84  0.1200E+02
  -9.820  0.2755E-84  0.1200E+02
  -9.810  0.2755E-84  0.1200E+02
  -9.800  0.2755E-84  0.1200E+02
  -9.790  0.2755E-84  0.1200E+02
  -9.780  0.2755E-84  0.1200E+02
  -9.770  0.2755E-84  0.1200E+02
  -9.760  0.2755E-84  0.1200E+02
  -9.750  0.2755E-84  0.1200E+02
  -9.740  0.2755E-84  0.1200E+02
  -9.730  0.2755E-84  0.1200E+02
  -9.720  0.2755E-84  0.1200E+02
  -9.710  0.2755E-84  0.1200E+02
  -9.700  0.2755E-84  0.1200E+02
  -9.690  0.2755E-84  0.1200E+02
  -9.680  0.2755E-84  0.1200E+02
  -9.670  0.2755E-84  0.1200E+02
  -9.660  0.2755E-84  0.1200E+02
  -9.650  0.2755E-84  0.1200E+02
  -9.640  0.2755E-84  0.1200E+02
  -9.630  0.2755E-84  0.1200E+02
  -9.620  0.2755E-84  0.1200E+02
  -9.610  0.2755E-84  0.1200E+02
  -9.600  0.2755E-84  0.1200E+02
  -9.590  0.2755E-84  0.1200E+02
  -9.580  0.2755E-84  0.1200E+02
  -9.570  0.2755E-84  0.1200E+02
  -9.560  0.2755E-84  0.1200E+02
  -9.550  0.2755E-84  0.1200E+02
  -9.540  0.2755E-84  0.1200E+02
  -9.530  0.2755E-84  0.1200E+02
  -9.520  0.2755E-84  0.1200E+02
  -9.510  0.2755E-84  0.1200E+02
  -9.500  0.2755E-84  0.1200E+02
  -9.490  0.2755E-84  0.1200E+02
  -9.480  0.2755E-84  0.1200E+02
  -9.470  0.2755E-84  0.1200E+02
  -9.460  0.2755E-84  0.1200E+02
  -9.450  0.2755E-84  0.1200E+02
  -9.440  0.2755E-84  0.1200E+02
  -9.430  0.2755E-84  0.1200E+02
  -9.420  0.2755E-84  0.1200E+02
  -9.410  0.2755E-84  0.1200E+02
  -9.400  0.2755E-84  0.1200E+02
  -9.390  0.2755E-84  0.1200E+02
  -9.380  0.2755E-84  0.1200E+02
  -9.370  0.2755E-84  0.1200E+02
  -9.360  0.2755E-84  0.1200E+02
  -9.350  0.2755E-84  0.1200E+02
  -9.340  0.2755E-84  0.1200E+02
  -9.330  0.2755E-84  0.1200E+02
  -9.320  0.2755E-84  0.1200E+02
  -9.310  0.2755E-84  0.1200E+02
  -9.300  0.2755E-84  0.1200E+02
  -9.290  0.2755E-84  0.1200E+02
  -9.280  0.2755E-84  0.1200E+02
  -9.270  0.2755E-84  0.1200E+02
  -9.260  0.2755E-84  0.1200E+02
  -9.250  0.2755E-84  0.1200E+02
  -9.240  0.2755E-84  0.1200E+02
  -9.230  0.2755E-84  0.1200E+02
  -9.220  0.2755E-84  0.1200E+02
  -9.210  0.2755E-84  0.1200E+02
  -9.200  0.2755E-84  0.1200E+02
  -9.190  0.2755E-84  0.1200E+02
  -9.180  0.2755E-84  0.1200E+02
  -9.170  0.2755E-84  0.1200E+02
  -9.160  0.2755E-84  0.1200E+02
  -9.150  0.2755E-84  0.1200E+02
  -9.140  0.2755E-84  0.1200E+02
  -9.130  0.2755E-84  0.1200E+02
  -9.120  0.2755E-84  0.1200E+02
  -9.110  0.2755E-84  0.1200E+02
  -9.100  0.2755E-84  0.1200E+02
  -9.090  0.2755E-84  0.1200E+02
  -9.080  0.2755E-84  0.1200E+02
  -9.070  0.2755E-84  0.1200E+02
  -9.060  0.2755E-84  0.1200E+02
  -9.050  0.2755E-84  0.1200E+02
  -9.040  0.2755E-84  0.1200E+02
  -9.030  0.2755E-84  0.1200E+02
  -9.020  0.2755E-84  0.1200E+02
  -9.010  0.2755E-84  0.1200E+02
  -9.000  0.2755E-84  0.1200E+02
  -8.990  0.2755E-84  0.1200E+02
  -8.980  0.2755E-84  0.1200E+02
  -8.970  0.2755E-84  0.1200E+02
  -8.960  0.2755E-84  0.1200E+02
  -8.950  0.2755E-84  0.1200E+02
  -8.940  0.2755E-84  0.1200E+02
  -8.930  0.2755E-84  0.1200E+02
  -8.920  0.2755E-84  0.1200E+02
  -8.910  0.2755E-84  0.1200E+02
  -8.900  0.2755E-84  0.1200E+02
  -8.890  0.2755E-84  0.1200E+02
  -8.880  0.2755E-84  0.1200E+02
  -8.870  0.2755E-84  0.1200E+02
  -8.860  0.2755E-84  0.1200E+02
  -8.850  0.2755E-84  0.1200E+02
  -8.840  0.2755E-84  0.1200E+02
  -8.830  0.2755E-84  0.1200E+02
  -8.820  0.2755E-84  0.1200E+02
  -8.810  0.2755E-84  0.1200E+02
  -8.800  0.2755E-84  0.1200E+02
  -8.790  0.2755E-84  0.1200E+02
  -8.780  0.2755E-84  0.1200E+02
  -8.770  0.2755E-84  0.1200E+02
  -8.760  0.2755E-84  0.1200E+02
  -8.750  0.2755E-84  0.1200E+02
  -8.740  0.2755E-84  0.1200E+02
  -8.730  0.2755E-84  0.1200E+02
  -8.720  0.2755E-84  0.1200E+02
  -8.710  0.2755E-84  0.1200E+02
  -8.700  0.2755E-84  0.1200E+02
  -8.690  0.2755E-84  0.1200E+02
  -8.680  0.2755E-84  0.1200E+02
  -8.670  0.2759E-84  0.1200E+02
  -8.660  0.2795E-84  0.1200E+02
  -8.650  0.3075E-84  0.1200E+02
  -8.640  0.5230E-84  0.1200E+02
  -8.630  0.2161E-83  0.1200E+02
  -8.620  0.1449E-82  0.1200E+02
  -8.610  0.1062E-81  0.1200E+02
  -8.600  0.7813E-81  0.1200E+02
  -8.590  0.5697E-80  0.1200E+02
  -8.580  0.4111E-79  0.1200E+02
  -8.570  0.2934E-78  0.1200E+02
  -8.560  0.2072E-77  0.1200E+02
  -8.550  0.1448E-76  0.1200E+02
  -8.540  0.1000E-75  0.1200E+02
  -8.530  0.6839E-75  0.1200E+02
  -8.520  0.4625E-74  0.1200E+02
  -8.510  0.3094E-73  0.1200E+02
  -8.500  0.2048E-72  0.1200E+02
  -8.490  0.1341E-71  0.1200E+02
  -8.480  0.8684E-71  0.1200E+02
  -8.470  0.5564E-70  0.1200E+02
  -8.460  0.3527E-69  0.1200E+02
  -8.450  0.2212E-68  0.1200E+02
  -8.440  0.1372E-67  0.1200E+02
  -8.430  0.8418E-67  0.1200E+02
  -8.420  0.5110E-66  0.1200E+02
  -8.410  0.3069E-65  0.1200E+02
  -8.400  0.1823E-64  0.1200E+02
  -8.390  0.1071E-63  0.1200E+02
  -8.380  0.6228E-63  0.1200E+02
  -8.370  0.3582E-62  0.1200E+02
  -8.360  0.2038E-61  0.1200E+02
  -8.350  0.1147E-60  0.1200E+02
  -8.340  0.6386E-60  0.1200E+02
  -8.330  0.3517E-59  0.1200E+02
  -8.320  0.1916E-58  0.1200E+02
  -8.310  0.1033E-57  0.1200E+02
  -8.300  0.5508E-57  0.1200E+02
  -8.290  0.2906E-56  0.1200E+02
  -8.280  0.1516E-55  0.1200E+02
  -8.270  0.7827E-55  0.1200E+02
  -8.260  0.3997E-54  0.1200E+02
  -8.250  0.2019E-53  0.1200E+02
  -8.240  0.1009E-52  0.1200E+02
  -8.230  0.4989E-52  0.1200E+02
  -8.220  0.2440E-51  0.1200E+02
  -8.210  0.1180E-50  0.1200E+02
  -8.200  0.5650E-50  0.1200E+02
  -8.190  0.2675E-49  0.1200E+02
  -8.180  0.1253E-48  0.1200E+02
  -8.170  0.5805E-48  0.1200E+02
  -8.160  0.2661E-47  0.1200E+02
  -8.150  0.1207E-46  0.1200E+02
  -8.140  0.5413E-46  0.1200E+02
  -8.130  0.2402E-45  0.1200E+02
  -8.120  0.1054E-44  0.1200E+02
  -8.110  0.4579E-44  0.1200E+02
  -8.100  0.1967E-43  0.1200E+02
  -8.090  0.8360E-43  0.1200E+02
  -8.080  0.3515E-42  0.1200E+02
  -8.070  0.1462E-41  0.1200E+02
  -8.060  0.6014E-41  0.1200E+02
  -8.050  0.2448E-40  0.1200E+02
  -8.040  0.9856E-40  0.1200E+02
  -8.030  0.3926E-39  0.1200E+02
  -8.020  0.1547E-38  0.1200E+02
  -8.010  0.6030E-38  0.1200E+02
  -8.000  0.2325E-37  0.1200E+02
  -7.990  0.8869E-37  0.1200E+02
  -7.980  0.3347E-36  0.1200E+02
  -7.970  0.1249E-35  0.1200E+02
  -7.960  0.4614E-35  0.1200E+02
  -7.950  0.1686E-34  0.1200E+02
  -7.940  0.6092E-34  0.1200E+02
  -7.930  0.2178E-33  0.1200E+02
  -7.920  0.7703E-33  0.1200E+02
  -7.910  0.2695E-32  0.1200E+02
  -7.900  0.9328E-32  0.1200E+02
  -7.890  0.3194E-31  0.1200E+02
  -7.880  0.1082E-30  0.1200E+02
  -7.870  0.3625E-30  0.1200E+02
  -7.860  0.1202E-29  0.1200E+02
  -7.850  0.3940E-29  0.1200E+02
  -7.840  0.1278E-28  0.1200E+02
  -7.830  0.4102E-28  0.1200E+02
  -7.820  0.1302E-27  0.1200E+02
  -7.810  0.4089E-27  0.1200E+02
  -7.800  0.1270E-26  0.1200E+02
  -7.790  0.3905E-26  0.1200E+02
  -7.780  0.1187E-25  0.1200E+02
  -7.770  0.3570E-25  0.1200E+02
  -7.760  0.1062E-24  0.1200E+02
  -7.750  0.3127E-24  0.1200E+02
  -7.740  0.9104E-24  0.1200E+02
  -7.730  0.2622E-23  0.1200E+02
  -7.720  0.7472E-23  0.1200E+02
  -7.710  0.2106E-22  0.1200E+02
  -7.700  0.5874E-22  0.1200E+02
  -7.690  0.1620E-21  0.1200E+02
  -7.680  0.4422E-21  0.1200E+02
  -7.670  0.1194E-20  0.1200E+02
  -7.660  0.3188E-20  0.1200E+02
  -7.650  0.8422E-20  0.1200E+02
  -7.640  0.2201E-19  0.1200E+02
  -7.630  0.5691E-19  0.1200E+02
  -7.620  0.1456E-18  0.1200E+02
  -7.610  0.3683E-18  0.1200E+02
  -7.600  0.9218E-18  0.1200E+02
  -7.590  0.2282E-17  0.1200E+02
  -7.580  0.5591E-17  0.1200E+02
  -7.570  0.1355E-16  0.1200E+02
  -7.560  0.3247E-16  0.1200E+02
  -7.550  0.7701E-16  0.1200E+02
  -7.540  0.1806E-15  0.1200E+02
  -7.530  0.4192E-15  0.1200E+02
  -7.520  0.9624E-15  0.1200E+02
  -7.510  0.2186E-14  0.1200E+02
  -7.500  0.4911E-14  0.1200E+02
  -7.490  0.1091E-13  0.1200E+02
  -7.480  0.2400E-13  0.1200E+02
  -7.470  0.5219E-13  0.1200E+02
  -7.460  0.1123E-12  0.1200E+02
  -7.450  0.2390E-12  0.1200E+02
  -7.440  0.5033E-12  0.1200E+02
  -7.430  0.1048E-11  0.1200E+02
  -7.420  0.2160E-11  0.1200E+02
  -7.410  0.4404E-11  0.1200E+02
  -7.400  0.8881E-11  0.1200E+02
  -7.390  0.1772E-10  0.1200E+02
  -7.380  0.3496E-10  0.1200E+02
  -7.370  0.6826E-10  0.1200E+02
  -7.360  0.1318E-09  0.1200E+02
  -7.350  0.2519E-09  0.1200E+02
  -7.340  0.4760E-09  0.1200E+02
  -7.330  0.8900E-09  0.1200E+02
  -7.320  0.1646E-08  0.1200E+02
  -7.310  0.3012E-08  0.1200E+02
  -7.300  0.5453E-08  0.1200E+02
  -7.290  0.9764E-08  0.1200E+02
  -7.280  0.1730E-07  0.1200E+02
  -7.270  0.3031E-07  0.1200E+02
  -7.260  0.5255E-07  0.1200E+02
  -7.250  0.9012E-07  0.1200E+02
  -7.240  0.1529E-06  0.1200E+02
  -7.230  0.2566E-06  0.1200E+02
  -7.220  0.4261E-06  0.1200E+02
  -7.210  0.6999E-06  0.1200E+02
  -7.200  0.1137E-05  0.1200E+02
  -7.190  0.1829E-05  0.1200E+02
  -7.180  0.2908E-05  0.1200E+02
  -7.170  0.4575E-05  0.1200E+02
  -7.160  0.7122E-05  0.1200E+02
  -7.150  0.1097E-04  0.1200E+02
  -7.140  0.1671E-04  0.1200E+02
  -7.130  0.2518E-04  0.1200E+02
  -7.120  0.3755E-04  0.1200E+02
  -7.110  0.5541E-04  0.1200E+02
  -7.100  0.8088E-04  0.1200E+02
  -7.090  0.1168E-03  0.1200E+02
  -7.080  0.1669E-03  0.1200E+02
  -7.070  0.2361E-03  0.1200E+02
  -7.060  0.3303E-03  0.1200E+02
  -7.050  0.4574E-03  0.1200E+02
  -7.040  0.6268E-03  0.1200E+02
  -7.030  0.8500E-03  0.1200E+02
  -7.020  0.1141E-02  0.1200E+02
  -7.010  0.1516E-02  0.1200E+02
  -7.000  0.1995E-02  0.1200E+02
  -6.990  0.2598E-02  0.1200E+02
  -6.980  0.3350E-02  0.1200E+02
  -6.970  0.4279E-02  0.1200E+02
  -6.960  0.5414E-02  0.1200E+02
  -6.950  0.6788E-02  0.1200E+02
  -6.940  0.8433E-02  0.1200E+02
  -6.930  0.1039E-01  0.1200E+02
  -6.920  0.1268E-01  0.1200E+02
  -6.910  0.1536E-01  0.1200E+02
  -6.900  0.1846E-01  0.1200E+02
  -6.890  0.2203E-01  0.1200E+02
  -6.880  0.2610E-01  0.1200E+02
  -6.870  0.3073E-01  0.1200E+02
  -6.860  0.3595E-01  0.1200E+02
  -6.850  0.4183E-01  0.1200E+02
  -6.840  0.4841E-01  0.1200E+02
  -6.830  0.5577E-01  0.1200E+02
  -6.820  0.6395E-01  0.1200E+02
  -6.810  0.7303E-01  0.1200E+02
  -6.800  0.8307E-01  0.1201E+02
  -6.790  0.9414E-01  0.1201E+02
  -6.780  0.1063E+00  0.1201E+02
  -6.770  0.1195E+00  0.1201E+02
  -6.760  0.1339E+00  0.1201E+02
  -6.750  0.1495E+00  0.1201E+02
  -6.740  0.1661E+00  0.1201E+02
  -6.730  0.1838E+00  0.1202E+02
  -6.720  0.2023E+00  0.1202E+02
  -6.710  0.2216E+00  0.1202E+02
  -6.700  0.2415E+00  0.1202E+02
  -6.690  0.2616E+00  0.1202E+02
  -6.680  0.2818E+00  0.1203E+02
  -6.670  0.3017E+00  0.1203E+02
  -6.660  0.3211E+00  0.1203E+02
  -6.650  0.3396E+00  0.1204E+02
  -6.640  0.3571E+00  0.1204E+02
  -6.630  0.3733E+00  0.1204E+02
  -6.620  0.3880E+00  0.1205E+02
  -6.610  0.4013E+00  0.1205E+02
  -6.600  0.4131E+00  0.1206E+02
  -6.590  0.4235E+00  0.1206E+02
  -6.580  0.4326E+00  0.1206E+02
  -6.570  0.4406E+00  0.1207E+02
  -6.560  0.4479E+00  0.1207E+02
  -6.550  0.4547E+00  0.1208E+02
  -6.540  0.4614E+00  0.1208E+02
  -6.530  0.4682E+00  0.1209E+02
  -6.520  0.4754E+00  0.1209E+02
  -6.510  0.4834E+00  0.1210E+02
  -6.500  0.4922E+00  0.1210E+02
  -6.490  0.5021E+00  0.1211E+02
  -6.480  0.5131E+00  0.1211E+02
  -6.470  0.5252E+00  0.1212E+02
  -6.460  0.5383E+00  0.1212E+02
  -6.450  0.5525E+00  0.1213E+02
  -6.440  0.5676E+00  0.1213E+02
  -6.430  0.5836E+00  0.1214E+02
  -6.420  0.6003E+00  0.1215E+02
  -6.410  0.6176E+00  0.1215E+02
  -6.400  0.6357E+00  0.1216E+02
  -6.390  0.6543E+00  0.1217E+02
  -6.380  0.6737E+00  0.1217E+02
  -6.370  0.6938E+00  0.1218E+02
  -6.360  0.7148E+00  0.1219E+02
  -6.350  0.7368E+00  0.1219E+02
  -6.340  0.7598E+00  0.1220E+02
  -6.330  0.7840E+00  0.1221E+02
  -6.320  0.8094E+00  0.1222E+02
  -6.310  0.8360E+00  0.1223E+02
  -6.300  0.8637E+00  0.1223E+02
  -6.290  0.8923E+00  0.1224E+02
  -6.280  0.9216E+00  0.1225E+02
  -6.270  0.9512E+00  0.1226E+02
  -6.260  0.9809E+00  0.1227E+02
  -6.250  0.1010E+01  0.1228E+02
  -6.240  0.1039E+01  0.1229E+02
  -6.230  0.1065E+01  0.1230E+02
  -6.220  0.1091E+01  0.1231E+02
  -6.210  0.1114E+01  0.1232E+02
  -6.200  0.1134E+01  0.1234E+02
  -6.190  0.1152E+01  0.1235E+02
  -6.180  0.1166E+01  0.1236E+02
  -6.170  0.1179E+01  0.1237E+02
  -6.160  0.1189E+01  0.1238E+02
  -6.150  0.1197E+01  0.1239E+02
  -6.140  0.1204E+01  0.1241E+02
  -6.130  0.1211E+01  0.1242E+02
  -6.120  0.1220E+01  0.1243E+02
  -6.110  0.1231E+01  0.1244E+02
  -6.100  0.1246E+01  0.1246E+02
  -6.090  0.1268E+01  0.1247E+02
  -6.080  0.1297E+01  0.1248E+02
  -6.070  0.1336E+01  0.1249E+02
  -6.060  0.1387E+01  0.1251E+02
  -6.050  0.1451E+01  0.1252E+02
  -6.040  0.1529E+01  0.1254E+02
  -6.030  0.1623E+01  0.1255E+02
  -6.020  0.1734E+01  0.1257E+02
  -6.010  0.1861E+01  0.1259E+02
  -6.000  0.2006E+01  0.1261E+02
  -5.990  0.2166E+01  0.1263E+02
  -5.980  0.2341E+01  0.1266E+02
  -5.970  0.2528E+01  0.1268E+02
  -5.960  0.2725E+01  0.1271E+02
  -5.950  0.2928E+01  0.1274E+02
  -5.940  0.3135E+01  0.1277E+02
  -5.930  0.3341E+01  0.1280E+02
  -5.920  0.3542E+01  0.1284E+02
  -5.910  0.3734E+01  0.1288E+02
  -5.900  0.3912E+01  0.1291E+02
  -5.890  0.4072E+01  0.1295E+02
  -5.880  0.4210E+01  0.1300E+02
  -5.870  0.4323E+01  0.1304E+02
  -5.860  0.4409E+01  0.1308E+02
  -5.850  0.4465E+01  0.1313E+02
  -5.840  0.4491E+01  0.1317E+02
  -5.830  0.4486E+01  0.1322E+02
  -5.820  0.4451E+01  0.1326E+02
  -5.810  0.4386E+01  0.1331E+02
  -5.800  0.4295E+01  0.1335E+02
  -5.790  0.4179E+01  0.1339E+02
  -5.780  0.4042E+01  0.1343E+02
  -5.770  0.3888E+01  0.1347E+02
  -5.760  0.3719E+01  0.1351E+02
  -5.750  0.3541E+01  0.1354E+02
  -5.740  0.3356E+01  0.1358E+02
  -5.730  0.3168E+01  0.1361E+02
  -5.720  0.2980E+01  0.1364E+02
  -5.710  0.2796E+01  0.1367E+02
  -5.700  0.2616E+01  0.1369E+02
  -5.690  0.2444E+01  0.1372E+02
  -5.680  0.2281E+01  0.1374E+02
  -5.670  0.2127E+01  0.1376E+02
  -5.660  0.1984E+01  0.1378E+02
  -5.650  0.1851E+01  0.1380E+02
  -5.640  0.1728E+01  0.1382E+02
  -5.630  0.1616E+01  0.1383E+02
  -5.620  0.1513E+01  0.1385E+02
  -5.610  0.1419E+01  0.1386E+02
  -5.600  0.1333E+01  0.1388E+02
  -5.590  0.1254E+01  0.1389E+02
  -5.580  0.1181E+01  0.1390E+02
  -5.570  0.1114E+01  0.1391E+02
  -5.560  0.1053E+01  0.1392E+02
  -5.550  0.9950E+00  0.1393E+02
  -5.540  0.9411E+00  0.1394E+02
  -5.530  0.8904E+00  0.1395E+02
  -5.520  0.8424E+00  0.1396E+02
  -5.510  0.7969E+00  0.1397E+02
  -5.500  0.7535E+00  0.1397E+02
  -5.490  0.7121E+00  0.1398E+02
  -5.480  0.6726E+00  0.1399E+02
  -5.470  0.6350E+00  0.1399E+02
  -5.460  0.5994E+00  0.1400E+02
  -5.450  0.5657E+00  0.1401E+02
  -5.440  0.5340E+00  0.1401E+02
  -5.430  0.5046E+00  0.1402E+02
  -5.420  0.4776E+00  0.1402E+02
  -5.410  0.4531E+00  0.1403E+02
  -5.400  0.4312E+00  0.1403E+02
  -5.390  0.4120E+00  0.1403E+02
  -5.380  0.3957E+00  0.1404E+02
  -5.370  0.3822E+00  0.1404E+02
  -5.360  0.3716E+00  0.1405E+02
  -5.350  0.3638E+00  0.1405E+02
  -5.340  0.3588E+00  0.1405E+02
  -5.330  0.3566E+00  0.1406E+02
  -5.320  0.3569E+00  0.1406E+02
  -5.310  0.3598E+00  0.1406E+02
  -5.300  0.3651E+00  0.1407E+02
  -5.290  0.3728E+00  0.1407E+02
  -5.280  0.3828E+00  0.1407E+02
  -5.270  0.3952E+00  0.1408E+02
  -5.260  0.4100E+00  0.1408E+02
  -5.250  0.4271E+00  0.1409E+02
  -5.240  0.4467E+00  0.1409E+02
  -5.230  0.4687E+00  0.1410E+02
  -5.220  0.4932E+00  0.1410E+02
  -5.210  0.5203E+00  0.1411E+02
  -5.200  0.5498E+00  0.1411E+02
  -5.190  0.5818E+00  0.1412E+02
  -5.180  0.6161E+00  0.1412E+02
  -5.170  0.6525E+00  0.1413E+02
  -5.160  0.6908E+00  0.1414E+02
  -5.150  0.7306E+00  0.1414E+02
  -5.140  0.7717E+00  0.1415E+02
  -5.130  0.8137E+00  0.1416E+02
  -5.120  0.8563E+00  0.1417E+02
  -5.110  0.8990E+00  0.1418E+02
  -5.100  0.9417E+00  0.1419E+02
  -5.090  0.9841E+00  0.1420E+02
  -5.080  0.1026E+01  0.1421E+02
  -5.070  0.1068E+01  0.1422E+02
  -5.060  0.1109E+01  0.1423E+02
  -5.050  0.1150E+01  0.1424E+02
  -5.040  0.1192E+01  0.1425E+02
  -5.030  0.1235E+01  0.1426E+02
  -5.020  0.1279E+01  0.1428E+02
  -5.010  0.1324E+01  0.1429E+02
  -5.000  0.1373E+01  0.1430E+02
  -4.990  0.1424E+01  0.1432E+02
  -4.980  0.1478E+01  0.1433E+02
  -4.970  0.1537E+01  0.1435E+02
  -4.960  0.1599E+01  0.1437E+02
  -4.950  0.1665E+01  0.1438E+02
  -4.940  0.1734E+01  0.1440E+02
  -4.930  0.1807E+01  0.1442E+02
  -4.920  0.1884E+01  0.1444E+02
  -4.910  0.1962E+01  0.1446E+02
  -4.900  0.2042E+01  0.1448E+02
  -4.890  0.2124E+01  0.1450E+02
  -4.880  0.2206E+01  0.1452E+02
  -4.870  0.2289E+01  0.1454E+02
  -4.860  0.2371E+01  0.1457E+02
  -4.850  0.2452E+01  0.1459E+02
  -4.840  0.2532E+01  0.1462E+02
  -4.830  0.2612E+01  0.1464E+02
  -4.820  0.2689E+01  0.1467E+02
  -4.810  0.2766E+01  0.1470E+02
  -4.800  0.2841E+01  0.1472E+02
  -4.790  0.2914E+01  0.1475E+02
  -4.780  0.2985E+01  0.1478E+02
  -4.770  0.3054E+01  0.1481E+02
  -4.760  0.3120E+01  0.1485E+02
  -4.750  0.3182E+01  0.1488E+02
  -4.740  0.3239E+01  0.1491E+02
  -4.730  0.3291E+01  0.1494E+02
  -4.720  0.3336E+01  0.1498E+02
  -4.710  0.3373E+01  0.1501E+02
  -4.700  0.3401E+01  0.1504E+02
  -4.690  0.3420E+01  0.1508E+02
  -4.680  0.3428E+01  0.1511E+02
  -4.670  0.3424E+01  0.1515E+02
  -4.660  0.3409E+01  0.1518E+02
  -4.650  0.3383E+01  0.1521E+02
  -4.640  0.3344E+01  0.1525E+02
  -4.630  0.3295E+01  0.1528E+02
  -4.620  0.3234E+01  0.1531E+02
  -4.610  0.3163E+01  0.1534E+02
  -4.600  0.3083E+01  0.1538E+02
  -4.590  0.2995E+01  0.1541E+02
  -4.580  0.2898E+01  0.1543E+02
  -4.570  0.2795E+01  0.1546E+02
  -4.560  0.2686E+01  0.1549E+02
  -4.550  0.2572E+01  0.1552E+02
  -4.540  0.2453E+01  0.1554E+02
  -4.530  0.2332E+01  0.1556E+02
  -4.520  0.2208E+01  0.1559E+02
  -4.510  0.2083E+01  0.1561E+02
  -4.500  0.1958E+01  0.1563E+02
  -4.490  0.1833E+01  0.1564E+02
  -4.480  0.1710E+01  0.1566E+02
  -4.470  0.1590E+01  0.1568E+02
  -4.460  0.1475E+01  0.1569E+02
  -4.450  0.1364E+01  0.1571E+02
  -4.440  0.1260E+01  0.1572E+02
  -4.430  0.1163E+01  0.1573E+02
  -4.420  0.1073E+01  0.1574E+02
  -4.410  0.9922E+00  0.1575E+02
  -4.400  0.9199E+00  0.1576E+02
  -4.390  0.8564E+00  0.1577E+02
  -4.380  0.8018E+00  0.1578E+02
  -4.370  0.7556E+00  0.1578E+02
  -4.360  0.7174E+00  0.1579E+02
  -4.350  0.6866E+00  0.1580E+02
  -4.340  0.6622E+00  0.1580E+02
  -4.330  0.6434E+00  0.1581E+02
  -4.320  0.6294E+00  0.1582E+02
  -4.310  0.6190E+00  0.1582E+02
  -4.300  0.6115E+00  0.1583E+02
  -4.290  0.6060E+00  0.1584E+02
  -4.280  0.6019E+00  0.1584E+02
  -4.270  0.5985E+00  0.1585E+02
  -4.260  0.5955E+00  0.1585E+02
  -4.250  0.5926E+00  0.1586E+02
  -4.240  0.5899E+00  0.1586E+02
  -4.230  0.5874E+00  0.1587E+02
  -4.220  0.5855E+00  0.1588E+02
  -4.210  0.5844E+00  0.1588E+02
  -4.200  0.5849E+00  0.1589E+02
  -4.190  0.5875E+00  0.1589E+02
  -4.180  0.5929E+00  0.1590E+02
  -4.170  0.6019E+00  0.1591E+02
  -4.160  0.6151E+00  0.1591E+02
  -4.150  0.6333E+00  0.1592E+02
  -4.140  0.6572E+00  0.1593E+02
  -4.130  0.6872E+00  0.1593E+02
  -4.120  0.7239E+00  0.1594E+02
  -4.110  0.7676E+00  0.1595E+02
  -4.100  0.8186E+00  0.1596E+02
  -4.090  0.8769E+00  0.1596E+02
  -4.080  0.9426E+00  0.1597E+02
  -4.070  0.1015E+01  0.1598E+02
  -4.060  0.1095E+01  0.1599E+02
  -4.050  0.1181E+01  0.1601E+02
  -4.040  0.1273E+01  0.1602E+02
  -4.030  0.1370E+01  0.1603E+02
  -4.020  0.1471E+01  0.1605E+02
  -4.010  0.1575E+01  0.1606E+02
  -4.000  0.1682E+01  0.1608E+02
  -3.990  0.1790E+01  0.1610E+02
  -3.980  0.1898E+01  0.1612E+02
  -3.970  0.2004E+01  0.1614E+02
  -3.960  0.2109E+01  0.1616E+02
  -3.950  0.2210E+01  0.1618E+02
  -3.940  0.2306E+01  0.1620E+02
  -3.930  0.2396E+01  0.1623E+02
  -3.920  0.2480E+01  0.1625E+02
  -3.910  0.2557E+01  0.1628E+02
  -3.900  0.2625E+01  0.1630E+02
  -3.890  0.2685E+01  0.1633E+02
  -3.880  0.2736E+01  0.1636E+02
  -3.870  0.2779E+01  0.1639E+02
  -3.860  0.2813E+01  0.1641E+02
  -3.850  0.2839E+01  0.1644E+02
  -3.840  0.2856E+01  0.1647E+02
  -3.830  0.2867E+01  0.1650E+02
  -3.820  0.2870E+01  0.1653E+02
  -3.810  0.2867E+01  0.1656E+02
  -3.800  0.2859E+01  0.1659E+02
  -3.790  0.2845E+01  0.1661E+02
  -3.780  0.2827E+01  0.1664E+02
  -3.770  0.2805E+01  0.1667E+02
  -3.760  0.2780E+01  0.1670E+02
  -3.750  0.2751E+01  0.1673E+02
  -3.740  0.2719E+01  0.1675E+02
  -3.730  0.2686E+01  0.1678E+02
  -3.720  0.2650E+01  0.1681E+02
  -3.710  0.2613E+01  0.1683E+02
  -3.700  0.2574E+01  0.1686E+02
  -3.690  0.2536E+01  0.1688E+02
  -3.680  0.2498E+01  0.1691E+02
  -3.670  0.2460E+01  0.1693E+02
  -3.660  0.2424E+01  0.1696E+02
  -3.650  0.2390E+01  0.1698E+02
  -3.640  0.2359E+01  0.1700E+02
  -3.630  0.2330E+01  0.1703E+02
  -3.620  0.2305E+01  0.1705E+02
  -3.610  0.2283E+01  0.1707E+02
  -3.600  0.2264E+01  0.1710E+02
  -3.590  0.2248E+01  0.1712E+02
  -3.580  0.2234E+01  0.1714E+02
  -3.570  0.2222E+01  0.1716E+02
  -3.560  0.2210E+01  0.1719E+02
  -3.550  0.2198E+01  0.1721E+02
  -3.540  0.2185E+01  0.1723E+02
  -3.530  0.2171E+01  0.1725E+02
  -3.520  0.2153E+01  0.1727E+02
  -3.510  0.2133E+01  0.1729E+02
  -3.500  0.2109E+01  0.1732E+02
  -3.490  0.2082E+01  0.1734E+02
  -3.480  0.2050E+01  0.1736E+02
  -3.470  0.2016E+01  0.1738E+02
  -3.460  0.1979E+01  0.1740E+02
  -3.450  0.1939E+01  0.1742E+02
  -3.440  0.1898E+01  0.1743E+02
  -3.430  0.1857E+01  0.1745E+02
  -3.420  0.1815E+01  0.1747E+02
  -3.410  0.1773E+01  0.1749E+02
  -3.400  0.1733E+01  0.1751E+02
  -3.390  0.1694E+01  0.1752E+02
  -3.380  0.1656E+01  0.1754E+02
  -3.370  0.1620E+01  0.1756E+02
  -3.360  0.1586E+01  0.1757E+02
  -3.350  0.1553E+01  0.1759E+02
  -3.340  0.1521E+01  0.1760E+02
  -3.330  0.1490E+01  0.1762E+02
  -3.320  0.1459E+01  0.1763E+02
  -3.310  0.1428E+01  0.1765E+02
  -3.300  0.1397E+01  0.1766E+02
  -3.290  0.1367E+01  0.1767E+02
  -3.280  0.1336E+01  0.1769E+02
  -3.270  0.1306E+01  0.1770E+02
  -3.260  0.1278E+01  0.1771E+02
  -3.250  0.1252E+01  0.1773E+02
  -3.240  0.1228E+01  0.1774E+02
  -3.230  0.1210E+01  0.1775E+02
  -3.220  0.1197E+01  0.1776E+02
  -3.210  0.1190E+01  0.1777E+02
  -3.200  0.1193E+01  0.1779E+02
  -3.190  0.1206E+01  0.1780E+02
  -3.180  0.1230E+01  0.1781E+02
  -3.170  0.1268E+01  0.1782E+02
  -3.160  0.1322E+01  0.1784E+02
  -3.150  0.1392E+01  0.1785E+02
  -3.140  0.1481E+01  0.1787E+02
  -3.130  0.1591E+01  0.1788E+02
  -3.120  0.1723E+01  0.1790E+02
  -3.110  0.1880E+01  0.1792E+02
  -3.100  0.2062E+01  0.1794E+02
  -3.090  0.2271E+01  0.1796E+02
  -3.080  0.2509E+01  0.1799E+02
  -3.070  0.2776E+01  0.1801E+02
  -3.060  0.3073E+01  0.1804E+02
  -3.050  0.3399E+01  0.1808E+02
  -3.040  0.3754E+01  0.1812E+02
  -3.030  0.4135E+01  0.1816E+02
  -3.020  0.4541E+01  0.1820E+02
  -3.010  0.4967E+01  0.1825E+02
  -3.000  0.5409E+01  0.1831E+02
  -2.990  0.5862E+01  0.1836E+02
  -2.980  0.6320E+01  0.1843E+02
  -2.970  0.6775E+01  0.1850E+02
  -2.960  0.7222E+01  0.1857E+02
  -2.950  0.7653E+01  0.1864E+02
  -2.940  0.8059E+01  0.1872E+02
  -2.930  0.8436E+01  0.1881E+02
  -2.920  0.8776E+01  0.1890E+02
  -2.910  0.9074E+01  0.1899E+02
  -2.900  0.9326E+01  0.1908E+02
  -2.890  0.9528E+01  0.1918E+02
  -2.880  0.9680E+01  0.1927E+02
  -2.870  0.9780E+01  0.1937E+02
  -2.860  0.9830E+01  0.1947E+02
  -2.850  0.9831E+01  0.1957E+02
  -2.840  0.9787E+01  0.1967E+02
  -2.830  0.9702E+01  0.1976E+02
  -2.820  0.9580E+01  0.1986E+02
  -2.810  0.9427E+01  0.1995E+02
  -2.800  0.9247E+01  0.2004E+02
  -2.790  0.9047E+01  0.2014E+02
  -2.780  0.8831E+01  0.2022E+02
  -2.770  0.8605E+01  0.2031E+02
  -2.760  0.8373E+01  0.2039E+02
  -2.750  0.8139E+01  0.2047E+02
  -2.740  0.7907E+01  0.2055E+02
  -2.730  0.7681E+01  0.2063E+02
  -2.720  0.7462E+01  0.2071E+02
  -2.710  0.7254E+01  0.2078E+02
  -2.700  0.7057E+01  0.2085E+02
  -2.690  0.6875E+01  0.2092E+02
  -2.680  0.6707E+01  0.2098E+02
  -2.670  0.6555E+01  0.2105E+02
  -2.660  0.6420E+01  0.2111E+02
  -2.650  0.6300E+01  0.2118E+02
  -2.640  0.6196E+01  0.2124E+02
  -2.630  0.6108E+01  0.2130E+02
  -2.620  0.6035E+01  0.2136E+02
  -2.610  0.5976E+01  0.2142E+02
  -2.600  0.5929E+01  0.2148E+02
  -2.590  0.5894E+01  0.2154E+02
  -2.580  0.5870E+01  0.2160E+02
  -2.570  0.5854E+01  0.2166E+02
  -2.560  0.5846E+01  0.2171E+02
  -2.550  0.5845E+01  0.2177E+02
  -2.540  0.5848E+01  0.2183E+02
  -2.530  0.5856E+01  0.2189E+02
  -2.520  0.5868E+01  0.2195E+02
  -2.510  0.5882E+01  0.2201E+02
  -2.500  0.5897E+01  0.2207E+02
  -2.490  0.5913E+01  0.2213E+02
  -2.480  0.5929E+01  0.2218E+02
  -2.470  0.5945E+01  0.2224E+02
  -2.460  0.5958E+01  0.2230E+02
  -2.450  0.5967E+01  0.2236E+02
  -2.440  0.5973E+01  0.2242E+02
  -2.430  0.5972E+01  0.2248E+02
  -2.420  0.5965E+01  0.2254E+02
  -2.410  0.5949E+01  0.2260E+02
  -2.400  0.5923E+01  0.2266E+02
  -2.390  0.5886E+01  0.2272E+02
  -2.380  0.5837E+01  0.2278E+02
  -2.370  0.5775E+01  0.2284E+02
  -2.360  0.5701E+01  0.2289E+02
  -2.350  0.5613E+01  0.2295E+02
  -2.340  0.5513E+01  0.2300E+02
  -2.330  0.5401E+01  0.2306E+02
  -2.320  0.5277E+01  0.2311E+02
  -2.310  0.5144E+01  0.2316E+02
  -2.300  0.5001E+01  0.2321E+02
  -2.290  0.4851E+01  0.2326E+02
  -2.280  0.4695E+01  0.2331E+02
  -2.270  0.4534E+01  0.2335E+02
  -2.260  0.4369E+01  0.2340E+02
  -2.250  0.4201E+01  0.2344E+02
  -2.240  0.4032E+01  0.2348E+02
  -2.230  0.3862E+01  0.2352E+02
  -2.220  0.3691E+01  0.2355E+02
  -2.210  0.3521E+01  0.2359E+02
  -2.200  0.3351E+01  0.2362E+02
  -2.190  0.3181E+01  0.2366E+02
  -2.180  0.3013E+01  0.2369E+02
  -2.170  0.2846E+01  0.2371E+02
  -2.160  0.2680E+01  0.2374E+02
  -2.150  0.2516E+01  0.2377E+02
  -2.140  0.2354E+01  0.2379E+02
  -2.130  0.2194E+01  0.2381E+02
  -2.120  0.2037E+01  0.2383E+02
  -2.110  0.1884E+01  0.2385E+02
  -2.100  0.1734E+01  0.2387E+02
  -2.090  0.1588E+01  0.2388E+02
  -2.080  0.1447E+01  0.2390E+02
  -2.070  0.1312E+01  0.2391E+02
  -2.060  0.1184E+01  0.2392E+02
  -2.050  0.1061E+01  0.2393E+02
  -2.040  0.9463E+00  0.2394E+02
  -2.030  0.8386E+00  0.2395E+02
  -2.020  0.7386E+00  0.2396E+02
  -2.010  0.6463E+00  0.2397E+02
  -2.000  0.5619E+00  0.2397E+02
  -1.990  0.4853E+00  0.2398E+02
  -1.980  0.4162E+00  0.2398E+02
  -1.970  0.3545E+00  0.2398E+02
  -1.960  0.2997E+00  0.2399E+02
  -1.950  0.2516E+00  0.2399E+02
  -1.940  0.2096E+00  0.2399E+02
  -1.930  0.1733E+00  0.2399E+02
  -1.920  0.1422E+00  0.2399E+02
  -1.910  0.1158E+00  0.2400E+02
  -1.900  0.9349E-01  0.2400E+02
  -1.890  0.7488E-01  0.2400E+02
  -1.880  0.5949E-01  0.2400E+02
  -1.870  0.4686E-01  0.2400E+02
  -1.860  0.3660E-01  0.2400E+02
  -1.850  0.2834E-01  0.2400E+02
  -1.840  0.2175E-01  0.2400E+02
  -1.830  0.1655E-01  0.2400E+02
  -1.820  0.1248E-01  0.2400E+02
  -1.810  0.9323E-02  0.2400E+02
  -1.800  0.6902E-02  0.2400E+02
  -1.790  0.5063E-02  0.2400E+02
  -1.780  0.3679E-02  0.2400E+02
  -1.770  0.2649E-02  0.2400E+02
  -1.760  0.1889E-02  0.2400E+02
  -1.750  0.1334E-02  0.2400E+02
  -1.740  0.9329E-03  0.2400E+02
  -1.730  0.6462E-03  0.2400E+02
  -1.720  0.4432E-03  0.2400E+02
  -1.710  0.3010E-03  0.2400E+02
  -1.700  0.2024E-03  0.2400E+02
  -1.690  0.1348E-03  0.2400E+02
  -1.680  0.8884E-04  0.2400E+02
  -1.670  0.5798E-04  0.2400E+02
  -1.660  0.3745E-04  0.2400E+02
  -1.650  0.2395E-04  0.2400E+02
  -1.640  0.1516E-04  0.2400E+02
  -1.630  0.9498E-05  0.2400E+02
  -1.620  0.5890E-05  0.2400E+02
  -1.610  0.3615E-05  0.2400E+02
  -1.600  0.2196E-05  0.2400E+02
  -1.590  0.1320E-05  0.2400E+02
  -1.580  0.7857E-06  0.2400E+02
  -1.570  0.4626E-06  0.2400E+02
  -1.560  0.2696E-06  0.2400E+02
  -1.550  0.1555E-06  0.2400E+02
  -1.540  0.8873E-07  0.2400E+02
  -1.530  0.5011E-07  0.2400E+02
  -1.520  0.2800E-07  0.2400E+02
  -1.510  0.1549E-07  0.2400E+02
  -1.500  0.8474E-08  0.2400E+02
  -1.490  0.4588E-08  0.2400E+02
  -1.480  0.2458E-08  0.2400E+02
  -1.470  0.1303E-08  0.2400E+02
  -1.460  0.6836E-09  0.2400E+02
  -1.450  0.3548E-09  0.2400E+02
  -1.440  0.1822E-09  0.2400E+02
  -1.430  0.9258E-10  0.2400E+02
  -1.420  0.4656E-10  0.2400E+02
  -1.410  0.2319E-10  0.2400E+02
  -1.400  0.1148E-10  0.2400E+02
  -1.390  0.5733E-11  0.2400E+02
  -1.380  0.3077E-11  0.2400E+02
  -1.370  0.2148E-11  0.2400E+02
  -1.360  0.2474E-11  0.2400E+02
  -1.350  0.4250E-11  0.2400E+02
  -1.340  0.8455E-11  0.2400E+02
  -1.330  0.1734E-10  0.2400E+02
  -1.320  0.3552E-10  0.2400E+02
  -1.310  0.7214E-10  0.2400E+02
  -1.300  0.1450E-09  0.2400E+02
  -1.290  0.2887E-09  0.2400E+02
  -1.280  0.5685E-09  0.2400E+02
  -1.270  0.1108E-08  0.2400E+02
  -1.260  0.2137E-08  0.2400E+02
  -1.250  0.4078E-08  0.2400E+02
  -1.240  0.7703E-08  0.2400E+02
  -1.230  0.1440E-07  0.2400E+02
  -1.220  0.2664E-07  0.2400E+02
  -1.210  0.4879E-07  0.2400E+02
  -1.200  0.8842E-07  0.2400E+02
  -1.190  0.1586E-06  0.2400E+02
  -1.180  0.2816E-06  0.2400E+02
  -1.170  0.4949E-06  0.2400E+02
  -1.160  0.8609E-06  0.2400E+02
  -1.150  0.1482E-05  0.2400E+02
  -1.140  0.2527E-05  0.2400E+02
  -1.130  0.4263E-05  0.2400E+02
  -1.120  0.7121E-05  0.2400E+02
  -1.110  0.1177E-04  0.2400E+02
  -1.100  0.1928E-04  0.2400E+02
  -1.090  0.3124E-04  0.2400E+02
  -1.080  0.5013E-04  0.2400E+02
  -1.070  0.7965E-04  0.2400E+02
  -1.060  0.1253E-03  0.2400E+02
  -1.050  0.1952E-03  0.2400E+02
  -1.040  0.3011E-03  0.2400E+02
  -1.030  0.4599E-03  0.2400E+02
  -1.020  0.6956E-03  0.2400E+02
  -1.010  0.1042E-02  0.2400E+02
  -1.000  0.1546E-02  0.2400E+02
  -0.990  0.2272E-02  0.2400E+02
  -0.980  0.3306E-02  0.2400E+02
  -0.970  0.4765E-02  0.2400E+02
  -0.960  0.6804E-02  0.2400E+02
  -0.950  0.9624E-02  0.2400E+02
  -0.940  0.1348E-01  0.2400E+02
  -0.930  0.1872E-01  0.2400E+02
  -0.920  0.2574E-01  0.2400E+02
  -0.910  0.3506E-01  0.2400E+02
  -0.900  0.4733E-01  0.2400E+02
  -0.890  0.6330E-01  0.2400E+02
  -0.880  0.8388E-01  0.2400E+02
  -0.870  0.1102E+00  0.2400E+02
  -0.860  0.1433E+00  0.2401E+02
  -0.850  0.1849E+00  0.2401E+02
  -0.840  0.2363E+00  0.2401E+02
  -0.830  0.2993E+00  0.2401E+02
  -0.820  0.3757E+00  0.2402E+02
  -0.810  0.4675E+00  0.2402E+02
  -0.800  0.5767E+00  0.2403E+02
  -0.790  0.7051E+00  0.2403E+02
  -0.780  0.8547E+00  0.2404E+02
  -0.770  0.1027E+01  0.2405E+02
  -0.760  0.1224E+01  0.2407E+02
  -0.750  0.1446E+01  0.2408E+02
  -0.740  0.1694E+01  0.2410E+02
  -0.730  0.1968E+01  0.2412E+02
  -0.720  0.2268E+01  0.2414E+02
  -0.710  0.2591E+01  0.2416E+02
  -0.700  0.2938E+01  0.2419E+02
  -0.690  0.3304E+01  0.2423E+02
  -0.680  0.3686E+01  0.2426E+02
  -0.670  0.4081E+01  0.2430E+02
  -0.660  0.4483E+01  0.2435E+02
  -0.650  0.4888E+01  0.2440E+02
  -0.640  0.5290E+01  0.2445E+02
  -0.630  0.5685E+01  0.2451E+02
  -0.620  0.6065E+01  0.2457E+02
  -0.610  0.6426E+01  0.2463E+02
  -0.600  0.6762E+01  0.2470E+02
  -0.590  0.7069E+01  0.2477E+02
  -0.580  0.7343E+01  0.2485E+02
  -0.570  0.7581E+01  0.2492E+02
  -0.560  0.7781E+01  0.2500E+02
  -0.550  0.7941E+01  0.2508E+02
  -0.540  0.8060E+01  0.2516E+02
  -0.530  0.8140E+01  0.2524E+02
  -0.520  0.8182E+01  0.2532E+02
  -0.510  0.8188E+01  0.2540E+02
  -0.500  0.8163E+01  0.2549E+02
  -0.490  0.8108E+01  0.2557E+02
  -0.480  0.8030E+01  0.2565E+02
  -0.470  0.7932E+01  0.2573E+02
  -0.460  0.7820E+01  0.2580E+02
  -0.450  0.7698E+01  0.2588E+02
  -0.440  0.7571E+01  0.2596E+02
  -0.430  0.7444E+01  0.2603E+02
  -0.420  0.7320E+01  0.2610E+02
  -0.410  0.7203E+01  0.2618E+02
  -0.400  0.7095E+01  0.2625E+02
  -0.390  0.6998E+01  0.2632E+02
  -0.380  0.6914E+01  0.2639E+02
  -0.370  0.6844E+01  0.2646E+02
  -0.360  0.6787E+01  0.2652E+02
  -0.350  0.6742E+01  0.2659E+02
  -0.340  0.6710E+01  0.2666E+02
  -0.330  0.6688E+01  0.2672E+02
  -0.320  0.6675E+01  0.2679E+02
  -0.310  0.6670E+01  0.2686E+02
  -0.300  0.6670E+01  0.2692E+02
  -0.290  0.6676E+01  0.2699E+02
  -0.280  0.6686E+01  0.2706E+02
  -0.270  0.6698E+01  0.2713E+02
  -0.260  0.6712E+01  0.2719E+02
  -0.250  0.6729E+01  0.2726E+02
  -0.240  0.6748E+01  0.2733E+02
  -0.230  0.6770E+01  0.2739E+02
  -0.220  0.6794E+01  0.2746E+02
  -0.210  0.6822E+01  0.2753E+02
  -0.200  0.6853E+01  0.2760E+02
  -0.190  0.6889E+01  0.2767E+02
  -0.180  0.6929E+01  0.2774E+02
  -0.170  0.6974E+01  0.2781E+02
  -0.160  0.7023E+01  0.2788E+02
  -0.150  0.7075E+01  0.2795E+02
  -0.140  0.7130E+01  0.2802E+02
  -0.130  0.7186E+01  0.2809E+02
  -0.120  0.7241E+01  0.2816E+02
  -0.110  0.7293E+01  0.2824E+02
  -0.100  0.7340E+01  0.2831E+02
  -0.090  0.7379E+01  0.2838E+02
  -0.080  0.7408E+01  0.2846E+02
  -0.070  0.7424E+01  0.2853E+02
  -0.060  0.7425E+01  0.2861E+02
  -0.050  0.7410E+01  0.2868E+02
  -0.040  0.7376E+01  0.2875E+02
  -0.030  0.7322E+01  0.2883E+02
  -0.020  0.7249E+01  0.2890E+02
  -0.010  0.7157E+01  0.2897E+02
  -0.000  0.7046E+01  0.2904E+02
   0.010  0.6919E+01  0.2911E+02
   0.020  0.6776E+01  0.2918E+02
   0.030  0.6623E+01  0.2925E+02
   0.040  0.6460E+01  0.2931E+02
   0.050  0.6293E+01  0.2937E+02
   0.060  0.6124E+01  0.2943E+02
   0.070  0.5958E+01  0.2949E+02
   0.080  0.5800E+01  0.2955E+02
   0.090  0.5652E+01  0.2961E+02
   0.100  0.5519E+01  0.2966E+02
   0.110  0.5404E+01  0.2972E+02
   0.120  0.5310E+01  0.2977E+02
   0.130  0.5240E+01  0.2982E+02
   0.140  0.5194E+01  0.2988E+02
   0.150  0.5175E+01  0.2993E+02
   0.160  0.5182E+01  0.2998E+02
   0.170  0.5216E+01  0.3003E+02
   0.180  0.5274E+01  0.3008E+02
   0.190  0.5356E+01  0.3014E+02
   0.200  0.5459E+01  0.3019E+02
   0.210  0.5579E+01  0.3025E+02
   0.220  0.5713E+01  0.3030E+02
   0.230  0.5856E+01  0.3036E+02
   0.240  0.6004E+01  0.3042E+02
   0.250  0.6152E+01  0.3048E+02
   0.260  0.6296E+01  0.3055E+02
   0.270  0.6433E+01  0.3061E+02
   0.280  0.6557E+01  0.3068E+02
   0.290  0.6668E+01  0.3074E+02
   0.300  0.6762E+01  0.3081E+02
   0.310  0.6840E+01  0.3088E+02
   0.320  0.6900E+01  0.3095E+02
   0.330  0.6945E+01  0.3102E+02
   0.340  0.6976E+01  0.3109E+02
   0.350  0.6997E+01  0.3116E+02
   0.360  0.7011E+01  0.3123E+02
   0.370  0.7023E+01  0.3130E+02
   0.380  0.7036E+01  0.3137E+02
   0.390  0.7055E+01  0.3144E+02
   0.400  0.7084E+01  0.3151E+02
   0.410  0.7126E+01  0.3158E+02
   0.420  0.7183E+01  0.3165E+02
   0.430  0.7258E+01  0.3173E+02
   0.440  0.7351E+01  0.3180E+02
   0.450  0.7459E+01  0.3187E+02
   0.460  0.7583E+01  0.3195E+02
   0.470  0.7717E+01  0.3203E+02
   0.480  0.7859E+01  0.3211E+02
   0.490  0.8002E+01  0.3219E+02
   0.500  0.8141E+01  0.3227E+02
   0.510  0.8271E+01  0.3235E+02
   0.520  0.8384E+01  0.3243E+02
   0.530  0.8476E+01  0.3252E+02
   0.540  0.8541E+01  0.3260E+02
   0.550  0.8575E+01  0.3269E+02
   0.560  0.8574E+01  0.3278E+02
   0.570  0.8536E+01  0.3286E+02
   0.580  0.8461E+01  0.3295E+02
   0.590  0.8348E+01  0.3303E+02
   0.600  0.8201E+01  0.3311E+02
   0.610  0.8021E+01  0.3319E+02
   0.620  0.7814E+01  0.3327E+02
   0.630  0.7585E+01  0.3335E+02
   0.640  0.7339E+01  0.3342E+02
   0.650  0.7083E+01  0.3349E+02
   0.660  0.6823E+01  0.3356E+02
   0.670  0.6566E+01  0.3362E+02
   0.680  0.6319E+01  0.3369E+02
   0.690  0.6086E+01  0.3375E+02
   0.700  0.5873E+01  0.3381E+02
   0.710  0.5685E+01  0.3386E+02
   0.720  0.5523E+01  0.3392E+02
   0.730  0.5393E+01  0.3397E+02
   0.740  0.5293E+01  0.3403E+02
   0.750  0.5227E+01  0.3408E+02
   0.760  0.5193E+01  0.3413E+02
   0.770  0.5191E+01  0.3418E+02
   0.780  0.5220E+01  0.3423E+02
   0.790  0.5278E+01  0.3429E+02
   0.800  0.5363E+01  0.3434E+02
   0.810  0.5474E+01  0.3439E+02
   0.820  0.5607E+01  0.3445E+02
   0.830  0.5759E+01  0.3451E+02
   0.840  0.5930E+01  0.3457E+02
   0.850  0.6116E+01  0.3463E+02
   0.860  0.6315E+01  0.3469E+02
   0.870  0.6524E+01  0.3476E+02
   0.880  0.6742E+01  0.3482E+02
   0.890  0.6965E+01  0.3489E+02
   0.900  0.7193E+01  0.3497E+02
   0.910  0.7423E+01  0.3504E+02
   0.920  0.7653E+01  0.3512E+02
   0.930  0.7880E+01  0.3520E+02
   0.940  0.8102E+01  0.3528E+02
   0.950  0.8317E+01  0.3536E+02
   0.960  0.8522E+01  0.3544E+02
   0.970  0.8715E+01  0.3553E+02
   0.980  0.8893E+01  0.3562E+02
   0.990  0.9054E+01  0.3571E+02
   1.000  0.9194E+01  0.3580E+02
   1.010  0.9311E+01  0.3590E+02
   1.020  0.9403E+01  0.3599E+02
   1.030  0.9469E+01  0.3609E+02
   1.040  0.9506E+01  0.3618E+02
   1.050  0.9514E+01  0.3628E+02
   1.060  0.9493E+01  0.3637E+02
   1.070  0.9442E+01  0.3646E+02
   1.080  0.9363E+01  0.3656E+02
   1.090  0.9259E+01  0.3665E+02
   1.100  0.9132E+01  0.3674E+02
   1.110  0.8985E+01  0.3683E+02
   1.120  0.8822E+01  0.3692E+02
   1.130  0.8649E+01  0.3701E+02
   1.140  0.8470E+01  0.3709E+02
   1.150  0.8290E+01  0.3717E+02
   1.160  0.8115E+01  0.3726E+02
   1.170  0.7950E+01  0.3734E+02
   1.180  0.7798E+01  0.3741E+02
   1.190  0.7666E+01  0.3749E+02
   1.200  0.7555E+01  0.3757E+02
   1.210  0.7467E+01  0.3764E+02
   1.220  0.7406E+01  0.3771E+02
   1.230  0.7370E+01  0.3779E+02
   1.240  0.7361E+01  0.3786E+02
   1.250  0.7375E+01  0.3794E+02
   1.260  0.7413E+01  0.3801E+02
   1.270  0.7470E+01  0.3808E+02
   1.280  0.7545E+01  0.3816E+02
   1.290  0.7633E+01  0.3824E+02
   1.300  0.7731E+01  0.3831E+02
   1.310  0.7836E+01  0.3839E+02
   1.320  0.7944E+01  0.3847E+02
   1.330  0.8053E+01  0.3855E+02
   1.340  0.8159E+01  0.3863E+02
   1.350  0.8261E+01  0.3872E+02
   1.360  0.8357E+01  0.3880E+02
   1.370  0.8445E+01  0.3888E+02
   1.380  0.8525E+01  0.3897E+02
   1.390  0.8596E+01  0.3905E+02
   1.400  0.8659E+01  0.3914E+02
   1.410  0.8713E+01  0.3923E+02
   1.420  0.8759E+01  0.3932E+02
   1.430  0.8799E+01  0.3940E+02
   1.440  0.8833E+01  0.3949E+02
   1.450  0.8861E+01  0.3958E+02
   1.460  0.8886E+01  0.3967E+02
   1.470  0.8907E+01  0.3976E+02
   1.480  0.8926E+01  0.3985E+02
   1.490  0.8942E+01  0.3994E+02
   1.500  0.8957E+01  0.4003E+02
   1.510  0.8969E+01  0.4012E+02
   1.520  0.8979E+01  0.4021E+02
   1.530  0.8986E+01  0.4030E+02
   1.540  0.8989E+01  0.4039E+02
   1.550  0.8987E+01  0.4048E+02
   1.560  0.8978E+01  0.4057E+02
   1.570  0.8962E+01  0.4066E+02
   1.580  0.8937E+01  0.4075E+02
   1.590  0.8902E+01  0.4083E+02
   1.600  0.8855E+01  0.4092E+02
   1.610  0.8798E+01  0.4101E+02
   1.620  0.8729E+01  0.4110E+02
   1.630  0.8649E+01  0.4118E+02
   1.640  0.8558E+01  0.4127E+02
   1.650  0.8458E+01  0.4135E+02
   1.660  0.8352E+01  0.4144E+02
   1.670  0.8239E+01  0.4152E+02
   1.680  0.8124E+01  0.4160E+02
   1.690  0.8009E+01  0.4168E+02
   1.700  0.7895E+01  0.4176E+02
   1.710  0.7786E+01  0.4184E+02
   1.720  0.7684E+01  0.4192E+02
   1.730  0.7589E+01  0.4199E+02
   1.740  0.7504E+01  0.4207E+02
   1.750  0.7428E+01  0.4214E+02
   1.760  0.7362E+01  0.4221E+02
   1.770  0.7306E+01  0.4229E+02
   1.780  0.7258E+01  0.4236E+02
   1.790  0.7216E+01  0.4243E+02
   1.800  0.7180E+01  0.4250E+02
   1.810  0.7146E+01  0.4258E+02
   1.820  0.7112E+01  0.4265E+02
   1.830  0.7078E+01  0.4272E+02
   1.840  0.7040E+01  0.4279E+02
   1.850  0.6996E+01  0.4286E+02
   1.860  0.6947E+01  0.4293E+02
   1.870  0.6890E+01  0.4300E+02
   1.880  0.6825E+01  0.4306E+02
   1.890  0.6753E+01  0.4313E+02
   1.900  0.6674E+01  0.4320E+02
   1.910  0.6588E+01  0.4326E+02
   1.920  0.6498E+01  0.4333E+02
   1.930  0.6403E+01  0.4339E+02
   1.940  0.6306E+01  0.4346E+02
   1.950  0.6210E+01  0.4352E+02
   1.960  0.6114E+01  0.4358E+02
   1.970  0.6022E+01  0.4364E+02
   1.980  0.5934E+01  0.4370E+02
   1.990  0.5854E+01  0.4376E+02
   2.000  0.5781E+01  0.4382E+02
   2.010  0.5719E+01  0.4387E+02
   2.020  0.5667E+01  0.4393E+02
   2.030  0.5628E+01  0.4399E+02
   2.040  0.5601E+01  0.4404E+02
   2.050  0.5589E+01  0.4410E+02
   2.060  0.5592E+01  0.4415E+02
   2.070  0.5610E+01  0.4421E+02
   2.080  0.5644E+01  0.4427E+02
   2.090  0.5694E+01  0.4432E+02
   2.100  0.5760E+01  0.4438E+02
   2.110  0.5840E+01  0.4444E+02
   2.120  0.5935E+01  0.4450E+02
   2.130  0.6043E+01  0.4456E+02
   2.140  0.6163E+01  0.4462E+02
   2.150  0.6293E+01  0.4468E+02
   2.160  0.6430E+01  0.4475E+02
   2.170  0.6573E+01  0.4481E+02
   2.180  0.6720E+01  0.4488E+02
   2.190  0.6866E+01  0.4495E+02
   2.200  0.7011E+01  0.4502E+02
   2.210  0.7151E+01  0.4509E+02
   2.220  0.7283E+01  0.4516E+02
   2.230  0.7407E+01  0.4524E+02
   2.240  0.7520E+01  0.4531E+02
   2.250  0.7621E+01  0.4539E+02
   2.260  0.7708E+01  0.4547E+02
   2.270  0.7782E+01  0.4554E+02
   2.280  0.7842E+01  0.4562E+02
   2.290  0.7888E+01  0.4570E+02
   2.300  0.7923E+01  0.4578E+02
   2.310  0.7946E+01  0.4586E+02
   2.320  0.7958E+01  0.4594E+02
   2.330  0.7962E+01  0.4602E+02
   2.340  0.7958E+01  0.4610E+02
   2.350  0.7948E+01  0.4618E+02
   2.360  0.7932E+01  0.4626E+02
   2.370  0.7911E+01  0.4634E+02
   2.380  0.7885E+01  0.4642E+02
   2.390  0.7854E+01  0.4649E+02
   2.400  0.7816E+01  0.4657E+02
   2.410  0.7770E+01  0.4665E+02
   2.420  0.7714E+01  0.4673E+02
   2.430  0.7646E+01  0.4680E+02
   2.440  0.7563E+01  0.4688E+02
   2.450  0.7462E+01  0.4695E+02
   2.460  0.7341E+01  0.4703E+02
   2.470  0.7198E+01  0.4710E+02
   2.480  0.7030E+01  0.4717E+02
   2.490  0.6835E+01  0.4724E+02
   2.500  0.6615E+01  0.4730E+02
   2.510  0.6367E+01  0.4737E+02
   2.520  0.6094E+01  0.4743E+02
   2.530  0.5798E+01  0.4749E+02
   2.540  0.5480E+01  0.4754E+02
   2.550  0.5144E+01  0.4759E+02
   2.560  0.4795E+01  0.4764E+02
