#  E (eV)   dos(E)     Int dos(E) EFermi =   2.556 eV
 -17.588  0.9555E-05  0.9555E-07
 -17.578  0.1198E-04  0.2153E-06
 -17.568  0.1498E-04  0.3651E-06
 -17.558  0.1868E-04  0.5519E-06
 -17.548  0.2324E-04  0.7843E-06
 -17.538  0.2885E-04  0.1073E-05
 -17.528  0.3573E-04  0.1430E-05
 -17.518  0.4414E-04  0.1872E-05
 -17.508  0.5440E-04  0.2416E-05
 -17.498  0.6688E-04  0.3084E-05
 -17.488  0.8203E-04  0.3905E-05
 -17.478  0.1004E-03  0.4909E-05
 -17.468  0.1225E-03  0.6134E-05
 -17.458  0.1493E-03  0.7627E-05
 -17.448  0.1814E-03  0.9440E-05
 -17.438  0.2199E-03  0.1164E-04
 -17.428  0.2659E-03  0.1430E-04
 -17.418  0.3209E-03  0.1751E-04
 -17.408  0.3863E-03  0.2137E-04
 -17.398  0.4641E-03  0.2601E-04
 -17.388  0.5562E-03  0.3157E-04
 -17.378  0.6652E-03  0.3823E-04
 -17.368  0.7936E-03  0.4616E-04
 -17.358  0.9448E-03  0.5561E-04
 -17.348  0.1122E-02  0.6683E-04
 -17.338  0.1330E-02  0.8014E-04
 -17.328  0.1573E-02  0.9587E-04
 -17.318  0.1857E-02  0.1144E-03
 -17.308  0.2186E-02  0.1363E-03
 -17.298  0.2569E-02  0.1620E-03
 -17.288  0.3012E-02  0.1921E-03
 -17.278  0.3524E-02  0.2273E-03
 -17.268  0.4114E-02  0.2685E-03
 -17.258  0.4793E-02  0.3164E-03
 -17.248  0.5573E-02  0.3721E-03
 -17.238  0.6465E-02  0.4368E-03
 -17.228  0.7485E-02  0.5116E-03
 -17.218  0.8649E-02  0.5981E-03
 -17.208  0.9972E-02  0.6978E-03
 -17.198  0.1147E-01  0.8126E-03
 -17.188  0.1318E-01  0.9444E-03
 -17.178  0.1510E-01  0.1095E-02
 -17.168  0.1727E-01  0.1268E-02
 -17.158  0.1971E-01  0.1465E-02
 -17.148  0.2246E-01  0.1690E-02
 -17.138  0.2553E-01  0.1945E-02
 -17.128  0.2897E-01  0.2235E-02
 -17.118  0.3280E-01  0.2563E-02
 -17.108  0.3708E-01  0.2934E-02
 -17.098  0.4182E-01  0.3352E-02
 -17.088  0.4708E-01  0.3823E-02
 -17.078  0.5290E-01  0.4352E-02
 -17.068  0.5933E-01  0.4945E-02
 -17.058  0.6640E-01  0.5609E-02
 -17.048  0.7418E-01  0.6351E-02
 -17.038  0.8271E-01  0.7178E-02
 -17.028  0.9205E-01  0.8098E-02
 -17.018  0.1022E+00  0.9121E-02
 -17.008  0.1134E+00  0.1025E-01
 -16.998  0.1254E+00  0.1151E-01
 -16.988  0.1386E+00  0.1289E-01
 -16.978  0.1527E+00  0.1442E-01
 -16.968  0.1681E+00  0.1610E-01
 -16.958  0.1846E+00  0.1795E-01
 -16.948  0.2024E+00  0.1997E-01
 -16.938  0.2215E+00  0.2219E-01
 -16.928  0.2420E+00  0.2461E-01
 -16.918  0.2638E+00  0.2725E-01
 -16.908  0.2872E+00  0.3012E-01
 -16.898  0.3120E+00  0.3324E-01
 -16.888  0.3384E+00  0.3662E-01
 -16.878  0.3663E+00  0.4029E-01
 -16.868  0.3959E+00  0.4424E-01
 -16.858  0.4271E+00  0.4852E-01
 -16.848  0.4600E+00  0.5312E-01
 -16.838  0.4946E+00  0.5806E-01
 -16.828  0.5309E+00  0.6337E-01
 -16.818  0.5690E+00  0.6906E-01
 -16.808  0.6087E+00  0.7515E-01
 -16.798  0.6502E+00  0.8165E-01
 -16.788  0.6934E+00  0.8858E-01
 -16.778  0.7383E+00  0.9597E-01
 -16.768  0.7849E+00  0.1038E+00
 -16.758  0.8332E+00  0.1121E+00
 -16.748  0.8832E+00  0.1210E+00
 -16.738  0.9348E+00  0.1303E+00
 -16.728  0.9880E+00  0.1402E+00
 -16.718  0.1043E+01  0.1506E+00
 -16.708  0.1099E+01  0.1616E+00
 -16.698  0.1157E+01  0.1732E+00
 -16.688  0.1216E+01  0.1854E+00
 -16.678  0.1277E+01  0.1981E+00
 -16.668  0.1339E+01  0.2115E+00
 -16.658  0.1403E+01  0.2256E+00
 -16.648  0.1468E+01  0.2402E+00
 -16.638  0.1534E+01  0.2556E+00
 -16.628  0.1601E+01  0.2716E+00
 -16.618  0.1670E+01  0.2883E+00
 -16.608  0.1739E+01  0.3057E+00
 -16.598  0.1810E+01  0.3238E+00
 -16.588  0.1881E+01  0.3426E+00
 -16.578  0.1954E+01  0.3621E+00
 -16.568  0.2027E+01  0.3824E+00
 -16.558  0.2101E+01  0.4034E+00
 -16.548  0.2175E+01  0.4251E+00
 -16.538  0.2250E+01  0.4476E+00
 -16.528  0.2326E+01  0.4709E+00
 -16.518  0.2401E+01  0.4949E+00
 -16.508  0.2477E+01  0.5197E+00
 -16.498  0.2553E+01  0.5452E+00
 -16.488  0.2628E+01  0.5715E+00
 -16.478  0.2703E+01  0.5985E+00
 -16.468  0.2778E+01  0.6263E+00
 -16.458  0.2851E+01  0.6548E+00
 -16.448  0.2924E+01  0.6841E+00
 -16.438  0.2995E+01  0.7140E+00
 -16.428  0.3064E+01  0.7447E+00
 -16.418  0.3132E+01  0.7760E+00
 -16.408  0.3197E+01  0.8079E+00
 -16.398  0.3260E+01  0.8405E+00
 -16.388  0.3320E+01  0.8737E+00
 -16.378  0.3377E+01  0.9075E+00
 -16.368  0.3431E+01  0.9418E+00
 -16.358  0.3481E+01  0.9766E+00
 -16.348  0.3527E+01  0.1012E+01
 -16.338  0.3570E+01  0.1048E+01
 -16.328  0.3608E+01  0.1084E+01
 -16.318  0.3642E+01  0.1120E+01
 -16.308  0.3671E+01  0.1157E+01
 -16.298  0.3695E+01  0.1194E+01
 -16.288  0.3715E+01  0.1231E+01
 -16.278  0.3730E+01  0.1268E+01
 -16.268  0.3740E+01  0.1306E+01
 -16.258  0.3746E+01  0.1343E+01
 -16.248  0.3746E+01  0.1381E+01
 -16.238  0.3743E+01  0.1418E+01
 -16.228  0.3735E+01  0.1455E+01
 -16.218  0.3724E+01  0.1493E+01
 -16.208  0.3708E+01  0.1530E+01
 -16.198  0.3690E+01  0.1567E+01
 -16.188  0.3668E+01  0.1603E+01
 -16.178  0.3644E+01  0.1640E+01
 -16.168  0.3618E+01  0.1676E+01
 -16.158  0.3590E+01  0.1712E+01
 -16.148  0.3562E+01  0.1747E+01
 -16.138  0.3532E+01  0.1783E+01
 -16.128  0.3503E+01  0.1818E+01
 -16.118  0.3474E+01  0.1852E+01
 -16.108  0.3446E+01  0.1887E+01
 -16.098  0.3419E+01  0.1921E+01
 -16.088  0.3394E+01  0.1955E+01
 -16.078  0.3371E+01  0.1989E+01
 -16.068  0.3351E+01  0.2022E+01
 -16.058  0.3334E+01  0.2056E+01
 -16.048  0.3320E+01  0.2089E+01
 -16.038  0.3309E+01  0.2122E+01
 -16.028  0.3302E+01  0.2155E+01
 -16.018  0.3299E+01  0.2188E+01
 -16.008  0.3299E+01  0.2221E+01
 -15.998  0.3303E+01  0.2254E+01
 -15.988  0.3311E+01  0.2287E+01
 -15.978  0.3322E+01  0.2320E+01
 -15.968  0.3336E+01  0.2354E+01
 -15.958  0.3352E+01  0.2387E+01
 -15.948  0.3371E+01  0.2421E+01
 -15.938  0.3393E+01  0.2455E+01
 -15.928  0.3416E+01  0.2489E+01
 -15.918  0.3440E+01  0.2523E+01
 -15.908  0.3464E+01  0.2558E+01
 -15.898  0.3489E+01  0.2593E+01
 -15.888  0.3513E+01  0.2628E+01
 -15.878  0.3536E+01  0.2663E+01
 -15.868  0.3558E+01  0.2699E+01
 -15.858  0.3577E+01  0.2735E+01
 -15.848  0.3594E+01  0.2771E+01
 -15.838  0.3608E+01  0.2807E+01
 -15.828  0.3619E+01  0.2843E+01
 -15.818  0.3625E+01  0.2879E+01
 -15.808  0.3628E+01  0.2915E+01
 -15.798  0.3626E+01  0.2952E+01
 -15.788  0.3620E+01  0.2988E+01
 -15.778  0.3609E+01  0.3024E+01
 -15.768  0.3593E+01  0.3060E+01
 -15.758  0.3572E+01  0.3096E+01
 -15.748  0.3547E+01  0.3131E+01
 -15.738  0.3517E+01  0.3166E+01
 -15.728  0.3483E+01  0.3201E+01
 -15.718  0.3445E+01  0.3236E+01
 -15.708  0.3404E+01  0.3270E+01
 -15.698  0.3359E+01  0.3303E+01
 -15.688  0.3312E+01  0.3336E+01
 -15.678  0.3263E+01  0.3369E+01
 -15.668  0.3212E+01  0.3401E+01
 -15.658  0.3160E+01  0.3433E+01
 -15.648  0.3107E+01  0.3464E+01
 -15.638  0.3055E+01  0.3494E+01
 -15.628  0.3003E+01  0.3524E+01
 -15.618  0.2953E+01  0.3554E+01
 -15.608  0.2905E+01  0.3583E+01
 -15.598  0.2859E+01  0.3611E+01
 -15.588  0.2817E+01  0.3640E+01
 -15.578  0.2778E+01  0.3667E+01
 -15.568  0.2743E+01  0.3695E+01
 -15.558  0.2712E+01  0.3722E+01
 -15.548  0.2686E+01  0.3749E+01
 -15.538  0.2665E+01  0.3775E+01
 -15.528  0.2649E+01  0.3802E+01
 -15.518  0.2639E+01  0.3828E+01
 -15.508  0.2634E+01  0.3855E+01
 -15.498  0.2635E+01  0.3881E+01
 -15.488  0.2641E+01  0.3907E+01
 -15.478  0.2653E+01  0.3934E+01
 -15.468  0.2669E+01  0.3961E+01
 -15.458  0.2691E+01  0.3988E+01
 -15.448  0.2717E+01  0.4015E+01
 -15.438  0.2748E+01  0.4042E+01
 -15.428  0.2783E+01  0.4070E+01
 -15.418  0.2821E+01  0.4098E+01
 -15.408  0.2862E+01  0.4127E+01
 -15.398  0.2906E+01  0.4156E+01
 -15.388  0.2951E+01  0.4185E+01
 -15.378  0.2999E+01  0.4215E+01
 -15.368  0.3047E+01  0.4246E+01
 -15.358  0.3095E+01  0.4277E+01
 -15.348  0.3144E+01  0.4308E+01
 -15.338  0.3192E+01  0.4340E+01
 -15.328  0.3239E+01  0.4373E+01
 -15.318  0.3284E+01  0.4405E+01
 -15.308  0.3327E+01  0.4439E+01
 -15.298  0.3368E+01  0.4472E+01
 -15.288  0.3406E+01  0.4506E+01
 -15.278  0.3441E+01  0.4541E+01
 -15.268  0.3473E+01  0.4576E+01
 -15.258  0.3502E+01  0.4611E+01
 -15.248  0.3527E+01  0.4646E+01
 -15.238  0.3548E+01  0.4681E+01
 -15.228  0.3566E+01  0.4717E+01
 -15.218  0.3580E+01  0.4753E+01
 -15.208  0.3592E+01  0.4789E+01
 -15.198  0.3600E+01  0.4825E+01
 -15.188  0.3605E+01  0.4861E+01
 -15.178  0.3609E+01  0.4897E+01
 -15.168  0.3610E+01  0.4933E+01
 -15.158  0.3610E+01  0.4969E+01
 -15.148  0.3609E+01  0.5005E+01
 -15.138  0.3608E+01  0.5041E+01
 -15.128  0.3608E+01  0.5077E+01
 -15.118  0.3609E+01  0.5113E+01
 -15.108  0.3612E+01  0.5150E+01
 -15.098  0.3618E+01  0.5186E+01
 -15.088  0.3628E+01  0.5222E+01
 -15.078  0.3643E+01  0.5258E+01
 -15.068  0.3663E+01  0.5295E+01
 -15.058  0.3689E+01  0.5332E+01
 -15.048  0.3722E+01  0.5369E+01
 -15.038  0.3764E+01  0.5407E+01
 -15.028  0.3815E+01  0.5445E+01
 -15.018  0.3876E+01  0.5484E+01
 -15.008  0.3947E+01  0.5523E+01
 -14.998  0.4030E+01  0.5564E+01
 -14.988  0.4126E+01  0.5605E+01
 -14.978  0.4234E+01  0.5647E+01
 -14.968  0.4355E+01  0.5691E+01
 -14.958  0.4491E+01  0.5736E+01
 -14.948  0.4640E+01  0.5782E+01
 -14.938  0.4805E+01  0.5830E+01
 -14.928  0.4984E+01  0.5880E+01
 -14.918  0.5178E+01  0.5932E+01
 -14.908  0.5387E+01  0.5986E+01
 -14.898  0.5610E+01  0.6042E+01
 -14.888  0.5847E+01  0.6100E+01
 -14.878  0.6098E+01  0.6161E+01
 -14.868  0.6362E+01  0.6225E+01
 -14.858  0.6639E+01  0.6291E+01
 -14.848  0.6926E+01  0.6360E+01
 -14.838  0.7224E+01  0.6433E+01
 -14.828  0.7530E+01  0.6508E+01
 -14.818  0.7843E+01  0.6586E+01
 -14.808  0.8162E+01  0.6668E+01
 -14.798  0.8485E+01  0.6753E+01
 -14.788  0.8811E+01  0.6841E+01
 -14.778  0.9136E+01  0.6932E+01
 -14.768  0.9459E+01  0.7027E+01
 -14.758  0.9779E+01  0.7125E+01
 -14.748  0.1009E+02  0.7226E+01
 -14.738  0.1040E+02  0.7330E+01
 -14.728  0.1069E+02  0.7436E+01
 -14.718  0.1097E+02  0.7546E+01
 -14.708  0.1124E+02  0.7659E+01
 -14.698  0.1149E+02  0.7773E+01
 -14.688  0.1172E+02  0.7891E+01
 -14.678  0.1193E+02  0.8010E+01
 -14.668  0.1211E+02  0.8131E+01
 -14.658  0.1227E+02  0.8254E+01
 -14.648  0.1241E+02  0.8378E+01
 -14.638  0.1251E+02  0.8503E+01
 -14.628  0.1259E+02  0.8629E+01
 -14.618  0.1264E+02  0.8755E+01
 -14.608  0.1266E+02  0.8882E+01
 -14.598  0.1265E+02  0.9008E+01
 -14.588  0.1261E+02  0.9134E+01
 -14.578  0.1254E+02  0.9260E+01
 -14.568  0.1243E+02  0.9384E+01
 -14.558  0.1230E+02  0.9507E+01
 -14.548  0.1214E+02  0.9629E+01
 -14.538  0.1195E+02  0.9748E+01
 -14.528  0.1174E+02  0.9866E+01
 -14.518  0.1150E+02  0.9981E+01
 -14.508  0.1123E+02  0.1009E+02
 -14.498  0.1095E+02  0.1020E+02
 -14.488  0.1064E+02  0.1031E+02
 -14.478  0.1032E+02  0.1041E+02
 -14.468  0.9981E+01  0.1051E+02
 -14.458  0.9629E+01  0.1061E+02
 -14.448  0.9265E+01  0.1070E+02
 -14.438  0.8892E+01  0.1079E+02
 -14.428  0.8513E+01  0.1087E+02
 -14.418  0.8128E+01  0.1096E+02
 -14.408  0.7741E+01  0.1103E+02
 -14.398  0.7353E+01  0.1111E+02
 -14.388  0.6967E+01  0.1118E+02
 -14.378  0.6584E+01  0.1124E+02
 -14.368  0.6206E+01  0.1130E+02
 -14.358  0.5834E+01  0.1136E+02
 -14.348  0.5471E+01  0.1142E+02
 -14.338  0.5117E+01  0.1147E+02
 -14.328  0.4773E+01  0.1152E+02
 -14.318  0.4441E+01  0.1156E+02
 -14.308  0.4121E+01  0.1160E+02
 -14.298  0.3815E+01  0.1164E+02
 -14.288  0.3522E+01  0.1168E+02
 -14.278  0.3243E+01  0.1171E+02
 -14.268  0.2978E+01  0.1174E+02
 -14.258  0.2728E+01  0.1176E+02
 -14.248  0.2492E+01  0.1179E+02
 -14.238  0.2271E+01  0.1181E+02
 -14.228  0.2064E+01  0.1183E+02
 -14.218  0.1871E+01  0.1185E+02
 -14.208  0.1691E+01  0.1187E+02
 -14.198  0.1525E+01  0.1188E+02
 -14.188  0.1372E+01  0.1190E+02
 -14.178  0.1230E+01  0.1191E+02
 -14.168  0.1101E+01  0.1192E+02
 -14.158  0.9822E+00  0.1193E+02
 -14.148  0.8742E+00  0.1194E+02
 -14.138  0.7760E+00  0.1195E+02
 -14.128  0.6870E+00  0.1195E+02
 -14.118  0.6066E+00  0.1196E+02
 -14.108  0.5343E+00  0.1197E+02
 -14.098  0.4693E+00  0.1197E+02
 -14.088  0.4112E+00  0.1197E+02
 -14.078  0.3593E+00  0.1198E+02
 -14.068  0.3131E+00  0.1198E+02
 -14.058  0.2722E+00  0.1198E+02
 -14.048  0.2360E+00  0.1199E+02
 -14.038  0.2040E+00  0.1199E+02
 -14.028  0.1760E+00  0.1199E+02
 -14.018  0.1514E+00  0.1199E+02
 -14.008  0.1298E+00  0.1199E+02
 -13.998  0.1111E+00  0.1199E+02
 -13.988  0.9481E-01  0.1200E+02
 -13.978  0.8070E-01  0.1200E+02
 -13.968  0.6851E-01  0.1200E+02
 -13.958  0.5800E-01  0.1200E+02
 -13.948  0.4898E-01  0.1200E+02
 -13.938  0.4125E-01  0.1200E+02
 -13.928  0.3466E-01  0.1200E+02
 -13.918  0.2903E-01  0.1200E+02
 -13.908  0.2426E-01  0.1200E+02
 -13.898  0.2022E-01  0.1200E+02
 -13.888  0.1681E-01  0.1200E+02
 -13.878  0.1393E-01  0.1200E+02
 -13.868  0.1152E-01  0.1200E+02
 -13.858  0.9502E-02  0.1200E+02
 -13.848  0.7816E-02  0.1200E+02
 -13.838  0.6412E-02  0.1200E+02
 -13.828  0.5246E-02  0.1200E+02
 -13.818  0.4281E-02  0.1200E+02
 -13.808  0.3484E-02  0.1200E+02
 -13.798  0.2828E-02  0.1200E+02
 -13.788  0.2290E-02  0.1200E+02
 -13.778  0.1849E-02  0.1200E+02
 -13.768  0.1489E-02  0.1200E+02
 -13.758  0.1196E-02  0.1200E+02
 -13.748  0.9582E-03  0.1200E+02
 -13.738  0.7656E-03  0.1200E+02
 -13.728  0.6101E-03  0.1200E+02
 -13.718  0.4849E-03  0.1200E+02
 -13.708  0.3844E-03  0.1200E+02
 -13.698  0.3039E-03  0.1200E+02
 -13.688  0.2397E-03  0.1200E+02
 -13.678  0.1885E-03  0.1200E+02
 -13.668  0.1478E-03  0.1200E+02
 -13.658  0.1157E-03  0.1200E+02
 -13.648  0.9024E-04  0.1200E+02
 -13.638  0.7022E-04  0.1200E+02
 -13.628  0.5450E-04  0.1200E+02
 -13.618  0.4219E-04  0.1200E+02
 -13.608  0.3257E-04  0.1200E+02
 -13.598  0.2508E-04  0.1200E+02
 -13.588  0.1926E-04  0.1200E+02
 -13.578  0.1475E-04  0.1200E+02
 -13.568  0.1127E-04  0.1200E+02
 -13.558  0.8587E-05  0.1200E+02
 -13.548  0.6525E-05  0.1200E+02
 -13.538  0.4945E-05  0.1200E+02
 -13.528  0.3738E-05  0.1200E+02
 -13.518  0.2818E-05  0.1200E+02
 -13.508  0.2119E-05  0.1200E+02
 -13.498  0.1589E-05  0.1200E+02
 -13.488  0.1188E-05  0.1200E+02
 -13.478  0.8866E-06  0.1200E+02
 -13.468  0.6596E-06  0.1200E+02
 -13.458  0.4894E-06  0.1200E+02
 -13.448  0.3622E-06  0.1200E+02
 -13.438  0.2673E-06  0.1200E+02
 -13.428  0.1968E-06  0.1200E+02
 -13.418  0.1445E-06  0.1200E+02
 -13.408  0.1058E-06  0.1200E+02
 -13.398  0.7727E-07  0.1200E+02
 -13.388  0.5628E-07  0.1200E+02
 -13.378  0.4089E-07  0.1200E+02
 -13.368  0.2963E-07  0.1200E+02
 -13.358  0.2141E-07  0.1200E+02
 -13.348  0.1543E-07  0.1200E+02
 -13.338  0.1109E-07  0.1200E+02
 -13.328  0.7951E-08  0.1200E+02
 -13.318  0.5685E-08  0.1200E+02
 -13.308  0.4054E-08  0.1200E+02
 -13.298  0.2883E-08  0.1200E+02
 -13.288  0.2045E-08  0.1200E+02
 -13.278  0.1447E-08  0.1200E+02
 -13.268  0.1021E-08  0.1200E+02
 -13.258  0.7185E-09  0.1200E+02
 -13.248  0.5043E-09  0.1200E+02
 -13.238  0.3530E-09  0.1200E+02
 -13.228  0.2464E-09  0.1200E+02
 -13.218  0.1716E-09  0.1200E+02
 -13.208  0.1192E-09  0.1200E+02
 -13.198  0.8253E-10  0.1200E+02
 -13.188  0.5701E-10  0.1200E+02
 -13.178  0.3928E-10  0.1200E+02
 -13.168  0.2699E-10  0.1200E+02
 -13.158  0.1850E-10  0.1200E+02
 -13.148  0.1264E-10  0.1200E+02
 -13.138  0.8617E-11  0.1200E+02
 -13.128  0.5859E-11  0.1200E+02
 -13.118  0.3973E-11  0.1200E+02
 -13.108  0.2687E-11  0.1200E+02
 -13.098  0.1812E-11  0.1200E+02
 -13.088  0.1219E-11  0.1200E+02
 -13.078  0.8178E-12  0.1200E+02
 -13.068  0.5472E-12  0.1200E+02
 -13.058  0.3652E-12  0.1200E+02
 -13.048  0.2431E-12  0.1200E+02
 -13.038  0.1613E-12  0.1200E+02
 -13.028  0.1068E-12  0.1200E+02
 -13.018  0.7053E-13  0.1200E+02
 -13.008  0.4645E-13  0.1200E+02
 -12.998  0.3051E-13  0.1200E+02
 -12.988  0.1998E-13  0.1200E+02
 -12.978  0.1306E-13  0.1200E+02
 -12.968  0.8507E-14  0.1200E+02
 -12.958  0.5529E-14  0.1200E+02
 -12.948  0.3583E-14  0.1200E+02
 -12.938  0.2316E-14  0.1200E+02
 -12.928  0.1493E-14  0.1200E+02
 -12.918  0.9602E-15  0.1200E+02
 -12.908  0.6157E-15  0.1200E+02
 -12.898  0.3938E-15  0.1200E+02
 -12.888  0.2512E-15  0.1200E+02
 -12.878  0.1598E-15  0.1200E+02
 -12.868  0.1014E-15  0.1200E+02
 -12.858  0.6417E-16  0.1200E+02
 -12.848  0.4050E-16  0.1200E+02
 -12.838  0.2549E-16  0.1200E+02
 -12.828  0.1600E-16  0.1200E+02
 -12.818  0.1002E-16  0.1200E+02
 -12.808  0.6258E-17  0.1200E+02
 -12.798  0.3897E-17  0.1200E+02
 -12.788  0.2421E-17  0.1200E+02
 -12.778  0.1500E-17  0.1200E+02
 -12.768  0.9266E-18  0.1200E+02
 -12.758  0.5710E-18  0.1200E+02
 -12.748  0.3509E-18  0.1200E+02
 -12.738  0.2151E-18  0.1200E+02
 -12.728  0.1315E-18  0.1200E+02
 -12.718  0.8017E-19  0.1200E+02
 -12.708  0.4875E-19  0.1200E+02
 -12.698  0.2956E-19  0.1200E+02
 -12.688  0.1788E-19  0.1200E+02
 -12.678  0.1079E-19  0.1200E+02
 -12.668  0.6490E-20  0.1200E+02
 -12.658  0.3894E-20  0.1200E+02
 -12.648  0.2330E-20  0.1200E+02
 -12.638  0.1391E-20  0.1200E+02
 -12.628  0.8279E-21  0.1200E+02
 -12.618  0.4915E-21  0.1200E+02
 -12.608  0.2910E-21  0.1200E+02
 -12.598  0.1719E-21  0.1200E+02
 -12.588  0.1012E-21  0.1200E+02
 -12.578  0.5946E-22  0.1200E+02
 -12.568  0.3483E-22  0.1200E+02
 -12.558  0.2035E-22  0.1200E+02
 -12.548  0.1186E-22  0.1200E+02
 -12.538  0.6893E-23  0.1200E+02
 -12.528  0.3995E-23  0.1200E+02
 -12.518  0.2310E-23  0.1200E+02
 -12.508  0.1332E-23  0.1200E+02
 -12.498  0.7657E-24  0.1200E+02
 -12.488  0.4391E-24  0.1200E+02
 -12.478  0.2512E-24  0.1200E+02
 -12.468  0.1433E-24  0.1200E+02
 -12.458  0.8152E-25  0.1200E+02
 -12.448  0.4625E-25  0.1200E+02
 -12.438  0.2618E-25  0.1200E+02
 -12.428  0.1477E-25  0.1200E+02
 -12.418  0.8316E-26  0.1200E+02
 -12.408  0.4669E-26  0.1200E+02
 -12.398  0.2614E-26  0.1200E+02
 -12.388  0.1460E-26  0.1200E+02
 -12.378  0.8130E-27  0.1200E+02
 -12.368  0.4516E-27  0.1200E+02
 -12.358  0.2502E-27  0.1200E+02
 -12.348  0.1382E-27  0.1200E+02
 -12.338  0.7616E-28  0.1200E+02
 -12.328  0.4186E-28  0.1200E+02
 -12.318  0.2294E-28  0.1200E+02
 -12.308  0.1254E-28  0.1200E+02
 -12.298  0.6837E-29  0.1200E+02
 -12.288  0.3718E-29  0.1200E+02
 -12.278  0.2016E-29  0.1200E+02
 -12.268  0.1090E-29  0.1200E+02
 -12.258  0.5882E-30  0.1200E+02
 -12.248  0.3164E-30  0.1200E+02
 -12.238  0.1698E-30  0.1200E+02
 -12.228  0.9085E-31  0.1200E+02
 -12.218  0.4849E-31  0.1200E+02
 -12.208  0.2581E-31  0.1200E+02
 -12.198  0.1370E-31  0.1200E+02
 -12.188  0.7254E-32  0.1200E+02
 -12.178  0.3830E-32  0.1200E+02
 -12.168  0.2017E-32  0.1200E+02
 -12.158  0.1059E-32  0.1200E+02
 -12.148  0.5550E-33  0.1200E+02
 -12.138  0.2899E-33  0.1200E+02
 -12.128  0.1511E-33  0.1200E+02
 -12.118  0.7851E-34  0.1200E+02
 -12.108  0.4069E-34  0.1200E+02
 -12.098  0.2103E-34  0.1200E+02
 -12.088  0.1084E-34  0.1200E+02
 -12.078  0.5574E-35  0.1200E+02
 -12.068  0.2858E-35  0.1200E+02
 -12.058  0.1462E-35  0.1200E+02
 -12.048  0.7456E-36  0.1200E+02
 -12.038  0.3793E-36  0.1200E+02
 -12.028  0.1924E-36  0.1200E+02
 -12.018  0.9736E-37  0.1200E+02
 -12.008  0.4913E-37  0.1200E+02
 -11.998  0.2473E-37  0.1200E+02
 -11.988  0.1241E-37  0.1200E+02
 -11.978  0.6214E-38  0.1200E+02
 -11.968  0.3103E-38  0.1200E+02
 -11.958  0.1545E-38  0.1200E+02
 -11.948  0.7672E-39  0.1200E+02
 -11.938  0.3800E-39  0.1200E+02
 -11.928  0.1877E-39  0.1200E+02
 -11.918  0.9249E-40  0.1200E+02
 -11.908  0.4544E-40  0.1200E+02
 -11.898  0.2227E-40  0.1200E+02
 -11.888  0.1088E-40  0.1200E+02
 -11.878  0.5305E-41  0.1200E+02
 -11.868  0.2579E-41  0.1200E+02
 -11.858  0.1250E-41  0.1200E+02
 -11.848  0.6047E-42  0.1200E+02
 -11.838  0.2916E-42  0.1200E+02
 -11.828  0.1403E-42  0.1200E+02
 -11.818  0.6728E-43  0.1200E+02
 -11.808  0.3219E-43  0.1200E+02
 -11.798  0.1536E-43  0.1200E+02
 -11.788  0.7309E-44  0.1200E+02
 -11.778  0.3469E-44  0.1200E+02
 -11.768  0.1642E-44  0.1200E+02
 -11.758  0.7751E-45  0.1200E+02
 -11.748  0.3649E-45  0.1200E+02
 -11.738  0.1714E-45  0.1200E+02
 -11.728  0.8025E-46  0.1200E+02
 -11.718  0.3748E-46  0.1200E+02
 -11.708  0.1746E-46  0.1200E+02
 -11.698  0.8111E-47  0.1200E+02
 -11.688  0.3758E-47  0.1200E+02
 -11.678  0.1737E-47  0.1200E+02
 -11.668  0.8004E-48  0.1200E+02
 -11.658  0.3679E-48  0.1200E+02
 -11.648  0.1687E-48  0.1200E+02
 -11.638  0.7711E-49  0.1200E+02
 -11.628  0.3516E-49  0.1200E+02
 -11.618  0.1599E-49  0.1200E+02
 -11.608  0.7252E-50  0.1200E+02
 -11.598  0.3280E-50  0.1200E+02
 -11.588  0.1480E-50  0.1200E+02
 -11.578  0.6658E-51  0.1200E+02
 -11.568  0.2988E-51  0.1200E+02
 -11.558  0.1337E-51  0.1200E+02
 -11.548  0.5968E-52  0.1200E+02
 -11.538  0.2656E-52  0.1200E+02
 -11.528  0.1179E-52  0.1200E+02
 -11.518  0.5222E-53  0.1200E+02
 -11.508  0.2306E-53  0.1200E+02
 -11.498  0.1016E-53  0.1200E+02
 -11.488  0.4461E-54  0.1200E+02
 -11.478  0.1954E-54  0.1200E+02
 -11.468  0.8537E-55  0.1200E+02
 -11.458  0.3720E-55  0.1200E+02
 -11.448  0.1617E-55  0.1200E+02
 -11.438  0.7006E-56  0.1200E+02
 -11.428  0.3029E-56  0.1200E+02
 -11.418  0.1306E-56  0.1200E+02
 -11.408  0.5613E-57  0.1200E+02
 -11.398  0.2407E-57  0.1200E+02
 -11.388  0.1029E-57  0.1200E+02
 -11.378  0.4390E-58  0.1200E+02
 -11.368  0.1868E-58  0.1200E+02
 -11.358  0.7923E-59  0.1200E+02
 -11.348  0.3352E-59  0.1200E+02
 -11.338  0.1415E-59  0.1200E+02
 -11.328  0.5953E-60  0.1200E+02
 -11.318  0.2499E-60  0.1200E+02
 -11.308  0.1046E-60  0.1200E+02
 -11.298  0.4367E-61  0.1200E+02
 -11.288  0.1818E-61  0.1200E+02
 -11.278  0.7551E-62  0.1200E+02
 -11.268  0.3127E-62  0.1200E+02
 -11.258  0.1292E-62  0.1200E+02
 -11.248  0.5321E-63  0.1200E+02
 -11.238  0.2186E-63  0.1200E+02
 -11.228  0.8958E-64  0.1200E+02
 -11.218  0.3661E-64  0.1200E+02
 -11.208  0.1492E-64  0.1200E+02
 -11.198  0.6064E-65  0.1200E+02
 -11.188  0.2458E-65  0.1200E+02
 -11.178  0.9940E-66  0.1200E+02
 -11.168  0.4008E-66  0.1200E+02
 -11.158  0.1612E-66  0.1200E+02
 -11.148  0.6464E-67  0.1200E+02
 -11.138  0.2586E-67  0.1200E+02
 -11.128  0.1032E-67  0.1200E+02
 -11.118  0.4104E-68  0.1200E+02
 -11.108  0.1629E-68  0.1200E+02
 -11.098  0.6445E-69  0.1200E+02
 -11.088  0.2544E-69  0.1200E+02
 -11.078  0.1001E-69  0.1200E+02
 -11.068  0.3931E-70  0.1200E+02
 -11.058  0.1539E-70  0.1200E+02
 -11.048  0.6010E-71  0.1200E+02
 -11.038  0.2341E-71  0.1200E+02
 -11.028  0.9091E-72  0.1200E+02
 -11.018  0.3521E-72  0.1200E+02
 -11.008  0.1360E-72  0.1200E+02
 -10.998  0.5241E-73  0.1200E+02
 -10.988  0.2014E-73  0.1200E+02
 -10.978  0.7719E-74  0.1200E+02
 -10.968  0.2950E-74  0.1200E+02
 -10.958  0.1125E-74  0.1200E+02
 -10.948  0.4275E-75  0.1200E+02
 -10.938  0.1621E-75  0.1200E+02
 -10.928  0.6130E-76  0.1200E+02
 -10.918  0.2312E-76  0.1200E+02
 -10.908  0.8695E-77  0.1200E+02
 -10.898  0.3262E-77  0.1200E+02
 -10.888  0.1220E-77  0.1200E+02
 -10.878  0.4553E-78  0.1200E+02
 -10.868  0.1694E-78  0.1200E+02
 -10.858  0.6287E-79  0.1200E+02
 -10.848  0.2327E-79  0.1200E+02
 -10.838  0.8590E-80  0.1200E+02
 -10.828  0.3163E-80  0.1200E+02
 -10.818  0.1161E-80  0.1200E+02
 -10.808  0.4253E-81  0.1200E+02
 -10.798  0.1554E-81  0.1200E+02
 -10.788  0.5668E-82  0.1200E+02
 -10.778  0.2067E-82  0.1200E+02
 -10.768  0.7568E-83  0.1200E+02
 -10.758  0.2815E-83  0.1200E+02
 -10.748  0.1097E-83  0.1200E+02
 -10.738  0.4771E-84  0.1200E+02
 -10.728  0.2549E-84  0.1200E+02
 -10.718  0.1769E-84  0.1200E+02
 -10.708  0.1502E-84  0.1200E+02
 -10.698  0.1412E-84  0.1200E+02
 -10.688  0.1388E-84  0.1200E+02
 -10.678  0.1379E-84  0.1200E+02
 -10.668  0.1377E-84  0.1200E+02
 -10.658  0.1377E-84  0.1200E+02
 -10.648  0.1377E-84  0.1200E+02
 -10.638  0.1377E-84  0.1200E+02
 -10.628  0.1377E-84  0.1200E+02
 -10.618  0.1379E-84  0.1200E+02
 -10.608  0.1384E-84  0.1200E+02
 -10.598  0.1399E-84  0.1200E+02
 -10.588  0.1440E-84  0.1200E+02
 -10.578  0.1553E-84  0.1200E+02
 -10.568  0.1868E-84  0.1200E+02
 -10.558  0.2743E-84  0.1200E+02
 -10.548  0.5162E-84  0.1200E+02
 -10.538  0.1184E-83  0.1200E+02
 -10.528  0.3019E-83  0.1200E+02
 -10.518  0.8055E-83  0.1200E+02
 -10.508  0.2183E-82  0.1200E+02
 -10.498  0.5943E-82  0.1200E+02
 -10.488  0.1617E-81  0.1200E+02
 -10.478  0.4394E-81  0.1200E+02
 -10.468  0.1191E-80  0.1200E+02
 -10.458  0.3219E-80  0.1200E+02
 -10.448  0.8679E-80  0.1200E+02
 -10.438  0.2334E-79  0.1200E+02
 -10.428  0.6259E-79  0.1200E+02
 -10.418  0.1674E-78  0.1200E+02
 -10.408  0.4464E-78  0.1200E+02
 -10.398  0.1188E-77  0.1200E+02
 -10.388  0.3150E-77  0.1200E+02
 -10.378  0.8335E-77  0.1200E+02
 -10.368  0.2199E-76  0.1200E+02
 -10.358  0.5787E-76  0.1200E+02
 -10.348  0.1519E-75  0.1200E+02
 -10.338  0.3975E-75  0.1200E+02
 -10.328  0.1038E-74  0.1200E+02
 -10.318  0.2701E-74  0.1200E+02
 -10.308  0.7012E-74  0.1200E+02
 -10.298  0.1816E-73  0.1200E+02
 -10.288  0.4688E-73  0.1200E+02
 -10.278  0.1207E-72  0.1200E+02
 -10.268  0.3101E-72  0.1200E+02
 -10.258  0.7941E-72  0.1200E+02
 -10.248  0.2029E-71  0.1200E+02
 -10.238  0.5168E-71  0.1200E+02
 -10.228  0.1313E-70  0.1200E+02
 -10.218  0.3327E-70  0.1200E+02
 -10.208  0.8407E-70  0.1200E+02
 -10.198  0.2119E-69  0.1200E+02
 -10.188  0.5325E-69  0.1200E+02
 -10.178  0.1335E-68  0.1200E+02
 -10.168  0.3337E-68  0.1200E+02
 -10.158  0.8318E-68  0.1200E+02
 -10.148  0.2068E-67  0.1200E+02
 -10.138  0.5128E-67  0.1200E+02
 -10.128  0.1268E-66  0.1200E+02
 -10.118  0.3128E-66  0.1200E+02
 -10.108  0.7693E-66  0.1200E+02
 -10.098  0.1887E-65  0.1200E+02
 -10.088  0.4617E-65  0.1200E+02
 -10.078  0.1126E-64  0.1200E+02
 -10.068  0.2741E-64  0.1200E+02
 -10.058  0.6650E-64  0.1200E+02
 -10.048  0.1609E-63  0.1200E+02
 -10.038  0.3885E-63  0.1200E+02
 -10.028  0.9350E-63  0.1200E+02
 -10.018  0.2245E-62  0.1200E+02
 -10.008  0.5374E-62  0.1200E+02
  -9.998  0.1283E-61  0.1200E+02
  -9.988  0.3055E-61  0.1200E+02
  -9.978  0.7255E-61  0.1200E+02
  -9.968  0.1718E-60  0.1200E+02
  -9.958  0.4059E-60  0.1200E+02
  -9.948  0.9560E-60  0.1200E+02
  -9.938  0.2246E-59  0.1200E+02
  -9.928  0.5262E-59  0.1200E+02
  -9.918  0.1230E-58  0.1200E+02
  -9.908  0.2865E-58  0.1200E+02
  -9.898  0.6659E-58  0.1200E+02
  -9.888  0.1543E-57  0.1200E+02
  -9.878  0.3567E-57  0.1200E+02
  -9.868  0.8223E-57  0.1200E+02
  -9.858  0.1891E-56  0.1200E+02
  -9.848  0.4335E-56  0.1200E+02
  -9.838  0.9912E-56  0.1200E+02
  -9.828  0.2260E-55  0.1200E+02
  -9.818  0.5141E-55  0.1200E+02
  -9.808  0.1166E-54  0.1200E+02
  -9.798  0.2638E-54  0.1200E+02
  -9.788  0.5950E-54  0.1200E+02
  -9.778  0.1339E-53  0.1200E+02
  -9.768  0.3004E-53  0.1200E+02
  -9.758  0.6722E-53  0.1200E+02
  -9.748  0.1500E-52  0.1200E+02
  -9.738  0.3339E-52  0.1200E+02
  -9.728  0.7411E-52  0.1200E+02
  -9.718  0.1641E-51  0.1200E+02
  -9.708  0.3622E-51  0.1200E+02
  -9.698  0.7975E-51  0.1200E+02
  -9.688  0.1751E-50  0.1200E+02
  -9.678  0.3835E-50  0.1200E+02
  -9.668  0.8376E-50  0.1200E+02
  -9.658  0.1824E-49  0.1200E+02
  -9.648  0.3963E-49  0.1200E+02
  -9.638  0.8585E-49  0.1200E+02
  -9.628  0.1855E-48  0.1200E+02
  -9.618  0.3997E-48  0.1200E+02
  -9.608  0.8589E-48  0.1200E+02
  -9.598  0.1841E-47  0.1200E+02
  -9.588  0.3934E-47  0.1200E+02
  -9.578  0.8386E-47  0.1200E+02
  -9.568  0.1783E-46  0.1200E+02
  -9.558  0.3779E-46  0.1200E+02
  -9.548  0.7991E-46  0.1200E+02
  -9.538  0.1685E-45  0.1200E+02
  -9.528  0.3543E-45  0.1200E+02
  -9.518  0.7432E-45  0.1200E+02
  -9.508  0.1554E-44  0.1200E+02
  -9.498  0.3243E-44  0.1200E+02
  -9.488  0.6746E-44  0.1200E+02
  -9.478  0.1400E-43  0.1200E+02
  -9.468  0.2896E-43  0.1200E+02
  -9.458  0.5976E-43  0.1200E+02
  -9.448  0.1230E-42  0.1200E+02
  -9.438  0.2524E-42  0.1200E+02
  -9.428  0.5167E-42  0.1200E+02
  -9.418  0.1055E-41  0.1200E+02
  -9.408  0.2147E-41  0.1200E+02
  -9.398  0.4360E-41  0.1200E+02
  -9.388  0.8829E-41  0.1200E+02
  -9.378  0.1783E-40  0.1200E+02
  -9.368  0.3591E-40  0.1200E+02
  -9.358  0.7213E-40  0.1200E+02
  -9.348  0.1445E-39  0.1200E+02
  -9.338  0.2886E-39  0.1200E+02
  -9.328  0.5751E-39  0.1200E+02
  -9.318  0.1143E-38  0.1200E+02
  -9.308  0.2264E-38  0.1200E+02
  -9.298  0.4475E-38  0.1200E+02
  -9.288  0.8821E-38  0.1200E+02
  -9.278  0.1734E-37  0.1200E+02
  -9.268  0.3399E-37  0.1200E+02
  -9.258  0.6645E-37  0.1200E+02
  -9.248  0.1296E-36  0.1200E+02
  -9.238  0.2519E-36  0.1200E+02
  -9.228  0.4886E-36  0.1200E+02
  -9.218  0.9449E-36  0.1200E+02
  -9.208  0.1823E-35  0.1200E+02
  -9.198  0.3506E-35  0.1200E+02
  -9.188  0.6726E-35  0.1200E+02
  -9.178  0.1287E-34  0.1200E+02
  -9.168  0.2456E-34  0.1200E+02
  -9.158  0.4673E-34  0.1200E+02
  -9.148  0.8868E-34  0.1200E+02
  -9.138  0.1679E-33  0.1200E+02
  -9.128  0.3168E-33  0.1200E+02
  -9.118  0.5964E-33  0.1200E+02
  -9.108  0.1120E-32  0.1200E+02
  -9.098  0.2097E-32  0.1200E+02
  -9.088  0.3915E-32  0.1200E+02
  -9.078  0.7291E-32  0.1200E+02
  -9.068  0.1354E-31  0.1200E+02
  -9.058  0.2508E-31  0.1200E+02
  -9.048  0.4633E-31  0.1200E+02
  -9.038  0.8536E-31  0.1200E+02
  -9.028  0.1568E-30  0.1200E+02
  -9.018  0.2874E-30  0.1200E+02
  -9.008  0.5251E-30  0.1200E+02
  -8.998  0.9570E-30  0.1200E+02
  -8.988  0.1739E-29  0.1200E+02
  -8.978  0.3153E-29  0.1200E+02
  -8.968  0.5700E-29  0.1200E+02
  -8.958  0.1028E-28  0.1200E+02
  -8.948  0.1848E-28  0.1200E+02
  -8.938  0.3313E-28  0.1200E+02
  -8.928  0.5925E-28  0.1200E+02
  -8.918  0.1057E-27  0.1200E+02
  -8.908  0.1880E-27  0.1200E+02
  -8.898  0.3334E-27  0.1200E+02
  -8.888  0.5899E-27  0.1200E+02
  -8.878  0.1041E-26  0.1200E+02
  -8.868  0.1831E-26  0.1200E+02
  -8.858  0.3214E-26  0.1200E+02
  -8.848  0.5624E-26  0.1200E+02
  -8.838  0.9817E-26  0.1200E+02
  -8.828  0.1709E-25  0.1200E+02
  -8.818  0.2966E-25  0.1200E+02
  -8.808  0.5136E-25  0.1200E+02
  -8.798  0.8868E-25  0.1200E+02
  -8.788  0.1527E-24  0.1200E+02
  -8.778  0.2622E-24  0.1200E+02
  -8.768  0.4491E-24  0.1200E+02
  -8.758  0.7672E-24  0.1200E+02
  -8.748  0.1307E-23  0.1200E+02
  -8.738  0.2220E-23  0.1200E+02
  -8.728  0.3762E-23  0.1200E+02
  -8.718  0.6356E-23  0.1200E+02
  -8.708  0.1071E-22  0.1200E+02
  -8.698  0.1800E-22  0.1200E+02
  -8.688  0.3017E-22  0.1200E+02
  -8.678  0.5043E-22  0.1200E+02
  -8.668  0.8408E-22  0.1200E+02
  -8.658  0.1398E-21  0.1200E+02
  -8.648  0.2318E-21  0.1200E+02
  -8.638  0.3833E-21  0.1200E+02
  -8.628  0.6320E-21  0.1200E+02
  -8.618  0.1040E-20  0.1200E+02
  -8.608  0.1705E-20  0.1200E+02
  -8.598  0.2789E-20  0.1200E+02
  -8.588  0.4550E-20  0.1200E+02
  -8.578  0.7404E-20  0.1200E+02
  -8.568  0.1201E-19  0.1200E+02
  -8.558  0.1944E-19  0.1200E+02
  -8.548  0.3138E-19  0.1200E+02
  -8.538  0.5050E-19  0.1200E+02
  -8.528  0.8106E-19  0.1200E+02
  -8.518  0.1298E-18  0.1200E+02
  -8.508  0.2072E-18  0.1200E+02
  -8.498  0.3299E-18  0.1200E+02
  -8.488  0.5238E-18  0.1200E+02
  -8.478  0.8296E-18  0.1200E+02
  -8.468  0.1310E-17  0.1200E+02
  -8.458  0.2064E-17  0.1200E+02
  -8.448  0.3242E-17  0.1200E+02
  -8.438  0.5079E-17  0.1200E+02
  -8.428  0.7936E-17  0.1200E+02
  -8.418  0.1237E-16  0.1200E+02
  -8.408  0.1922E-16  0.1200E+02
  -8.398  0.2978E-16  0.1200E+02
  -8.388  0.4603E-16  0.1200E+02
  -8.378  0.7096E-16  0.1200E+02
  -8.368  0.1091E-15  0.1200E+02
  -8.358  0.1672E-15  0.1200E+02
  -8.348  0.2557E-15  0.1200E+02
  -8.338  0.3899E-15  0.1200E+02
  -8.328  0.5930E-15  0.1200E+02
  -8.318  0.8994E-15  0.1200E+02
  -8.308  0.1360E-14  0.1200E+02
  -8.298  0.2052E-14  0.1200E+02
  -8.288  0.3087E-14  0.1200E+02
  -8.278  0.4632E-14  0.1200E+02
  -8.268  0.6931E-14  0.1200E+02
  -8.258  0.1034E-13  0.1200E+02
  -8.248  0.1539E-13  0.1200E+02
  -8.238  0.2285E-13  0.1200E+02
  -8.228  0.3382E-13  0.1200E+02
  -8.218  0.4993E-13  0.1200E+02
  -8.208  0.7351E-13  0.1200E+02
  -8.198  0.1079E-12  0.1200E+02
  -8.188  0.1581E-12  0.1200E+02
  -8.178  0.2308E-12  0.1200E+02
  -8.168  0.3362E-12  0.1200E+02
  -8.158  0.4883E-12  0.1200E+02
  -8.148  0.7074E-12  0.1200E+02
  -8.138  0.1022E-11  0.1200E+02
  -8.128  0.1473E-11  0.1200E+02
  -8.118  0.2116E-11  0.1200E+02
  -8.108  0.3032E-11  0.1200E+02
  -8.098  0.4334E-11  0.1200E+02
  -8.088  0.6177E-11  0.1200E+02
  -8.078  0.8780E-11  0.1200E+02
  -8.068  0.1245E-10  0.1200E+02
  -8.058  0.1760E-10  0.1200E+02
  -8.048  0.2481E-10  0.1200E+02
  -8.038  0.3489E-10  0.1200E+02
  -8.028  0.4894E-10  0.1200E+02
  -8.018  0.6844E-10  0.1200E+02
  -8.008  0.9547E-10  0.1200E+02
  -7.998  0.1328E-09  0.1200E+02
  -7.988  0.1842E-09  0.1200E+02
  -7.978  0.2549E-09  0.1200E+02
  -7.968  0.3518E-09  0.1200E+02
  -7.958  0.4841E-09  0.1200E+02
  -7.948  0.6644E-09  0.1200E+02
  -7.938  0.9094E-09  0.1200E+02
  -7.928  0.1241E-08  0.1200E+02
  -7.918  0.1690E-08  0.1200E+02
  -7.908  0.2294E-08  0.1200E+02
  -7.898  0.3107E-08  0.1200E+02
  -7.888  0.4195E-08  0.1200E+02
  -7.878  0.5650E-08  0.1200E+02
  -7.868  0.7588E-08  0.1200E+02
  -7.858  0.1016E-07  0.1200E+02
  -7.848  0.1358E-07  0.1200E+02
  -7.838  0.1809E-07  0.1200E+02
  -7.828  0.2404E-07  0.1200E+02
  -7.818  0.3185E-07  0.1200E+02
  -7.808  0.4209E-07  0.1200E+02
  -7.798  0.5547E-07  0.1200E+02
  -7.788  0.7291E-07  0.1200E+02
  -7.778  0.9558E-07  0.1200E+02
  -7.768  0.1250E-06  0.1200E+02
  -7.758  0.1629E-06  0.1200E+02
  -7.748  0.2118E-06  0.1200E+02
  -7.738  0.2747E-06  0.1200E+02
  -7.728  0.3553E-06  0.1200E+02
  -7.718  0.4582E-06  0.1200E+02
  -7.708  0.5894E-06  0.1200E+02
  -7.698  0.7562E-06  0.1200E+02
  -7.688  0.9674E-06  0.1200E+02
  -7.678  0.1234E-05  0.1200E+02
  -7.668  0.1571E-05  0.1200E+02
  -7.658  0.1993E-05  0.1200E+02
  -7.648  0.2523E-05  0.1200E+02
  -7.638  0.3185E-05  0.1200E+02
  -7.628  0.4009E-05  0.1200E+02
  -7.618  0.5033E-05  0.1200E+02
  -7.608  0.6302E-05  0.1200E+02
  -7.598  0.7870E-05  0.1200E+02
  -7.588  0.9801E-05  0.1200E+02
  -7.578  0.1217E-04  0.1200E+02
  -7.568  0.1508E-04  0.1200E+02
  -7.558  0.1863E-04  0.1200E+02
  -7.548  0.2295E-04  0.1200E+02
  -7.538  0.2819E-04  0.1200E+02
  -7.528  0.3455E-04  0.1200E+02
  -7.518  0.4222E-04  0.1200E+02
  -7.508  0.5146E-04  0.1200E+02
  -7.498  0.6255E-04  0.1200E+02
  -7.488  0.7583E-04  0.1200E+02
  -7.478  0.9169E-04  0.1200E+02
  -7.468  0.1106E-03  0.1200E+02
  -7.458  0.1329E-03  0.1200E+02
  -7.448  0.1594E-03  0.1200E+02
  -7.438  0.1907E-03  0.1200E+02
  -7.428  0.2275E-03  0.1200E+02
  -7.418  0.2707E-03  0.1200E+02
  -7.408  0.3212E-03  0.1200E+02
  -7.398  0.3801E-03  0.1200E+02
  -7.388  0.4486E-03  0.1200E+02
  -7.378  0.5280E-03  0.1200E+02
  -7.368  0.6198E-03  0.1200E+02
  -7.358  0.7257E-03  0.1200E+02
  -7.348  0.8474E-03  0.1200E+02
  -7.338  0.9869E-03  0.1200E+02
  -7.328  0.1146E-02  0.1200E+02
  -7.318  0.1328E-02  0.1200E+02
  -7.308  0.1534E-02  0.1200E+02
  -7.298  0.1768E-02  0.1200E+02
  -7.288  0.2032E-02  0.1200E+02
  -7.278  0.2330E-02  0.1200E+02
  -7.268  0.2664E-02  0.1200E+02
  -7.258  0.3038E-02  0.1200E+02
  -7.248  0.3455E-02  0.1200E+02
  -7.238  0.3920E-02  0.1200E+02
  -7.228  0.4435E-02  0.1200E+02
  -7.218  0.5006E-02  0.1200E+02
  -7.208  0.5635E-02  0.1200E+02
  -7.198  0.6328E-02  0.1200E+02
  -7.188  0.7087E-02  0.1200E+02
  -7.178  0.7918E-02  0.1200E+02
  -7.168  0.8825E-02  0.1200E+02
  -7.158  0.9810E-02  0.1200E+02
  -7.148  0.1088E-01  0.1200E+02
  -7.138  0.1204E-01  0.1200E+02
  -7.128  0.1328E-01  0.1200E+02
  -7.118  0.1462E-01  0.1200E+02
  -7.108  0.1606E-01  0.1200E+02
  -7.098  0.1760E-01  0.1200E+02
  -7.088  0.1925E-01  0.1200E+02
  -7.078  0.2099E-01  0.1200E+02
  -7.068  0.2285E-01  0.1200E+02
  -7.058  0.2482E-01  0.1200E+02
  -7.048  0.2690E-01  0.1200E+02
  -7.038  0.2909E-01  0.1200E+02
  -7.028  0.3140E-01  0.1200E+02
  -7.018  0.3382E-01  0.1200E+02
  -7.008  0.3636E-01  0.1200E+02
  -6.998  0.3902E-01  0.1200E+02
  -6.988  0.4180E-01  0.1200E+02
  -6.978  0.4471E-01  0.1201E+02
  -6.968  0.4773E-01  0.1201E+02
  -6.958  0.5089E-01  0.1201E+02
  -6.948  0.5417E-01  0.1201E+02
  -6.938  0.5758E-01  0.1201E+02
  -6.928  0.6114E-01  0.1201E+02
  -6.918  0.6484E-01  0.1201E+02
  -6.908  0.6868E-01  0.1201E+02
  -6.898  0.7269E-01  0.1201E+02
  -6.888  0.7686E-01  0.1201E+02
  -6.878  0.8121E-01  0.1201E+02
  -6.868  0.8575E-01  0.1201E+02
  -6.858  0.9049E-01  0.1201E+02
  -6.848  0.9546E-01  0.1201E+02
  -6.838  0.1007E+00  0.1202E+02
  -6.828  0.1061E+00  0.1202E+02
  -6.818  0.1119E+00  0.1202E+02
  -6.808  0.1179E+00  0.1202E+02
  -6.798  0.1242E+00  0.1202E+02
  -6.788  0.1309E+00  0.1202E+02
  -6.778  0.1380E+00  0.1202E+02
  -6.768  0.1455E+00  0.1202E+02
  -6.758  0.1534E+00  0.1203E+02
  -6.748  0.1618E+00  0.1203E+02
  -6.738  0.1707E+00  0.1203E+02
  -6.728  0.1801E+00  0.1203E+02
  -6.718  0.1900E+00  0.1203E+02
  -6.708  0.2005E+00  0.1203E+02
  -6.698  0.2117E+00  0.1204E+02
  -6.688  0.2234E+00  0.1204E+02
  -6.678  0.2358E+00  0.1204E+02
  -6.668  0.2489E+00  0.1204E+02
  -6.658  0.2628E+00  0.1205E+02
  -6.648  0.2773E+00  0.1205E+02
  -6.638  0.2926E+00  0.1205E+02
  -6.628  0.3086E+00  0.1206E+02
  -6.618  0.3254E+00  0.1206E+02
  -6.608  0.3429E+00  0.1206E+02
  -6.598  0.3612E+00  0.1207E+02
  -6.588  0.3803E+00  0.1207E+02
  -6.578  0.4001E+00  0.1207E+02
  -6.568  0.4207E+00  0.1208E+02
  -6.558  0.4420E+00  0.1208E+02
  -6.548  0.4639E+00  0.1209E+02
  -6.538  0.4866E+00  0.1209E+02
  -6.528  0.5099E+00  0.1210E+02
  -6.518  0.5338E+00  0.1210E+02
  -6.508  0.5583E+00  0.1211E+02
  -6.498  0.5834E+00  0.1211E+02
  -6.488  0.6089E+00  0.1212E+02
  -6.478  0.6348E+00  0.1213E+02
  -6.468  0.6611E+00  0.1213E+02
  -6.458  0.6878E+00  0.1214E+02
  -6.448  0.7147E+00  0.1215E+02
  -6.438  0.7419E+00  0.1215E+02
  -6.428  0.7692E+00  0.1216E+02
  -6.418  0.7965E+00  0.1217E+02
  -6.408  0.8240E+00  0.1218E+02
  -6.398  0.8514E+00  0.1219E+02
  -6.388  0.8787E+00  0.1220E+02
  -6.378  0.9059E+00  0.1220E+02
  -6.368  0.9329E+00  0.1221E+02
  -6.358  0.9597E+00  0.1222E+02
  -6.348  0.9862E+00  0.1223E+02
  -6.338  0.1012E+01  0.1224E+02
  -6.328  0.1038E+01  0.1225E+02
  -6.318  0.1064E+01  0.1226E+02
  -6.308  0.1089E+01  0.1228E+02
  -6.298  0.1114E+01  0.1229E+02
  -6.288  0.1138E+01  0.1230E+02
  -6.278  0.1162E+01  0.1231E+02
  -6.268  0.1186E+01  0.1232E+02
  -6.258  0.1210E+01  0.1233E+02
  -6.248  0.1233E+01  0.1235E+02
  -6.238  0.1256E+01  0.1236E+02
  -6.228  0.1279E+01  0.1237E+02
  -6.218  0.1302E+01  0.1238E+02
  -6.208  0.1325E+01  0.1240E+02
  -6.198  0.1348E+01  0.1241E+02
  -6.188  0.1372E+01  0.1242E+02
  -6.178  0.1396E+01  0.1244E+02
  -6.168  0.1420E+01  0.1245E+02
  -6.158  0.1446E+01  0.1247E+02
  -6.148  0.1472E+01  0.1248E+02
  -6.138  0.1499E+01  0.1250E+02
  -6.128  0.1527E+01  0.1251E+02
  -6.118  0.1556E+01  0.1253E+02
  -6.108  0.1587E+01  0.1254E+02
  -6.098  0.1619E+01  0.1256E+02
  -6.088  0.1652E+01  0.1258E+02
  -6.078  0.1687E+01  0.1259E+02
  -6.068  0.1724E+01  0.1261E+02
  -6.058  0.1763E+01  0.1263E+02
  -6.048  0.1803E+01  0.1265E+02
  -6.038  0.1845E+01  0.1266E+02
  -6.028  0.1888E+01  0.1268E+02
  -6.018  0.1933E+01  0.1270E+02
  -6.008  0.1980E+01  0.1272E+02
  -5.998  0.2028E+01  0.1274E+02
  -5.988  0.2077E+01  0.1276E+02
  -5.978  0.2128E+01  0.1278E+02
  -5.968  0.2179E+01  0.1281E+02
  -5.958  0.2230E+01  0.1283E+02
  -5.948  0.2282E+01  0.1285E+02
  -5.938  0.2334E+01  0.1287E+02
  -5.928  0.2385E+01  0.1290E+02
  -5.918  0.2436E+01  0.1292E+02
  -5.908  0.2486E+01  0.1295E+02
  -5.898  0.2534E+01  0.1297E+02
  -5.888  0.2580E+01  0.1300E+02
  -5.878  0.2624E+01  0.1303E+02
  -5.868  0.2665E+01  0.1305E+02
  -5.858  0.2704E+01  0.1308E+02
  -5.848  0.2739E+01  0.1311E+02
  -5.838  0.2770E+01  0.1313E+02
  -5.828  0.2797E+01  0.1316E+02
  -5.818  0.2820E+01  0.1319E+02
  -5.808  0.2839E+01  0.1322E+02
  -5.798  0.2852E+01  0.1325E+02
  -5.788  0.2860E+01  0.1328E+02
  -5.778  0.2863E+01  0.1330E+02
  -5.768  0.2861E+01  0.1333E+02
  -5.758  0.2853E+01  0.1336E+02
  -5.748  0.2840E+01  0.1339E+02
  -5.738  0.2822E+01  0.1342E+02
  -5.728  0.2798E+01  0.1345E+02
  -5.718  0.2768E+01  0.1347E+02
  -5.708  0.2734E+01  0.1350E+02
  -5.698  0.2695E+01  0.1353E+02
  -5.688  0.2651E+01  0.1355E+02
  -5.678  0.2603E+01  0.1358E+02
  -5.668  0.2550E+01  0.1361E+02
  -5.658  0.2494E+01  0.1363E+02
  -5.648  0.2435E+01  0.1366E+02
  -5.638  0.2372E+01  0.1368E+02
  -5.628  0.2307E+01  0.1370E+02
  -5.618  0.2240E+01  0.1372E+02
  -5.608  0.2171E+01  0.1375E+02
  -5.598  0.2101E+01  0.1377E+02
  -5.588  0.2029E+01  0.1379E+02
  -5.578  0.1958E+01  0.1381E+02
  -5.568  0.1886E+01  0.1383E+02
  -5.558  0.1814E+01  0.1384E+02
  -5.548  0.1742E+01  0.1386E+02
  -5.538  0.1672E+01  0.1388E+02
  -5.528  0.1603E+01  0.1389E+02
  -5.518  0.1535E+01  0.1391E+02
  -5.508  0.1469E+01  0.1392E+02
  -5.498  0.1405E+01  0.1394E+02
  -5.488  0.1343E+01  0.1395E+02
  -5.478  0.1283E+01  0.1396E+02
  -5.468  0.1225E+01  0.1398E+02
  -5.458  0.1170E+01  0.1399E+02
  -5.448  0.1118E+01  0.1400E+02
  -5.438  0.1068E+01  0.1401E+02
  -5.428  0.1021E+01  0.1402E+02
  -5.418  0.9760E+00  0.1403E+02
  -5.408  0.9338E+00  0.1404E+02
  -5.398  0.8941E+00  0.1405E+02
  -5.388  0.8569E+00  0.1406E+02
  -5.378  0.8220E+00  0.1407E+02
  -5.368  0.7895E+00  0.1407E+02
  -5.358  0.7592E+00  0.1408E+02
  -5.348  0.7310E+00  0.1409E+02
  -5.338  0.7049E+00  0.1410E+02
  -5.328  0.6807E+00  0.1410E+02
  -5.318  0.6585E+00  0.1411E+02
  -5.308  0.6382E+00  0.1412E+02
  -5.298  0.6196E+00  0.1412E+02
  -5.288  0.6029E+00  0.1413E+02
  -5.278  0.5879E+00  0.1413E+02
  -5.268  0.5746E+00  0.1414E+02
  -5.258  0.5631E+00  0.1414E+02
  -5.248  0.5534E+00  0.1415E+02
  -5.238  0.5455E+00  0.1416E+02
  -5.228  0.5396E+00  0.1416E+02
  -5.218  0.5355E+00  0.1417E+02
  -5.208  0.5336E+00  0.1417E+02
  -5.198  0.5338E+00  0.1418E+02
  -5.188  0.5363E+00  0.1418E+02
  -5.178  0.5413E+00  0.1419E+02
  -5.168  0.5488E+00  0.1419E+02
  -5.158  0.5590E+00  0.1420E+02
  -5.148  0.5721E+00  0.1420E+02
  -5.138  0.5883E+00  0.1421E+02
  -5.128  0.6076E+00  0.1422E+02
  -5.118  0.6302E+00  0.1422E+02
  -5.108  0.6564E+00  0.1423E+02
  -5.098  0.6861E+00  0.1424E+02
  -5.088  0.7196E+00  0.1424E+02
  -5.078  0.7570E+00  0.1425E+02
  -5.068  0.7983E+00  0.1426E+02
  -5.058  0.8436E+00  0.1427E+02
  -5.048  0.8930E+00  0.1428E+02
  -5.038  0.9464E+00  0.1429E+02
  -5.028  0.1004E+01  0.1430E+02
  -5.018  0.1065E+01  0.1431E+02
  -5.008  0.1131E+01  0.1432E+02
  -4.998  0.1200E+01  0.1433E+02
  -4.988  0.1273E+01  0.1434E+02
  -4.978  0.1349E+01  0.1436E+02
  -4.968  0.1429E+01  0.1437E+02
  -4.958  0.1511E+01  0.1439E+02
  -4.948  0.1596E+01  0.1440E+02
  -4.938  0.1683E+01  0.1442E+02
  -4.928  0.1773E+01  0.1444E+02
  -4.918  0.1863E+01  0.1445E+02
  -4.908  0.1955E+01  0.1447E+02
  -4.898  0.2046E+01  0.1449E+02
  -4.888  0.2138E+01  0.1452E+02
  -4.878  0.2230E+01  0.1454E+02
  -4.868  0.2320E+01  0.1456E+02
  -4.858  0.2408E+01  0.1459E+02
  -4.848  0.2494E+01  0.1461E+02
  -4.838  0.2577E+01  0.1464E+02
  -4.828  0.2657E+01  0.1466E+02
  -4.818  0.2732E+01  0.1469E+02
  -4.808  0.2803E+01  0.1472E+02
  -4.798  0.2869E+01  0.1475E+02
  -4.788  0.2930E+01  0.1478E+02
  -4.778  0.2984E+01  0.1481E+02
  -4.768  0.3032E+01  0.1484E+02
  -4.758  0.3072E+01  0.1487E+02
  -4.748  0.3106E+01  0.1490E+02
  -4.738  0.3132E+01  0.1493E+02
  -4.728  0.3151E+01  0.1496E+02
  -4.718  0.3162E+01  0.1499E+02
  -4.708  0.3165E+01  0.1502E+02
  -4.698  0.3160E+01  0.1506E+02
  -4.688  0.3147E+01  0.1509E+02
  -4.678  0.3126E+01  0.1512E+02
  -4.668  0.3098E+01  0.1515E+02
  -4.658  0.3063E+01  0.1518E+02
  -4.648  0.3020E+01  0.1521E+02
  -4.638  0.2971E+01  0.1524E+02
  -4.628  0.2915E+01  0.1527E+02
  -4.618  0.2853E+01  0.1530E+02
  -4.608  0.2786E+01  0.1533E+02
  -4.598  0.2714E+01  0.1535E+02
  -4.588  0.2638E+01  0.1538E+02
  -4.578  0.2558E+01  0.1540E+02
  -4.568  0.2475E+01  0.1543E+02
  -4.558  0.2389E+01  0.1545E+02
  -4.548  0.2301E+01  0.1548E+02
  -4.538  0.2212E+01  0.1550E+02
  -4.528  0.2122E+01  0.1552E+02
  -4.518  0.2032E+01  0.1554E+02
  -4.508  0.1942E+01  0.1556E+02
  -4.498  0.1853E+01  0.1558E+02
  -4.488  0.1765E+01  0.1560E+02
  -4.478  0.1679E+01  0.1561E+02
  -4.468  0.1596E+01  0.1563E+02
  -4.458  0.1515E+01  0.1564E+02
  -4.448  0.1437E+01  0.1566E+02
  -4.438  0.1363E+01  0.1567E+02
  -4.428  0.1293E+01  0.1568E+02
  -4.418  0.1226E+01  0.1570E+02
  -4.408  0.1164E+01  0.1571E+02
  -4.398  0.1106E+01  0.1572E+02
  -4.388  0.1053E+01  0.1573E+02
  -4.378  0.1004E+01  0.1574E+02
  -4.368  0.9600E+00  0.1575E+02
  -4.358  0.9208E+00  0.1576E+02
  -4.348  0.8863E+00  0.1577E+02
  -4.338  0.8565E+00  0.1578E+02
  -4.328  0.8313E+00  0.1578E+02
  -4.318  0.8108E+00  0.1579E+02
  -4.308  0.7947E+00  0.1580E+02
  -4.298  0.7831E+00  0.1581E+02
  -4.288  0.7758E+00  0.1582E+02
  -4.278  0.7726E+00  0.1582E+02
  -4.268  0.7734E+00  0.1583E+02
  -4.258  0.7781E+00  0.1584E+02
  -4.248  0.7865E+00  0.1585E+02
  -4.238  0.7985E+00  0.1586E+02
  -4.228  0.8139E+00  0.1586E+02
  -4.218  0.8325E+00  0.1587E+02
  -4.208  0.8543E+00  0.1588E+02
  -4.198  0.8790E+00  0.1589E+02
  -4.188  0.9065E+00  0.1590E+02
  -4.178  0.9367E+00  0.1591E+02
  -4.168  0.9694E+00  0.1592E+02
  -4.158  0.1004E+01  0.1593E+02
  -4.148  0.1042E+01  0.1594E+02
  -4.138  0.1081E+01  0.1595E+02
  -4.128  0.1122E+01  0.1596E+02
  -4.118  0.1166E+01  0.1597E+02
  -4.108  0.1210E+01  0.1598E+02
  -4.098  0.1257E+01  0.1600E+02
  -4.088  0.1304E+01  0.1601E+02
  -4.078  0.1353E+01  0.1602E+02
  -4.068  0.1403E+01  0.1604E+02
  -4.058  0.1454E+01  0.1605E+02
  -4.048  0.1506E+01  0.1607E+02
  -4.038  0.1559E+01  0.1608E+02
  -4.028  0.1611E+01  0.1610E+02
  -4.018  0.1665E+01  0.1611E+02
  -4.008  0.1718E+01  0.1613E+02
  -3.998  0.1771E+01  0.1615E+02
  -3.988  0.1824E+01  0.1617E+02
  -3.978  0.1876E+01  0.1619E+02
  -3.968  0.1927E+01  0.1621E+02
  -3.958  0.1978E+01  0.1623E+02
  -3.948  0.2028E+01  0.1625E+02
  -3.938  0.2076E+01  0.1627E+02
  -3.928  0.2123E+01  0.1629E+02
  -3.918  0.2168E+01  0.1631E+02
  -3.908  0.2211E+01  0.1633E+02
  -3.898  0.2253E+01  0.1635E+02
  -3.888  0.2292E+01  0.1638E+02
  -3.878  0.2328E+01  0.1640E+02
  -3.868  0.2362E+01  0.1642E+02
  -3.858  0.2394E+01  0.1645E+02
  -3.848  0.2422E+01  0.1647E+02
  -3.838  0.2448E+01  0.1650E+02
  -3.828  0.2471E+01  0.1652E+02
  -3.818  0.2491E+01  0.1655E+02
  -3.808  0.2507E+01  0.1657E+02
  -3.798  0.2521E+01  0.1660E+02
  -3.788  0.2532E+01  0.1662E+02
  -3.778  0.2539E+01  0.1665E+02
  -3.768  0.2543E+01  0.1667E+02
  -3.758  0.2545E+01  0.1670E+02
  -3.748  0.2543E+01  0.1672E+02
  -3.738  0.2539E+01  0.1675E+02
  -3.728  0.2532E+01  0.1677E+02
  -3.718  0.2522E+01  0.1680E+02
  -3.708  0.2510E+01  0.1682E+02
  -3.698  0.2496E+01  0.1685E+02
  -3.688  0.2479E+01  0.1687E+02
  -3.678  0.2460E+01  0.1690E+02
  -3.668  0.2440E+01  0.1692E+02
  -3.658  0.2418E+01  0.1695E+02
  -3.648  0.2394E+01  0.1697E+02
  -3.638  0.2369E+01  0.1700E+02
  -3.628  0.2343E+01  0.1702E+02
  -3.618  0.2315E+01  0.1704E+02
  -3.608  0.2287E+01  0.1706E+02
  -3.598  0.2258E+01  0.1709E+02
  -3.588  0.2229E+01  0.1711E+02
  -3.578  0.2199E+01  0.1713E+02
  -3.568  0.2169E+01  0.1715E+02
  -3.558  0.2140E+01  0.1717E+02
  -3.548  0.2110E+01  0.1720E+02
  -3.538  0.2080E+01  0.1722E+02
  -3.528  0.2050E+01  0.1724E+02
  -3.518  0.2022E+01  0.1726E+02
  -3.508  0.1993E+01  0.1728E+02
  -3.498  0.1966E+01  0.1730E+02
  -3.488  0.1939E+01  0.1732E+02
  -3.478  0.1914E+01  0.1734E+02
  -3.468  0.1889E+01  0.1735E+02
  -3.458  0.1866E+01  0.1737E+02
  -3.448  0.1845E+01  0.1739E+02
  -3.438  0.1825E+01  0.1741E+02
  -3.428  0.1807E+01  0.1743E+02
  -3.418  0.1792E+01  0.1745E+02
  -3.408  0.1778E+01  0.1746E+02
  -3.398  0.1768E+01  0.1748E+02
  -3.388  0.1760E+01  0.1750E+02
  -3.378  0.1755E+01  0.1752E+02
  -3.368  0.1754E+01  0.1753E+02
  -3.358  0.1756E+01  0.1755E+02
  -3.348  0.1763E+01  0.1757E+02
  -3.338  0.1773E+01  0.1759E+02
  -3.328  0.1789E+01  0.1760E+02
  -3.318  0.1809E+01  0.1762E+02
  -3.308  0.1834E+01  0.1764E+02
  -3.298  0.1864E+01  0.1766E+02
  -3.288  0.1901E+01  0.1768E+02
  -3.278  0.1943E+01  0.1770E+02
  -3.268  0.1992E+01  0.1772E+02
  -3.258  0.2047E+01  0.1774E+02
  -3.248  0.2108E+01  0.1776E+02
  -3.238  0.2177E+01  0.1778E+02
  -3.228  0.2252E+01  0.1780E+02
  -3.218  0.2335E+01  0.1783E+02
  -3.208  0.2424E+01  0.1785E+02
  -3.198  0.2520E+01  0.1788E+02
  -3.188  0.2624E+01  0.1790E+02
  -3.178  0.2734E+01  0.1793E+02
  -3.168  0.2851E+01  0.1796E+02
  -3.158  0.2975E+01  0.1799E+02
  -3.148  0.3105E+01  0.1802E+02
  -3.138  0.3241E+01  0.1805E+02
  -3.128  0.3382E+01  0.1809E+02
  -3.118  0.3528E+01  0.1812E+02
  -3.108  0.3679E+01  0.1816E+02
  -3.098  0.3834E+01  0.1820E+02
  -3.088  0.3993E+01  0.1824E+02
  -3.078  0.4154E+01  0.1828E+02
  -3.068  0.4318E+01  0.1832E+02
  -3.058  0.4483E+01  0.1837E+02
  -3.048  0.4649E+01  0.1841E+02
  -3.038  0.4815E+01  0.1846E+02
  -3.028  0.4980E+01  0.1851E+02
  -3.018  0.5144E+01  0.1856E+02
  -3.008  0.5306E+01  0.1861E+02
  -2.998  0.5465E+01  0.1867E+02
  -2.988  0.5621E+01  0.1873E+02
  -2.978  0.5772E+01  0.1878E+02
  -2.968  0.5918E+01  0.1884E+02
  -2.958  0.6059E+01  0.1890E+02
  -2.948  0.6194E+01  0.1896E+02
  -2.938  0.6322E+01  0.1903E+02
  -2.928  0.6443E+01  0.1909E+02
  -2.918  0.6557E+01  0.1916E+02
  -2.908  0.6662E+01  0.1922E+02
  -2.898  0.6760E+01  0.1929E+02
  -2.888  0.6849E+01  0.1936E+02
  -2.878  0.6929E+01  0.1943E+02
  -2.868  0.7001E+01  0.1950E+02
  -2.858  0.7065E+01  0.1957E+02
  -2.848  0.7119E+01  0.1964E+02
  -2.838  0.7165E+01  0.1971E+02
  -2.828  0.7203E+01  0.1979E+02
  -2.818  0.7232E+01  0.1986E+02
  -2.808  0.7254E+01  0.1993E+02
  -2.798  0.7268E+01  0.2000E+02
  -2.788  0.7274E+01  0.2008E+02
  -2.778  0.7274E+01  0.2015E+02
  -2.768  0.7267E+01  0.2022E+02
  -2.758  0.7254E+01  0.2029E+02
  -2.748  0.7235E+01  0.2037E+02
  -2.738  0.7210E+01  0.2044E+02
  -2.728  0.7181E+01  0.2051E+02
  -2.718  0.7148E+01  0.2058E+02
  -2.708  0.7110E+01  0.2065E+02
  -2.698  0.7069E+01  0.2072E+02
  -2.688  0.7025E+01  0.2079E+02
  -2.678  0.6978E+01  0.2086E+02
  -2.668  0.6929E+01  0.2093E+02
  -2.658  0.6878E+01  0.2100E+02
  -2.648  0.6825E+01  0.2107E+02
  -2.638  0.6770E+01  0.2114E+02
  -2.628  0.6715E+01  0.2120E+02
  -2.618  0.6658E+01  0.2127E+02
  -2.608  0.6601E+01  0.2134E+02
  -2.598  0.6543E+01  0.2140E+02
  -2.588  0.6484E+01  0.2147E+02
  -2.578  0.6426E+01  0.2153E+02
  -2.568  0.6366E+01  0.2160E+02
  -2.558  0.6307E+01  0.2166E+02
  -2.548  0.6247E+01  0.2172E+02
  -2.538  0.6187E+01  0.2178E+02
  -2.528  0.6126E+01  0.2184E+02
  -2.518  0.6065E+01  0.2190E+02
  -2.508  0.6003E+01  0.2196E+02
  -2.498  0.5941E+01  0.2202E+02
  -2.488  0.5878E+01  0.2208E+02
  -2.478  0.5814E+01  0.2214E+02
  -2.468  0.5749E+01  0.2220E+02
  -2.458  0.5683E+01  0.2226E+02
  -2.448  0.5615E+01  0.2231E+02
  -2.438  0.5546E+01  0.2237E+02
  -2.428  0.5475E+01  0.2242E+02
  -2.418  0.5403E+01  0.2248E+02
  -2.408  0.5328E+01  0.2253E+02
  -2.398  0.5252E+01  0.2258E+02
  -2.388  0.5173E+01  0.2263E+02
  -2.378  0.5092E+01  0.2268E+02
  -2.368  0.5009E+01  0.2273E+02
  -2.358  0.4924E+01  0.2278E+02
  -2.348  0.4836E+01  0.2283E+02
  -2.338  0.4746E+01  0.2288E+02
  -2.328  0.4653E+01  0.2293E+02
  -2.318  0.4558E+01  0.2297E+02
  -2.308  0.4461E+01  0.2302E+02
  -2.298  0.4361E+01  0.2306E+02
  -2.288  0.4259E+01  0.2310E+02
  -2.278  0.4155E+01  0.2314E+02
  -2.268  0.4050E+01  0.2318E+02
  -2.258  0.3942E+01  0.2322E+02
  -2.248  0.3833E+01  0.2326E+02
  -2.238  0.3722E+01  0.2330E+02
  -2.228  0.3610E+01  0.2334E+02
  -2.218  0.3498E+01  0.2337E+02
  -2.208  0.3384E+01  0.2340E+02
  -2.198  0.3270E+01  0.2344E+02
  -2.188  0.3155E+01  0.2347E+02
  -2.178  0.3040E+01  0.2350E+02
  -2.168  0.2926E+01  0.2353E+02
  -2.158  0.2812E+01  0.2356E+02
  -2.148  0.2698E+01  0.2358E+02
  -2.138  0.2585E+01  0.2361E+02
  -2.128  0.2474E+01  0.2363E+02
  -2.118  0.2364E+01  0.2366E+02
  -2.108  0.2255E+01  0.2368E+02
  -2.098  0.2148E+01  0.2370E+02
  -2.088  0.2043E+01  0.2372E+02
  -2.078  0.1940E+01  0.2374E+02
  -2.068  0.1839E+01  0.2376E+02
  -2.058  0.1741E+01  0.2378E+02
  -2.048  0.1646E+01  0.2379E+02
  -2.038  0.1553E+01  0.2381E+02
  -2.028  0.1463E+01  0.2382E+02
  -2.018  0.1376E+01  0.2384E+02
  -2.008  0.1292E+01  0.2385E+02
  -1.998  0.1211E+01  0.2386E+02
  -1.988  0.1133E+01  0.2387E+02
  -1.978  0.1058E+01  0.2388E+02
  -1.968  0.9866E+00  0.2389E+02
  -1.958  0.9183E+00  0.2390E+02
  -1.948  0.8533E+00  0.2391E+02
  -1.938  0.7914E+00  0.2392E+02
  -1.928  0.7327E+00  0.2393E+02
  -1.918  0.6771E+00  0.2393E+02
  -1.908  0.6246E+00  0.2394E+02
  -1.898  0.5750E+00  0.2395E+02
  -1.888  0.5284E+00  0.2395E+02
  -1.878  0.4846E+00  0.2396E+02
  -1.868  0.4436E+00  0.2396E+02
  -1.858  0.4053E+00  0.2396E+02
  -1.848  0.3696E+00  0.2397E+02
  -1.838  0.3363E+00  0.2397E+02
  -1.828  0.3054E+00  0.2397E+02
  -1.818  0.2768E+00  0.2398E+02
  -1.808  0.2504E+00  0.2398E+02
  -1.798  0.2260E+00  0.2398E+02
  -1.788  0.2036E+00  0.2398E+02
  -1.778  0.1830E+00  0.2399E+02
  -1.768  0.1641E+00  0.2399E+02
  -1.758  0.1469E+00  0.2399E+02
  -1.748  0.1312E+00  0.2399E+02
  -1.738  0.1169E+00  0.2399E+02
  -1.728  0.1040E+00  0.2399E+02
  -1.718  0.9224E-01  0.2399E+02
  -1.708  0.8166E-01  0.2399E+02
  -1.698  0.7213E-01  0.2400E+02
  -1.688  0.6357E-01  0.2400E+02
  -1.678  0.5590E-01  0.2400E+02
  -1.668  0.4904E-01  0.2400E+02
  -1.658  0.4292E-01  0.2400E+02
  -1.648  0.3748E-01  0.2400E+02
  -1.638  0.3266E-01  0.2400E+02
  -1.628  0.2839E-01  0.2400E+02
  -1.618  0.2462E-01  0.2400E+02
  -1.608  0.2130E-01  0.2400E+02
  -1.598  0.1838E-01  0.2400E+02
  -1.588  0.1583E-01  0.2400E+02
  -1.578  0.1359E-01  0.2400E+02
  -1.568  0.1165E-01  0.2400E+02
  -1.558  0.9962E-02  0.2400E+02
  -1.548  0.8499E-02  0.2400E+02
  -1.538  0.7235E-02  0.2400E+02
  -1.528  0.6146E-02  0.2400E+02
  -1.518  0.5212E-02  0.2400E+02
  -1.508  0.4413E-02  0.2400E+02
  -1.498  0.3733E-02  0.2400E+02
  -1.488  0.3156E-02  0.2400E+02
  -1.478  0.2671E-02  0.2400E+02
  -1.468  0.2265E-02  0.2400E+02
  -1.458  0.1930E-02  0.2400E+02
  -1.448  0.1657E-02  0.2400E+02
  -1.438  0.1440E-02  0.2400E+02
  -1.428  0.1273E-02  0.2400E+02
  -1.418  0.1153E-02  0.2400E+02
  -1.408  0.1076E-02  0.2400E+02
  -1.398  0.1042E-02  0.2400E+02
  -1.388  0.1048E-02  0.2400E+02
  -1.378  0.1098E-02  0.2400E+02
  -1.368  0.1192E-02  0.2400E+02
  -1.358  0.1335E-02  0.2400E+02
  -1.348  0.1530E-02  0.2400E+02
  -1.338  0.1785E-02  0.2400E+02
  -1.328  0.2109E-02  0.2400E+02
  -1.318  0.2510E-02  0.2400E+02
  -1.308  0.3001E-02  0.2400E+02
  -1.298  0.3596E-02  0.2400E+02
  -1.288  0.4313E-02  0.2400E+02
  -1.278  0.5171E-02  0.2400E+02
  -1.268  0.6194E-02  0.2400E+02
  -1.258  0.7406E-02  0.2400E+02
  -1.248  0.8839E-02  0.2400E+02
  -1.238  0.1053E-01  0.2400E+02
  -1.228  0.1251E-01  0.2400E+02
  -1.218  0.1483E-01  0.2400E+02
  -1.208  0.1754E-01  0.2400E+02
  -1.198  0.2069E-01  0.2400E+02
  -1.188  0.2435E-01  0.2400E+02
  -1.178  0.2859E-01  0.2400E+02
  -1.168  0.3347E-01  0.2400E+02
  -1.158  0.3910E-01  0.2400E+02
  -1.148  0.4556E-01  0.2400E+02
  -1.138  0.5295E-01  0.2400E+02
  -1.128  0.6138E-01  0.2400E+02
  -1.118  0.7098E-01  0.2400E+02
  -1.108  0.8188E-01  0.2401E+02
  -1.098  0.9421E-01  0.2401E+02
  -1.088  0.1081E+00  0.2401E+02
  -1.078  0.1238E+00  0.2401E+02
  -1.068  0.1414E+00  0.2401E+02
  -1.058  0.1611E+00  0.2401E+02
  -1.048  0.1831E+00  0.2401E+02
  -1.038  0.2076E+00  0.2402E+02
  -1.028  0.2347E+00  0.2402E+02
  -1.018  0.2648E+00  0.2402E+02
  -1.008  0.2980E+00  0.2402E+02
  -0.998  0.3345E+00  0.2403E+02
  -0.988  0.3746E+00  0.2403E+02
  -0.978  0.4185E+00  0.2404E+02
  -0.968  0.4664E+00  0.2404E+02
  -0.958  0.5186E+00  0.2404E+02
  -0.948  0.5752E+00  0.2405E+02
  -0.938  0.6364E+00  0.2406E+02
  -0.928  0.7024E+00  0.2406E+02
  -0.918  0.7735E+00  0.2407E+02
  -0.908  0.8498E+00  0.2408E+02
  -0.898  0.9314E+00  0.2409E+02
  -0.888  0.1018E+01  0.2410E+02
  -0.878  0.1111E+01  0.2411E+02
  -0.868  0.1209E+01  0.2412E+02
  -0.858  0.1313E+01  0.2414E+02
  -0.848  0.1422E+01  0.2415E+02
  -0.838  0.1537E+01  0.2417E+02
  -0.828  0.1658E+01  0.2418E+02
  -0.818  0.1783E+01  0.2420E+02
  -0.808  0.1914E+01  0.2422E+02
  -0.798  0.2051E+01  0.2424E+02
  -0.788  0.2191E+01  0.2426E+02
  -0.778  0.2337E+01  0.2429E+02
  -0.768  0.2487E+01  0.2431E+02
  -0.758  0.2640E+01  0.2434E+02
  -0.748  0.2797E+01  0.2436E+02
  -0.738  0.2957E+01  0.2439E+02
  -0.728  0.3119E+01  0.2443E+02
  -0.718  0.3284E+01  0.2446E+02
  -0.708  0.3450E+01  0.2449E+02
  -0.698  0.3617E+01  0.2453E+02
  -0.688  0.3784E+01  0.2457E+02
  -0.678  0.3952E+01  0.2461E+02
  -0.668  0.4118E+01  0.2465E+02
  -0.658  0.4283E+01  0.2469E+02
  -0.648  0.4447E+01  0.2473E+02
  -0.638  0.4607E+01  0.2478E+02
  -0.628  0.4765E+01  0.2483E+02
  -0.618  0.4920E+01  0.2488E+02
  -0.608  0.5070E+01  0.2493E+02
  -0.598  0.5215E+01  0.2498E+02
  -0.588  0.5356E+01  0.2503E+02
  -0.578  0.5491E+01  0.2509E+02
  -0.568  0.5621E+01  0.2514E+02
  -0.558  0.5745E+01  0.2520E+02
  -0.548  0.5862E+01  0.2526E+02
  -0.538  0.5972E+01  0.2532E+02
  -0.528  0.6077E+01  0.2538E+02
  -0.518  0.6174E+01  0.2544E+02
  -0.508  0.6264E+01  0.2551E+02
  -0.498  0.6348E+01  0.2557E+02
  -0.488  0.6425E+01  0.2563E+02
  -0.478  0.6495E+01  0.2570E+02
  -0.468  0.6559E+01  0.2576E+02
  -0.458  0.6617E+01  0.2583E+02
  -0.448  0.6668E+01  0.2590E+02
  -0.438  0.6714E+01  0.2596E+02
  -0.428  0.6754E+01  0.2603E+02
  -0.418  0.6790E+01  0.2610E+02
  -0.408  0.6820E+01  0.2617E+02
  -0.398  0.6846E+01  0.2624E+02
  -0.388  0.6868E+01  0.2630E+02
  -0.378  0.6887E+01  0.2637E+02
  -0.368  0.6902E+01  0.2644E+02
  -0.358  0.6914E+01  0.2651E+02
  -0.348  0.6924E+01  0.2658E+02
  -0.338  0.6932E+01  0.2665E+02
  -0.328  0.6938E+01  0.2672E+02
  -0.318  0.6942E+01  0.2679E+02
  -0.308  0.6945E+01  0.2686E+02
  -0.298  0.6947E+01  0.2693E+02
  -0.288  0.6948E+01  0.2700E+02
  -0.278  0.6949E+01  0.2707E+02
  -0.268  0.6948E+01  0.2714E+02
  -0.258  0.6948E+01  0.2721E+02
  -0.248  0.6947E+01  0.2728E+02
  -0.238  0.6946E+01  0.2735E+02
  -0.228  0.6944E+01  0.2741E+02
  -0.218  0.6941E+01  0.2748E+02
  -0.208  0.6939E+01  0.2755E+02
  -0.198  0.6935E+01  0.2762E+02
  -0.188  0.6931E+01  0.2769E+02
  -0.178  0.6926E+01  0.2776E+02
  -0.168  0.6920E+01  0.2783E+02
  -0.158  0.6913E+01  0.2790E+02
  -0.148  0.6904E+01  0.2797E+02
  -0.138  0.6894E+01  0.2804E+02
  -0.128  0.6883E+01  0.2811E+02
  -0.118  0.6870E+01  0.2818E+02
  -0.108  0.6854E+01  0.2824E+02
  -0.098  0.6838E+01  0.2831E+02
  -0.088  0.6819E+01  0.2838E+02
  -0.078  0.6798E+01  0.2845E+02
  -0.068  0.6775E+01  0.2852E+02
  -0.058  0.6751E+01  0.2858E+02
  -0.048  0.6724E+01  0.2865E+02
  -0.038  0.6697E+01  0.2872E+02
  -0.028  0.6667E+01  0.2878E+02
  -0.018  0.6636E+01  0.2885E+02
  -0.008  0.6605E+01  0.2892E+02
   0.002  0.6572E+01  0.2898E+02
   0.012  0.6539E+01  0.2905E+02
   0.022  0.6506E+01  0.2911E+02
   0.032  0.6474E+01  0.2918E+02
   0.042  0.6441E+01  0.2924E+02
   0.052  0.6410E+01  0.2931E+02
   0.062  0.6380E+01  0.2937E+02
   0.072  0.6352E+01  0.2943E+02
   0.082  0.6325E+01  0.2950E+02
   0.092  0.6301E+01  0.2956E+02
   0.102  0.6280E+01  0.2962E+02
   0.112  0.6262E+01  0.2969E+02
   0.122  0.6247E+01  0.2975E+02
   0.132  0.6236E+01  0.2981E+02
   0.142  0.6229E+01  0.2987E+02
   0.152  0.6226E+01  0.2993E+02
   0.162  0.6227E+01  0.3000E+02
   0.172  0.6232E+01  0.3006E+02
   0.182  0.6242E+01  0.3012E+02
   0.192  0.6255E+01  0.3018E+02
   0.202  0.6273E+01  0.3025E+02
   0.212  0.6296E+01  0.3031E+02
   0.222  0.6322E+01  0.3037E+02
   0.232  0.6352E+01  0.3044E+02
   0.242  0.6386E+01  0.3050E+02
   0.252  0.6423E+01  0.3056E+02
   0.262  0.6463E+01  0.3063E+02
   0.272  0.6506E+01  0.3069E+02
   0.282  0.6551E+01  0.3076E+02
   0.292  0.6598E+01  0.3083E+02
   0.302  0.6646E+01  0.3089E+02
   0.312  0.6695E+01  0.3096E+02
   0.322  0.6745E+01  0.3103E+02
   0.332  0.6796E+01  0.3109E+02
   0.342  0.6846E+01  0.3116E+02
   0.352  0.6895E+01  0.3123E+02
   0.362  0.6943E+01  0.3130E+02
   0.372  0.6989E+01  0.3137E+02
   0.382  0.7034E+01  0.3144E+02
   0.392  0.7076E+01  0.3151E+02
   0.402  0.7115E+01  0.3158E+02
   0.412  0.7152E+01  0.3166E+02
   0.422  0.7185E+01  0.3173E+02
   0.432  0.7215E+01  0.3180E+02
   0.442  0.7241E+01  0.3187E+02
   0.452  0.7263E+01  0.3194E+02
   0.462  0.7281E+01  0.3202E+02
   0.472  0.7296E+01  0.3209E+02
   0.482  0.7306E+01  0.3216E+02
   0.492  0.7312E+01  0.3224E+02
   0.502  0.7315E+01  0.3231E+02
   0.512  0.7314E+01  0.3238E+02
   0.522  0.7309E+01  0.3246E+02
   0.532  0.7300E+01  0.3253E+02
   0.542  0.7288E+01  0.3260E+02
   0.552  0.7274E+01  0.3267E+02
   0.562  0.7256E+01  0.3275E+02
   0.572  0.7237E+01  0.3282E+02
   0.582  0.7215E+01  0.3289E+02
   0.592  0.7191E+01  0.3296E+02
   0.602  0.7166E+01  0.3303E+02
   0.612  0.7141E+01  0.3311E+02
   0.622  0.7114E+01  0.3318E+02
   0.632  0.7088E+01  0.3325E+02
   0.642  0.7061E+01  0.3332E+02
   0.652  0.7036E+01  0.3339E+02
   0.662  0.7011E+01  0.3346E+02
   0.672  0.6988E+01  0.3353E+02
   0.682  0.6966E+01  0.3360E+02
   0.692  0.6947E+01  0.3367E+02
   0.702  0.6930E+01  0.3374E+02
   0.712  0.6916E+01  0.3381E+02
   0.722  0.6904E+01  0.3388E+02
   0.732  0.6896E+01  0.3394E+02
   0.742  0.6892E+01  0.3401E+02
   0.752  0.6891E+01  0.3408E+02
   0.762  0.6894E+01  0.3415E+02
   0.772  0.6901E+01  0.3422E+02
   0.782  0.6911E+01  0.3429E+02
   0.792  0.6926E+01  0.3436E+02
   0.802  0.6945E+01  0.3443E+02
   0.812  0.6967E+01  0.3450E+02
   0.822  0.6994E+01  0.3457E+02
   0.832  0.7024E+01  0.3464E+02
   0.842  0.7058E+01  0.3471E+02
   0.852  0.7095E+01  0.3478E+02
   0.862  0.7135E+01  0.3485E+02
   0.872  0.7179E+01  0.3492E+02
   0.882  0.7225E+01  0.3500E+02
   0.892  0.7273E+01  0.3507E+02
   0.902  0.7324E+01  0.3514E+02
   0.912  0.7376E+01  0.3521E+02
   0.922  0.7430E+01  0.3529E+02
   0.932  0.7484E+01  0.3536E+02
   0.942  0.7540E+01  0.3544E+02
   0.952  0.7595E+01  0.3552E+02
   0.962  0.7651E+01  0.3559E+02
   0.972  0.7706E+01  0.3567E+02
   0.982  0.7760E+01  0.3575E+02
   0.992  0.7813E+01  0.3582E+02
   1.002  0.7864E+01  0.3590E+02
   1.012  0.7914E+01  0.3598E+02
   1.022  0.7961E+01  0.3606E+02
   1.032  0.8006E+01  0.3614E+02
   1.042  0.8049E+01  0.3622E+02
   1.052  0.8089E+01  0.3630E+02
   1.062  0.8126E+01  0.3638E+02
   1.072  0.8159E+01  0.3647E+02
   1.082  0.8190E+01  0.3655E+02
   1.092  0.8218E+01  0.3663E+02
   1.102  0.8242E+01  0.3671E+02
   1.112  0.8263E+01  0.3680E+02
   1.122  0.8281E+01  0.3688E+02
   1.132  0.8296E+01  0.3696E+02
   1.142  0.8308E+01  0.3704E+02
   1.152  0.8318E+01  0.3713E+02
   1.162  0.8325E+01  0.3721E+02
   1.172  0.8329E+01  0.3729E+02
   1.182  0.8332E+01  0.3738E+02
   1.192  0.8333E+01  0.3746E+02
   1.202  0.8332E+01  0.3754E+02
   1.212  0.8330E+01  0.3763E+02
   1.222  0.8327E+01  0.3771E+02
   1.232  0.8324E+01  0.3779E+02
   1.242  0.8320E+01  0.3788E+02
   1.252  0.8315E+01  0.3796E+02
   1.262  0.8311E+01  0.3804E+02
   1.272  0.8307E+01  0.3813E+02
   1.282  0.8304E+01  0.3821E+02
   1.292  0.8301E+01  0.3829E+02
   1.302  0.8299E+01  0.3838E+02
   1.312  0.8298E+01  0.3846E+02
   1.322  0.8298E+01  0.3854E+02
   1.332  0.8298E+01  0.3862E+02
   1.342  0.8300E+01  0.3871E+02
   1.352  0.8303E+01  0.3879E+02
   1.362  0.8307E+01  0.3887E+02
   1.372  0.8312E+01  0.3896E+02
   1.382  0.8318E+01  0.3904E+02
   1.392  0.8324E+01  0.3912E+02
   1.402  0.8331E+01  0.3921E+02
   1.412  0.8338E+01  0.3929E+02
   1.422  0.8345E+01  0.3937E+02
   1.432  0.8353E+01  0.3946E+02
   1.442  0.8360E+01  0.3954E+02
   1.452  0.8366E+01  0.3962E+02
   1.462  0.8371E+01  0.3971E+02
   1.472  0.8376E+01  0.3979E+02
   1.482  0.8379E+01  0.3988E+02
   1.492  0.8381E+01  0.3996E+02
   1.502  0.8381E+01  0.4004E+02
   1.512  0.8379E+01  0.4013E+02
   1.522  0.8374E+01  0.4021E+02
   1.532  0.8368E+01  0.4029E+02
   1.542  0.8358E+01  0.4038E+02
   1.552  0.8347E+01  0.4046E+02
   1.562  0.8332E+01  0.4054E+02
   1.572  0.8315E+01  0.4063E+02
   1.582  0.8294E+01  0.4071E+02
   1.592  0.8271E+01  0.4079E+02
   1.602  0.8245E+01  0.4088E+02
   1.612  0.8215E+01  0.4096E+02
   1.622  0.8183E+01  0.4104E+02
   1.632  0.8148E+01  0.4112E+02
   1.642  0.8110E+01  0.4120E+02
   1.652  0.8069E+01  0.4128E+02
   1.662  0.8026E+01  0.4136E+02
   1.672  0.7981E+01  0.4144E+02
   1.682  0.7933E+01  0.4152E+02
   1.692  0.7883E+01  0.4160E+02
   1.702  0.7831E+01  0.4168E+02
   1.712  0.7778E+01  0.4176E+02
   1.722  0.7723E+01  0.4183E+02
   1.732  0.7667E+01  0.4191E+02
   1.742  0.7610E+01  0.4199E+02
   1.752  0.7552E+01  0.4206E+02
   1.762  0.7494E+01  0.4214E+02
   1.772  0.7436E+01  0.4221E+02
   1.782  0.7377E+01  0.4229E+02
   1.792  0.7319E+01  0.4236E+02
   1.802  0.7262E+01  0.4243E+02
   1.812  0.7205E+01  0.4250E+02
   1.822  0.7150E+01  0.4258E+02
   1.832  0.7095E+01  0.4265E+02
   1.842  0.7043E+01  0.4272E+02
   1.852  0.6992E+01  0.4279E+02
   1.862  0.6943E+01  0.4286E+02
   1.872  0.6896E+01  0.4292E+02
   1.882  0.6851E+01  0.4299E+02
   1.892  0.6809E+01  0.4306E+02
   1.902  0.6770E+01  0.4313E+02
   1.912  0.6734E+01  0.4320E+02
   1.922  0.6701E+01  0.4326E+02
   1.932  0.6671E+01  0.4333E+02
   1.942  0.6644E+01  0.4340E+02
   1.952  0.6620E+01  0.4346E+02
   1.962  0.6600E+01  0.4353E+02
   1.972  0.6583E+01  0.4359E+02
   1.982  0.6570E+01  0.4366E+02
   1.992  0.6560E+01  0.4373E+02
   2.002  0.6553E+01  0.4379E+02
   2.012  0.6550E+01  0.4386E+02
   2.022  0.6550E+01  0.4392E+02
   2.032  0.6552E+01  0.4399E+02
   2.042  0.6558E+01  0.4405E+02
   2.052  0.6567E+01  0.4412E+02
   2.062  0.6578E+01  0.4418E+02
   2.072  0.6591E+01  0.4425E+02
   2.082  0.6606E+01  0.4432E+02
   2.092  0.6624E+01  0.4438E+02
   2.102  0.6643E+01  0.4445E+02
   2.112  0.6663E+01  0.4452E+02
   2.122  0.6684E+01  0.4458E+02
   2.132  0.6706E+01  0.4465E+02
   2.142  0.6728E+01  0.4472E+02
   2.152  0.6751E+01  0.4478E+02
   2.162  0.6773E+01  0.4485E+02
   2.172  0.6794E+01  0.4492E+02
   2.182  0.6814E+01  0.4499E+02
   2.192  0.6833E+01  0.4506E+02
   2.202  0.6851E+01  0.4513E+02
   2.212  0.6866E+01  0.4519E+02
   2.222  0.6879E+01  0.4526E+02
   2.232  0.6888E+01  0.4533E+02
   2.242  0.6895E+01  0.4540E+02
   2.252  0.6899E+01  0.4547E+02
   2.262  0.6898E+01  0.4554E+02
   2.272  0.6894E+01  0.4561E+02
   2.282  0.6885E+01  0.4568E+02
   2.292  0.6871E+01  0.4575E+02
   2.302  0.6853E+01  0.4581E+02
   2.312  0.6829E+01  0.4588E+02
   2.322  0.6799E+01  0.4595E+02
   2.332  0.6764E+01  0.4602E+02
   2.342  0.6723E+01  0.4608E+02
   2.352  0.6676E+01  0.4615E+02
   2.362  0.6622E+01  0.4622E+02
   2.372  0.6562E+01  0.4628E+02
   2.382  0.6496E+01  0.4635E+02
   2.392  0.6423E+01  0.4641E+02
   2.402  0.6343E+01  0.4648E+02
   2.412  0.6257E+01  0.4654E+02
   2.422  0.6164E+01  0.4660E+02
   2.432  0.6065E+01  0.4666E+02
   2.442  0.5959E+01  0.4672E+02
   2.452  0.5847E+01  0.4678E+02
   2.462  0.5730E+01  0.4684E+02
   2.472  0.5606E+01  0.4689E+02
   2.482  0.5477E+01  0.4695E+02
   2.492  0.5343E+01  0.4700E+02
   2.502  0.5204E+01  0.4705E+02
   2.512  0.5060E+01  0.4710E+02
   2.522  0.4913E+01  0.4715E+02
   2.532  0.4761E+01  0.4720E+02
   2.542  0.4607E+01  0.4725E+02
   2.552  0.4450E+01  0.4729E+02
   2.562  0.4291E+01  0.4733E+02
   2.572  0.4130E+01  0.4737E+02
   2.582  0.3968E+01  0.4741E+02
   2.592  0.3805E+01  0.4745E+02
   2.602  0.3642E+01  0.4749E+02
   2.612  0.3479E+01  0.4752E+02
   2.622  0.3317E+01  0.4756E+02
   2.632  0.3157E+01  0.4759E+02
   2.642  0.2998E+01  0.4762E+02
   2.652  0.2842E+01  0.4765E+02
   2.662  0.2688E+01  0.4767E+02
   2.672  0.2538E+01  0.4770E+02
   2.682  0.2391E+01  0.4772E+02
   2.692  0.2248E+01  0.4775E+02
   2.702  0.2109E+01  0.4777E+02
   2.712  0.1974E+01  0.4779E+02
   2.722  0.1844E+01  0.4780E+02
   2.732  0.1719E+01  0.4782E+02
   2.742  0.1599E+01  0.4784E+02
   2.752  0.1484E+01  0.4785E+02
   2.762  0.1374E+01  0.4787E+02
   2.772  0.1270E+01  0.4788E+02
   2.782  0.1171E+01  0.4789E+02
   2.792  0.1077E+01  0.4790E+02
   2.802  0.9885E+00  0.4791E+02
   2.812  0.9053E+00  0.4792E+02
   2.822  0.8271E+00  0.4793E+02
   2.832  0.7540E+00  0.4794E+02
   2.842  0.6858E+00  0.4794E+02
   2.852  0.6224E+00  0.4795E+02
   2.862  0.5635E+00  0.4796E+02
   2.872  0.5090E+00  0.4796E+02
   2.882  0.4586E+00  0.4796E+02
   2.892  0.4123E+00  0.4797E+02
   2.902  0.3699E+00  0.4797E+02
   2.912  0.3310E+00  0.4798E+02
   2.922  0.2955E+00  0.4798E+02
   2.932  0.2631E+00  0.4798E+02
   2.942  0.2338E+00  0.4798E+02
   2.952  0.2072E+00  0.4799E+02
   2.962  0.1832E+00  0.4799E+02
   2.972  0.1617E+00  0.4799E+02
   2.982  0.1423E+00  0.4799E+02
   2.992  0.1249E+00  0.4799E+02
   3.002  0.1094E+00  0.4799E+02
