#  E (eV)   dos(E)     Int dos(E) EFermi =   2.570 eV
 -17.180  0.8696E-05  0.8696E-07
 -17.170  0.1352E-04  0.2222E-06
 -17.160  0.2082E-04  0.4304E-06
 -17.150  0.3172E-04  0.7476E-06
 -17.140  0.4785E-04  0.1226E-05
 -17.130  0.7146E-04  0.1941E-05
 -17.120  0.1057E-03  0.2997E-05
 -17.110  0.1547E-03  0.4544E-05
 -17.100  0.2243E-03  0.6788E-05
 -17.090  0.3221E-03  0.1001E-04
 -17.080  0.4582E-03  0.1459E-04
 -17.070  0.6456E-03  0.2105E-04
 -17.060  0.9012E-03  0.3006E-04
 -17.050  0.1246E-02  0.4252E-04
 -17.040  0.1709E-02  0.5961E-04
 -17.030  0.2321E-02  0.8282E-04
 -17.020  0.3126E-02  0.1141E-03
 -17.010  0.4174E-02  0.1558E-03
 -17.000  0.5526E-02  0.2111E-03
 -16.990  0.7256E-02  0.2836E-03
 -16.980  0.9451E-02  0.3781E-03
 -16.970  0.1221E-01  0.5003E-03
 -16.960  0.1566E-01  0.6569E-03
 -16.950  0.1993E-01  0.8562E-03
 -16.940  0.2518E-01  0.1108E-02
 -16.930  0.3158E-01  0.1424E-02
 -16.920  0.3933E-01  0.1817E-02
 -16.910  0.4865E-01  0.2304E-02
 -16.900  0.5977E-01  0.2901E-02
 -16.890  0.7294E-01  0.3631E-02
 -16.880  0.8843E-01  0.4515E-02
 -16.870  0.1065E+00  0.5580E-02
 -16.860  0.1275E+00  0.6855E-02
 -16.850  0.1516E+00  0.8371E-02
 -16.840  0.1792E+00  0.1016E-01
 -16.830  0.2104E+00  0.1227E-01
 -16.820  0.2456E+00  0.1472E-01
 -16.810  0.2848E+00  0.1757E-01
 -16.800  0.3282E+00  0.2085E-01
 -16.790  0.3757E+00  0.2461E-01
 -16.780  0.4275E+00  0.2889E-01
 -16.770  0.4832E+00  0.3372E-01
 -16.760  0.5427E+00  0.3914E-01
 -16.750  0.6056E+00  0.4520E-01
 -16.740  0.6713E+00  0.5191E-01
 -16.730  0.7394E+00  0.5931E-01
 -16.720  0.8091E+00  0.6740E-01
 -16.710  0.8798E+00  0.7620E-01
 -16.700  0.9506E+00  0.8570E-01
 -16.690  0.1021E+01  0.9591E-01
 -16.680  0.1089E+01  0.1068E+00
 -16.670  0.1156E+01  0.1184E+00
 -16.660  0.1220E+01  0.1306E+00
 -16.650  0.1282E+01  0.1434E+00
 -16.640  0.1340E+01  0.1568E+00
 -16.630  0.1395E+01  0.1707E+00
 -16.620  0.1448E+01  0.1852E+00
 -16.610  0.1498E+01  0.2002E+00
 -16.600  0.1548E+01  0.2157E+00
 -16.590  0.1598E+01  0.2317E+00
 -16.580  0.1650E+01  0.2482E+00
 -16.570  0.1705E+01  0.2652E+00
 -16.560  0.1765E+01  0.2829E+00
 -16.550  0.1832E+01  0.3012E+00
 -16.540  0.1906E+01  0.3202E+00
 -16.530  0.1990E+01  0.3401E+00
 -16.520  0.2083E+01  0.3610E+00
 -16.510  0.2188E+01  0.3828E+00
 -16.500  0.2304E+01  0.4059E+00
 -16.490  0.2431E+01  0.4302E+00
 -16.480  0.2568E+01  0.4559E+00
 -16.470  0.2713E+01  0.4830E+00
 -16.460  0.2867E+01  0.5117E+00
 -16.450  0.3026E+01  0.5419E+00
 -16.440  0.3188E+01  0.5738E+00
 -16.430  0.3352E+01  0.6073E+00
 -16.420  0.3514E+01  0.6425E+00
 -16.410  0.3673E+01  0.6792E+00
 -16.400  0.3827E+01  0.7175E+00
 -16.390  0.3974E+01  0.7572E+00
 -16.380  0.4112E+01  0.7983E+00
 -16.370  0.4239E+01  0.8407E+00
 -16.360  0.4356E+01  0.8843E+00
 -16.350  0.4462E+01  0.9289E+00
 -16.340  0.4555E+01  0.9744E+00
 -16.330  0.4635E+01  0.1021E+01
 -16.320  0.4703E+01  0.1068E+01
 -16.310  0.4758E+01  0.1115E+01
 -16.300  0.4800E+01  0.1163E+01
 -16.290  0.4827E+01  0.1212E+01
 -16.280  0.4841E+01  0.1260E+01
 -16.270  0.4840E+01  0.1308E+01
 -16.260  0.4823E+01  0.1357E+01
 -16.250  0.4791E+01  0.1405E+01
 -16.240  0.4743E+01  0.1452E+01
 -16.230  0.4678E+01  0.1499E+01
 -16.220  0.4597E+01  0.1545E+01
 -16.210  0.4500E+01  0.1590E+01
 -16.200  0.4388E+01  0.1634E+01
 -16.190  0.4261E+01  0.1676E+01
 -16.180  0.4122E+01  0.1718E+01
 -16.170  0.3973E+01  0.1757E+01
 -16.160  0.3815E+01  0.1795E+01
 -16.150  0.3652E+01  0.1832E+01
 -16.140  0.3487E+01  0.1867E+01
 -16.130  0.3321E+01  0.1900E+01
 -16.120  0.3159E+01  0.1932E+01
 -16.110  0.3003E+01  0.1962E+01
 -16.100  0.2855E+01  0.1990E+01
 -16.090  0.2719E+01  0.2017E+01
 -16.080  0.2597E+01  0.2043E+01
 -16.070  0.2490E+01  0.2068E+01
 -16.060  0.2400E+01  0.2092E+01
 -16.050  0.2329E+01  0.2116E+01
 -16.040  0.2277E+01  0.2138E+01
 -16.030  0.2245E+01  0.2161E+01
 -16.020  0.2233E+01  0.2183E+01
 -16.010  0.2241E+01  0.2205E+01
 -16.000  0.2269E+01  0.2228E+01
 -15.990  0.2316E+01  0.2251E+01
 -15.980  0.2381E+01  0.2275E+01
 -15.970  0.2462E+01  0.2300E+01
 -15.960  0.2559E+01  0.2325E+01
 -15.950  0.2668E+01  0.2352E+01
 -15.940  0.2790E+01  0.2380E+01
 -15.930  0.2921E+01  0.2409E+01
 -15.920  0.3060E+01  0.2440E+01
 -15.910  0.3204E+01  0.2472E+01
 -15.900  0.3352E+01  0.2505E+01
 -15.890  0.3502E+01  0.2540E+01
 -15.880  0.3652E+01  0.2577E+01
 -15.870  0.3800E+01  0.2615E+01
 -15.860  0.3945E+01  0.2654E+01
 -15.850  0.4086E+01  0.2695E+01
 -15.840  0.4220E+01  0.2737E+01
 -15.830  0.4346E+01  0.2781E+01
 -15.820  0.4464E+01  0.2825E+01
 -15.810  0.4570E+01  0.2871E+01
 -15.800  0.4664E+01  0.2918E+01
 -15.790  0.4744E+01  0.2965E+01
 -15.780  0.4807E+01  0.3013E+01
 -15.770  0.4853E+01  0.3062E+01
 -15.760  0.4878E+01  0.3111E+01
 -15.750  0.4881E+01  0.3159E+01
 -15.740  0.4860E+01  0.3208E+01
 -15.730  0.4815E+01  0.3256E+01
 -15.720  0.4745E+01  0.3304E+01
 -15.710  0.4649E+01  0.3350E+01
 -15.700  0.4527E+01  0.3395E+01
 -15.690  0.4381E+01  0.3439E+01
 -15.680  0.4213E+01  0.3481E+01
 -15.670  0.4025E+01  0.3522E+01
 -15.660  0.3819E+01  0.3560E+01
 -15.650  0.3599E+01  0.3596E+01
 -15.640  0.3369E+01  0.3629E+01
 -15.630  0.3134E+01  0.3661E+01
 -15.620  0.2896E+01  0.3690E+01
 -15.610  0.2661E+01  0.3716E+01
 -15.600  0.2432E+01  0.3741E+01
 -15.590  0.2214E+01  0.3763E+01
 -15.580  0.2009E+01  0.3783E+01
 -15.570  0.1820E+01  0.3801E+01
 -15.560  0.1650E+01  0.3818E+01
 -15.550  0.1502E+01  0.3833E+01
 -15.540  0.1375E+01  0.3846E+01
 -15.530  0.1273E+01  0.3859E+01
 -15.520  0.1194E+01  0.3871E+01
 -15.510  0.1139E+01  0.3882E+01
 -15.500  0.1108E+01  0.3894E+01
 -15.490  0.1100E+01  0.3905E+01
 -15.480  0.1114E+01  0.3916E+01
 -15.470  0.1148E+01  0.3927E+01
 -15.460  0.1203E+01  0.3939E+01
 -15.450  0.1276E+01  0.3952E+01
 -15.440  0.1365E+01  0.3966E+01
 -15.430  0.1471E+01  0.3980E+01
 -15.420  0.1591E+01  0.3996E+01
 -15.410  0.1724E+01  0.4013E+01
 -15.400  0.1870E+01  0.4032E+01
 -15.390  0.2028E+01  0.4052E+01
 -15.380  0.2197E+01  0.4074E+01
 -15.370  0.2377E+01  0.4098E+01
 -15.360  0.2567E+01  0.4124E+01
 -15.350  0.2766E+01  0.4151E+01
 -15.340  0.2974E+01  0.4181E+01
 -15.330  0.3189E+01  0.4213E+01
 -15.320  0.3409E+01  0.4247E+01
 -15.310  0.3633E+01  0.4284E+01
 -15.300  0.3858E+01  0.4322E+01
 -15.290  0.4081E+01  0.4363E+01
 -15.280  0.4299E+01  0.4406E+01
 -15.270  0.4507E+01  0.4451E+01
 -15.260  0.4701E+01  0.4498E+01
 -15.250  0.4878E+01  0.4547E+01
 -15.240  0.5033E+01  0.4597E+01
 -15.230  0.5162E+01  0.4649E+01
 -15.220  0.5261E+01  0.4701E+01
 -15.210  0.5328E+01  0.4755E+01
 -15.200  0.5361E+01  0.4808E+01
 -15.190  0.5359E+01  0.4862E+01
 -15.180  0.5321E+01  0.4915E+01
 -15.170  0.5248E+01  0.4968E+01
 -15.160  0.5143E+01  0.5019E+01
 -15.150  0.5008E+01  0.5069E+01
 -15.140  0.4846E+01  0.5117E+01
 -15.130  0.4661E+01  0.5164E+01
 -15.120  0.4459E+01  0.5209E+01
 -15.110  0.4243E+01  0.5251E+01
 -15.100  0.4019E+01  0.5291E+01
 -15.090  0.3790E+01  0.5329E+01
 -15.080  0.3562E+01  0.5365E+01
 -15.070  0.3338E+01  0.5398E+01
 -15.060  0.3121E+01  0.5429E+01
 -15.050  0.2915E+01  0.5459E+01
 -15.040  0.2720E+01  0.5486E+01
 -15.030  0.2539E+01  0.5511E+01
 -15.020  0.2372E+01  0.5535E+01
 -15.010  0.2221E+01  0.5557E+01
 -15.000  0.2085E+01  0.5578E+01
 -14.990  0.1965E+01  0.5598E+01
 -14.980  0.1861E+01  0.5616E+01
 -14.970  0.1773E+01  0.5634E+01
 -14.960  0.1700E+01  0.5651E+01
 -14.950  0.1643E+01  0.5667E+01
 -14.940  0.1604E+01  0.5683E+01
 -14.930  0.1582E+01  0.5699E+01
 -14.920  0.1580E+01  0.5715E+01
 -14.910  0.1599E+01  0.5731E+01
 -14.900  0.1642E+01  0.5747E+01
 -14.890  0.1713E+01  0.5765E+01
 -14.880  0.1815E+01  0.5783E+01
 -14.870  0.1954E+01  0.5802E+01
 -14.860  0.2134E+01  0.5824E+01
 -14.850  0.2362E+01  0.5847E+01
 -14.840  0.2644E+01  0.5874E+01
 -14.830  0.2987E+01  0.5904E+01
 -14.820  0.3399E+01  0.5938E+01
 -14.810  0.3886E+01  0.5976E+01
 -14.800  0.4455E+01  0.6021E+01
 -14.790  0.5112E+01  0.6072E+01
 -14.780  0.5860E+01  0.6131E+01
 -14.770  0.6702E+01  0.6198E+01
 -14.760  0.7639E+01  0.6274E+01
 -14.750  0.8668E+01  0.6361E+01
 -14.740  0.9782E+01  0.6459E+01
 -14.730  0.1097E+02  0.6568E+01
 -14.720  0.1222E+02  0.6690E+01
 -14.710  0.1352E+02  0.6826E+01
 -14.700  0.1484E+02  0.6974E+01
 -14.690  0.1616E+02  0.7136E+01
 -14.680  0.1746E+02  0.7310E+01
 -14.670  0.1870E+02  0.7497E+01
 -14.660  0.1986E+02  0.7696E+01
 -14.650  0.2090E+02  0.7905E+01
 -14.640  0.2181E+02  0.8123E+01
 -14.630  0.2255E+02  0.8348E+01
 -14.620  0.2310E+02  0.8579E+01
 -14.610  0.2345E+02  0.8814E+01
 -14.600  0.2359E+02  0.9050E+01
 -14.590  0.2351E+02  0.9285E+01
 -14.580  0.2321E+02  0.9517E+01
 -14.570  0.2270E+02  0.9744E+01
 -14.560  0.2200E+02  0.9964E+01
 -14.550  0.2112E+02  0.1018E+02
 -14.540  0.2008E+02  0.1038E+02
 -14.530  0.1891E+02  0.1057E+02
 -14.520  0.1764E+02  0.1074E+02
 -14.510  0.1630E+02  0.1090E+02
 -14.500  0.1491E+02  0.1105E+02
 -14.490  0.1352E+02  0.1119E+02
 -14.480  0.1213E+02  0.1131E+02
 -14.470  0.1079E+02  0.1142E+02
 -14.460  0.9499E+01  0.1151E+02
 -14.450  0.8283E+01  0.1160E+02
 -14.440  0.7153E+01  0.1167E+02
 -14.430  0.6117E+01  0.1173E+02
 -14.420  0.5180E+01  0.1178E+02
 -14.410  0.4344E+01  0.1182E+02
 -14.400  0.3608E+01  0.1186E+02
 -14.390  0.2967E+01  0.1189E+02
 -14.380  0.2416E+01  0.1191E+02
 -14.370  0.1948E+01  0.1193E+02
 -14.360  0.1555E+01  0.1195E+02
 -14.350  0.1229E+01  0.1196E+02
 -14.340  0.9620E+00  0.1197E+02
 -14.330  0.7455E+00  0.1198E+02
 -14.320  0.5720E+00  0.1198E+02
 -14.310  0.4345E+00  0.1199E+02
 -14.300  0.3268E+00  0.1199E+02
 -14.290  0.2434E+00  0.1199E+02
 -14.280  0.1794E+00  0.1200E+02
 -14.270  0.1309E+00  0.1200E+02
 -14.260  0.9461E-01  0.1200E+02
 -14.250  0.6768E-01  0.1200E+02
 -14.240  0.4793E-01  0.1200E+02
 -14.230  0.3360E-01  0.1200E+02
 -14.220  0.2332E-01  0.1200E+02
 -14.210  0.1602E-01  0.1200E+02
 -14.200  0.1090E-01  0.1200E+02
 -14.190  0.7336E-02  0.1200E+02
 -14.180  0.4889E-02  0.1200E+02
 -14.170  0.3226E-02  0.1200E+02
 -14.160  0.2106E-02  0.1200E+02
 -14.150  0.1362E-02  0.1200E+02
 -14.140  0.8714E-03  0.1200E+02
 -14.130  0.5520E-03  0.1200E+02
 -14.120  0.3461E-03  0.1200E+02
 -14.110  0.2148E-03  0.1200E+02
 -14.100  0.1320E-03  0.1200E+02
 -14.090  0.8024E-04  0.1200E+02
 -14.080  0.4830E-04  0.1200E+02
 -14.070  0.2877E-04  0.1200E+02
 -14.060  0.1697E-04  0.1200E+02
 -14.050  0.9904E-05  0.1200E+02
 -14.040  0.5722E-05  0.1200E+02
 -14.030  0.3272E-05  0.1200E+02
 -14.020  0.1852E-05  0.1200E+02
 -14.010  0.1037E-05  0.1200E+02
 -14.000  0.5752E-06  0.1200E+02
 -13.990  0.3157E-06  0.1200E+02
 -13.980  0.1715E-06  0.1200E+02
 -13.970  0.9218E-07  0.1200E+02
 -13.960  0.4905E-07  0.1200E+02
 -13.950  0.2583E-07  0.1200E+02
 -13.940  0.1346E-07  0.1200E+02
 -13.930  0.6945E-08  0.1200E+02
 -13.920  0.3546E-08  0.1200E+02
 -13.910  0.1792E-08  0.1200E+02
 -13.900  0.8962E-09  0.1200E+02
 -13.890  0.4436E-09  0.1200E+02
 -13.880  0.2173E-09  0.1200E+02
 -13.870  0.1054E-09  0.1200E+02
 -13.860  0.5056E-10  0.1200E+02
 -13.850  0.2401E-10  0.1200E+02
 -13.840  0.1129E-10  0.1200E+02
 -13.830  0.5250E-11  0.1200E+02
 -13.820  0.2417E-11  0.1200E+02
 -13.810  0.1101E-11  0.1200E+02
 -13.800  0.4964E-12  0.1200E+02
 -13.790  0.2215E-12  0.1200E+02
 -13.780  0.9783E-13  0.1200E+02
 -13.770  0.4276E-13  0.1200E+02
 -13.760  0.1849E-13  0.1200E+02
 -13.750  0.7915E-14  0.1200E+02
 -13.740  0.3353E-14  0.1200E+02
 -13.730  0.1406E-14  0.1200E+02
 -13.720  0.5831E-15  0.1200E+02
 -13.710  0.2394E-15  0.1200E+02
 -13.700  0.9727E-16  0.1200E+02
 -13.690  0.3911E-16  0.1200E+02
 -13.680  0.1556E-16  0.1200E+02
 -13.670  0.6127E-17  0.1200E+02
 -13.660  0.2388E-17  0.1200E+02
 -13.650  0.9207E-18  0.1200E+02
 -13.640  0.3513E-18  0.1200E+02
 -13.630  0.1327E-18  0.1200E+02
 -13.620  0.4958E-19  0.1200E+02
 -13.610  0.1833E-19  0.1200E+02
 -13.600  0.6709E-20  0.1200E+02
 -13.590  0.2429E-20  0.1200E+02
 -13.580  0.8705E-21  0.1200E+02
 -13.570  0.3087E-21  0.1200E+02
 -13.560  0.1083E-21  0.1200E+02
 -13.550  0.3761E-22  0.1200E+02
 -13.540  0.1292E-22  0.1200E+02
 -13.530  0.4394E-23  0.1200E+02
 -13.520  0.1478E-23  0.1200E+02
 -13.510  0.4922E-24  0.1200E+02
 -13.500  0.1621E-24  0.1200E+02
 -13.490  0.5286E-25  0.1200E+02
 -13.480  0.1705E-25  0.1200E+02
 -13.470  0.5442E-26  0.1200E+02
 -13.460  0.1719E-26  0.1200E+02
 -13.450  0.5372E-27  0.1200E+02
 -13.440  0.1661E-27  0.1200E+02
 -13.430  0.5084E-28  0.1200E+02
 -13.420  0.1539E-28  0.1200E+02
 -13.410  0.4612E-29  0.1200E+02
 -13.400  0.1367E-29  0.1200E+02
 -13.390  0.4011E-30  0.1200E+02
 -13.380  0.1164E-30  0.1200E+02
 -13.370  0.3344E-31  0.1200E+02
 -13.360  0.9502E-32  0.1200E+02
 -13.350  0.2672E-32  0.1200E+02
 -13.340  0.7434E-33  0.1200E+02
 -13.330  0.2047E-33  0.1200E+02
 -13.320  0.5575E-34  0.1200E+02
 -13.310  0.1503E-34  0.1200E+02
 -13.300  0.4007E-35  0.1200E+02
 -13.290  0.1057E-35  0.1200E+02
 -13.280  0.2761E-36  0.1200E+02
 -13.270  0.7131E-37  0.1200E+02
 -13.260  0.1823E-37  0.1200E+02
 -13.250  0.4610E-38  0.1200E+02
 -13.240  0.1154E-38  0.1200E+02
 -13.230  0.2856E-39  0.1200E+02
 -13.220  0.6996E-40  0.1200E+02
 -13.210  0.1696E-40  0.1200E+02
 -13.200  0.4067E-41  0.1200E+02
 -13.190  0.9649E-42  0.1200E+02
 -13.180  0.2265E-42  0.1200E+02
 -13.170  0.5262E-43  0.1200E+02
 -13.160  0.1209E-43  0.1200E+02
 -13.150  0.2750E-44  0.1200E+02
 -13.140  0.6186E-45  0.1200E+02
 -13.130  0.1377E-45  0.1200E+02
 -13.120  0.3033E-46  0.1200E+02
 -13.110  0.6608E-47  0.1200E+02
 -13.100  0.1425E-47  0.1200E+02
 -13.090  0.3039E-48  0.1200E+02
 -13.080  0.6413E-49  0.1200E+02
 -13.070  0.1339E-49  0.1200E+02
 -13.060  0.2766E-50  0.1200E+02
 -13.050  0.5654E-51  0.1200E+02
 -13.040  0.1143E-51  0.1200E+02
 -13.030  0.2287E-52  0.1200E+02
 -13.020  0.4528E-53  0.1200E+02
 -13.010  0.8867E-54  0.1200E+02
 -13.000  0.1718E-54  0.1200E+02
 -12.990  0.3294E-55  0.1200E+02
 -12.980  0.6247E-56  0.1200E+02
 -12.970  0.1172E-56  0.1200E+02
 -12.960  0.2176E-57  0.1200E+02
 -12.950  0.3997E-58  0.1200E+02
 -12.940  0.7263E-59  0.1200E+02
 -12.930  0.1306E-59  0.1200E+02
 -12.920  0.2323E-60  0.1200E+02
 -12.910  0.4088E-61  0.1200E+02
 -12.900  0.7117E-62  0.1200E+02
 -12.890  0.1226E-62  0.1200E+02
 -12.880  0.2089E-63  0.1200E+02
 -12.870  0.3522E-64  0.1200E+02
 -12.860  0.5875E-65  0.1200E+02
 -12.850  0.9696E-66  0.1200E+02
 -12.840  0.1583E-66  0.1200E+02
 -12.830  0.2557E-67  0.1200E+02
 -12.820  0.4086E-68  0.1200E+02
 -12.810  0.6460E-69  0.1200E+02
 -12.800  0.1010E-69  0.1200E+02
 -12.790  0.1564E-70  0.1200E+02
 -12.780  0.2394E-71  0.1200E+02
 -12.770  0.3626E-72  0.1200E+02
 -12.760  0.5433E-73  0.1200E+02
 -12.750  0.8055E-74  0.1200E+02
 -12.740  0.1181E-74  0.1200E+02
 -12.730  0.1714E-75  0.1200E+02
 -12.720  0.2461E-76  0.1200E+02
 -12.710  0.3495E-77  0.1200E+02
 -12.700  0.4910E-78  0.1200E+02
 -12.690  0.6825E-79  0.1200E+02
 -12.680  0.9386E-80  0.1200E+02
 -12.670  0.1277E-80  0.1200E+02
 -12.660  0.1721E-81  0.1200E+02
 -12.650  0.2315E-82  0.1200E+02
 -12.640  0.3282E-83  0.1200E+02
 -12.630  0.6643E-84  0.1200E+02
 -12.620  0.3236E-84  0.1200E+02
 -12.610  0.2810E-84  0.1200E+02
 -12.600  0.2759E-84  0.1200E+02
 -12.590  0.2755E-84  0.1200E+02
 -12.580  0.2755E-84  0.1200E+02
 -12.570  0.2755E-84  0.1200E+02
 -12.560  0.2755E-84  0.1200E+02
 -12.550  0.2755E-84  0.1200E+02
 -12.540  0.2755E-84  0.1200E+02
 -12.530  0.2755E-84  0.1200E+02
 -12.520  0.2755E-84  0.1200E+02
 -12.510  0.2755E-84  0.1200E+02
 -12.500  0.2755E-84  0.1200E+02
 -12.490  0.2755E-84  0.1200E+02
 -12.480  0.2755E-84  0.1200E+02
 -12.470  0.2755E-84  0.1200E+02
 -12.460  0.2755E-84  0.1200E+02
 -12.450  0.2755E-84  0.1200E+02
 -12.440  0.2755E-84  0.1200E+02
 -12.430  0.2755E-84  0.1200E+02
 -12.420  0.2755E-84  0.1200E+02
 -12.410  0.2755E-84  0.1200E+02
 -12.400  0.2755E-84  0.1200E+02
 -12.390  0.2755E-84  0.1200E+02
 -12.380  0.2755E-84  0.1200E+02
 -12.370  0.2755E-84  0.1200E+02
 -12.360  0.2755E-84  0.1200E+02
 -12.350  0.2755E-84  0.1200E+02
 -12.340  0.2755E-84  0.1200E+02
 -12.330  0.2755E-84  0.1200E+02
 -12.320  0.2755E-84  0.1200E+02
 -12.310  0.2755E-84  0.1200E+02
 -12.300  0.2755E-84  0.1200E+02
 -12.290  0.2755E-84  0.1200E+02
 -12.280  0.2755E-84  0.1200E+02
 -12.270  0.2755E-84  0.1200E+02
 -12.260  0.2755E-84  0.1200E+02
 -12.250  0.2755E-84  0.1200E+02
 -12.240  0.2755E-84  0.1200E+02
 -12.230  0.2755E-84  0.1200E+02
 -12.220  0.2755E-84  0.1200E+02
 -12.210  0.2755E-84  0.1200E+02
 -12.200  0.2755E-84  0.1200E+02
 -12.190  0.2755E-84  0.1200E+02
 -12.180  0.2755E-84  0.1200E+02
 -12.170  0.2755E-84  0.1200E+02
 -12.160  0.2755E-84  0.1200E+02
 -12.150  0.2755E-84  0.1200E+02
 -12.140  0.2755E-84  0.1200E+02
 -12.130  0.2755E-84  0.1200E+02
 -12.120  0.2755E-84  0.1200E+02
 -12.110  0.2755E-84  0.1200E+02
 -12.100  0.2755E-84  0.1200E+02
 -12.090  0.2755E-84  0.1200E+02
 -12.080  0.2755E-84  0.1200E+02
 -12.070  0.2755E-84  0.1200E+02
 -12.060  0.2755E-84  0.1200E+02
 -12.050  0.2755E-84  0.1200E+02
 -12.040  0.2755E-84  0.1200E+02
 -12.030  0.2755E-84  0.1200E+02
 -12.020  0.2755E-84  0.1200E+02
 -12.010  0.2755E-84  0.1200E+02
 -12.000  0.2755E-84  0.1200E+02
 -11.990  0.2755E-84  0.1200E+02
 -11.980  0.2755E-84  0.1200E+02
 -11.970  0.2755E-84  0.1200E+02
 -11.960  0.2755E-84  0.1200E+02
 -11.950  0.2755E-84  0.1200E+02
 -11.940  0.2755E-84  0.1200E+02
 -11.930  0.2755E-84  0.1200E+02
 -11.920  0.2755E-84  0.1200E+02
 -11.910  0.2755E-84  0.1200E+02
 -11.900  0.2755E-84  0.1200E+02
 -11.890  0.2755E-84  0.1200E+02
 -11.880  0.2755E-84  0.1200E+02
 -11.870  0.2755E-84  0.1200E+02
 -11.860  0.2755E-84  0.1200E+02
 -11.850  0.2755E-84  0.1200E+02
 -11.840  0.2755E-84  0.1200E+02
 -11.830  0.2755E-84  0.1200E+02
 -11.820  0.2755E-84  0.1200E+02
 -11.810  0.2755E-84  0.1200E+02
 -11.800  0.2755E-84  0.1200E+02
 -11.790  0.2755E-84  0.1200E+02
 -11.780  0.2755E-84  0.1200E+02
 -11.770  0.2755E-84  0.1200E+02
 -11.760  0.2755E-84  0.1200E+02
 -11.750  0.2755E-84  0.1200E+02
 -11.740  0.2755E-84  0.1200E+02
 -11.730  0.2755E-84  0.1200E+02
 -11.720  0.2755E-84  0.1200E+02
 -11.710  0.2755E-84  0.1200E+02
 -11.700  0.2755E-84  0.1200E+02
 -11.690  0.2755E-84  0.1200E+02
 -11.680  0.2755E-84  0.1200E+02
 -11.670  0.2755E-84  0.1200E+02
 -11.660  0.2755E-84  0.1200E+02
 -11.650  0.2755E-84  0.1200E+02
 -11.640  0.2755E-84  0.1200E+02
 -11.630  0.2755E-84  0.1200E+02
 -11.620  0.2755E-84  0.1200E+02
 -11.610  0.2755E-84  0.1200E+02
 -11.600  0.2755E-84  0.1200E+02
 -11.590  0.2755E-84  0.1200E+02
 -11.580  0.2755E-84  0.1200E+02
 -11.570  0.2755E-84  0.1200E+02
 -11.560  0.2755E-84  0.1200E+02
 -11.550  0.2755E-84  0.1200E+02
 -11.540  0.2755E-84  0.1200E+02
 -11.530  0.2755E-84  0.1200E+02
 -11.520  0.2755E-84  0.1200E+02
 -11.510  0.2755E-84  0.1200E+02
 -11.500  0.2755E-84  0.1200E+02
 -11.490  0.2755E-84  0.1200E+02
 -11.480  0.2755E-84  0.1200E+02
 -11.470  0.2755E-84  0.1200E+02
 -11.460  0.2755E-84  0.1200E+02
 -11.450  0.2755E-84  0.1200E+02
 -11.440  0.2755E-84  0.1200E+02
 -11.430  0.2755E-84  0.1200E+02
 -11.420  0.2755E-84  0.1200E+02
 -11.410  0.2755E-84  0.1200E+02
 -11.400  0.2755E-84  0.1200E+02
 -11.390  0.2755E-84  0.1200E+02
 -11.380  0.2755E-84  0.1200E+02
 -11.370  0.2755E-84  0.1200E+02
 -11.360  0.2755E-84  0.1200E+02
 -11.350  0.2755E-84  0.1200E+02
 -11.340  0.2755E-84  0.1200E+02
 -11.330  0.2755E-84  0.1200E+02
 -11.320  0.2755E-84  0.1200E+02
 -11.310  0.2755E-84  0.1200E+02
 -11.300  0.2755E-84  0.1200E+02
 -11.290  0.2755E-84  0.1200E+02
 -11.280  0.2755E-84  0.1200E+02
 -11.270  0.2755E-84  0.1200E+02
 -11.260  0.2755E-84  0.1200E+02
 -11.250  0.2755E-84  0.1200E+02
 -11.240  0.2755E-84  0.1200E+02
 -11.230  0.2755E-84  0.1200E+02
 -11.220  0.2755E-84  0.1200E+02
 -11.210  0.2755E-84  0.1200E+02
 -11.200  0.2755E-84  0.1200E+02
 -11.190  0.2755E-84  0.1200E+02
 -11.180  0.2755E-84  0.1200E+02
 -11.170  0.2755E-84  0.1200E+02
 -11.160  0.2755E-84  0.1200E+02
 -11.150  0.2755E-84  0.1200E+02
 -11.140  0.2755E-84  0.1200E+02
 -11.130  0.2755E-84  0.1200E+02
 -11.120  0.2755E-84  0.1200E+02
 -11.110  0.2755E-84  0.1200E+02
 -11.100  0.2755E-84  0.1200E+02
 -11.090  0.2755E-84  0.1200E+02
 -11.080  0.2755E-84  0.1200E+02
 -11.070  0.2755E-84  0.1200E+02
 -11.060  0.2755E-84  0.1200E+02
 -11.050  0.2755E-84  0.1200E+02
 -11.040  0.2755E-84  0.1200E+02
 -11.030  0.2755E-84  0.1200E+02
 -11.020  0.2755E-84  0.1200E+02
 -11.010  0.2755E-84  0.1200E+02
 -11.000  0.2755E-84  0.1200E+02
 -10.990  0.2755E-84  0.1200E+02
 -10.980  0.2755E-84  0.1200E+02
 -10.970  0.2755E-84  0.1200E+02
 -10.960  0.2755E-84  0.1200E+02
 -10.950  0.2755E-84  0.1200E+02
 -10.940  0.2755E-84  0.1200E+02
 -10.930  0.2755E-84  0.1200E+02
 -10.920  0.2755E-84  0.1200E+02
 -10.910  0.2755E-84  0.1200E+02
 -10.900  0.2755E-84  0.1200E+02
 -10.890  0.2755E-84  0.1200E+02
 -10.880  0.2755E-84  0.1200E+02
 -10.870  0.2755E-84  0.1200E+02
 -10.860  0.2755E-84  0.1200E+02
 -10.850  0.2755E-84  0.1200E+02
 -10.840  0.2755E-84  0.1200E+02
 -10.830  0.2755E-84  0.1200E+02
 -10.820  0.2755E-84  0.1200E+02
 -10.810  0.2755E-84  0.1200E+02
 -10.800  0.2755E-84  0.1200E+02
 -10.790  0.2755E-84  0.1200E+02
 -10.780  0.2755E-84  0.1200E+02
 -10.770  0.2755E-84  0.1200E+02
 -10.760  0.2755E-84  0.1200E+02
 -10.750  0.2755E-84  0.1200E+02
 -10.740  0.2755E-84  0.1200E+02
 -10.730  0.2755E-84  0.1200E+02
 -10.720  0.2755E-84  0.1200E+02
 -10.710  0.2755E-84  0.1200E+02
 -10.700  0.2755E-84  0.1200E+02
 -10.690  0.2755E-84  0.1200E+02
 -10.680  0.2755E-84  0.1200E+02
 -10.670  0.2755E-84  0.1200E+02
 -10.660  0.2755E-84  0.1200E+02
 -10.650  0.2755E-84  0.1200E+02
 -10.640  0.2755E-84  0.1200E+02
 -10.630  0.2755E-84  0.1200E+02
 -10.620  0.2755E-84  0.1200E+02
 -10.610  0.2755E-84  0.1200E+02
 -10.600  0.2755E-84  0.1200E+02
 -10.590  0.2755E-84  0.1200E+02
 -10.580  0.2755E-84  0.1200E+02
 -10.570  0.2755E-84  0.1200E+02
 -10.560  0.2755E-84  0.1200E+02
 -10.550  0.2755E-84  0.1200E+02
 -10.540  0.2755E-84  0.1200E+02
 -10.530  0.2755E-84  0.1200E+02
 -10.520  0.2755E-84  0.1200E+02
 -10.510  0.2755E-84  0.1200E+02
 -10.500  0.2755E-84  0.1200E+02
 -10.490  0.2755E-84  0.1200E+02
 -10.480  0.2755E-84  0.1200E+02
 -10.470  0.2755E-84  0.1200E+02
 -10.460  0.2755E-84  0.1200E+02
 -10.450  0.2755E-84  0.1200E+02
 -10.440  0.2755E-84  0.1200E+02
 -10.430  0.2755E-84  0.1200E+02
 -10.420  0.2755E-84  0.1200E+02
 -10.410  0.2755E-84  0.1200E+02
 -10.400  0.2755E-84  0.1200E+02
 -10.390  0.2755E-84  0.1200E+02
 -10.380  0.2755E-84  0.1200E+02
 -10.370  0.2755E-84  0.1200E+02
 -10.360  0.2755E-84  0.1200E+02
 -10.350  0.2755E-84  0.1200E+02
 -10.340  0.2755E-84  0.1200E+02
 -10.330  0.2755E-84  0.1200E+02
 -10.320  0.2755E-84  0.1200E+02
 -10.310  0.2755E-84  0.1200E+02
 -10.300  0.2755E-84  0.1200E+02
 -10.290  0.2755E-84  0.1200E+02
 -10.280  0.2755E-84  0.1200E+02
 -10.270  0.2755E-84  0.1200E+02
 -10.260  0.2755E-84  0.1200E+02
 -10.250  0.2755E-84  0.1200E+02
 -10.240  0.2755E-84  0.1200E+02
 -10.230  0.2755E-84  0.1200E+02
 -10.220  0.2755E-84  0.1200E+02
 -10.210  0.2755E-84  0.1200E+02
 -10.200  0.2755E-84  0.1200E+02
 -10.190  0.2755E-84  0.1200E+02
 -10.180  0.2755E-84  0.1200E+02
 -10.170  0.2755E-84  0.1200E+02
 -10.160  0.2755E-84  0.1200E+02
 -10.150  0.2755E-84  0.1200E+02
 -10.140  0.2755E-84  0.1200E+02
 -10.130  0.2755E-84  0.1200E+02
 -10.120  0.2755E-84  0.1200E+02
 -10.110  0.2755E-84  0.1200E+02
 -10.100  0.2755E-84  0.1200E+02
 -10.090  0.2755E-84  0.1200E+02
 -10.080  0.2755E-84  0.1200E+02
 -10.070  0.2755E-84  0.1200E+02
 -10.060  0.2755E-84  0.1200E+02
 -10.050  0.2755E-84  0.1200E+02
 -10.040  0.2755E-84  0.1200E+02
 -10.030  0.2755E-84  0.1200E+02
 -10.020  0.2755E-84  0.1200E+02
 -10.010  0.2755E-84  0.1200E+02
 -10.000  0.2755E-84  0.1200E+02
  -9.990  0.2755E-84  0.1200E+02
  -9.980  0.2755E-84  0.1200E+02
  -9.970  0.2755E-84  0.1200E+02
  -9.960  0.2755E-84  0.1200E+02
  -9.950  0.2755E-84  0.1200E+02
  -9.940  0.2755E-84  0.1200E+02
  -9.930  0.2755E-84  0.1200E+02
  -9.920  0.2755E-84  0.1200E+02
  -9.910  0.2755E-84  0.1200E+02
  -9.900  0.2755E-84  0.1200E+02
  -9.890  0.2755E-84  0.1200E+02
  -9.880  0.2755E-84  0.1200E+02
  -9.870  0.2755E-84  0.1200E+02
  -9.860  0.2755E-84  0.1200E+02
  -9.850  0.2755E-84  0.1200E+02
  -9.840  0.2755E-84  0.1200E+02
  -9.830  0.2755E-84  0.1200E+02
  -9.820  0.2755E-84  0.1200E+02
  -9.810  0.2755E-84  0.1200E+02
  -9.800  0.2755E-84  0.1200E+02
  -9.790  0.2755E-84  0.1200E+02
  -9.780  0.2755E-84  0.1200E+02
  -9.770  0.2755E-84  0.1200E+02
  -9.760  0.2755E-84  0.1200E+02
  -9.750  0.2755E-84  0.1200E+02
  -9.740  0.2755E-84  0.1200E+02
  -9.730  0.2755E-84  0.1200E+02
  -9.720  0.2755E-84  0.1200E+02
  -9.710  0.2755E-84  0.1200E+02
  -9.700  0.2755E-84  0.1200E+02
  -9.690  0.2755E-84  0.1200E+02
  -9.680  0.2755E-84  0.1200E+02
  -9.670  0.2755E-84  0.1200E+02
  -9.660  0.2755E-84  0.1200E+02
  -9.650  0.2755E-84  0.1200E+02
  -9.640  0.2755E-84  0.1200E+02
  -9.630  0.2755E-84  0.1200E+02
  -9.620  0.2755E-84  0.1200E+02
  -9.610  0.2755E-84  0.1200E+02
  -9.600  0.2755E-84  0.1200E+02
  -9.590  0.2755E-84  0.1200E+02
  -9.580  0.2755E-84  0.1200E+02
  -9.570  0.2755E-84  0.1200E+02
  -9.560  0.2755E-84  0.1200E+02
  -9.550  0.2755E-84  0.1200E+02
  -9.540  0.2755E-84  0.1200E+02
  -9.530  0.2755E-84  0.1200E+02
  -9.520  0.2755E-84  0.1200E+02
  -9.510  0.2755E-84  0.1200E+02
  -9.500  0.2755E-84  0.1200E+02
  -9.490  0.2755E-84  0.1200E+02
  -9.480  0.2755E-84  0.1200E+02
  -9.470  0.2755E-84  0.1200E+02
  -9.460  0.2755E-84  0.1200E+02
  -9.450  0.2755E-84  0.1200E+02
  -9.440  0.2755E-84  0.1200E+02
  -9.430  0.2755E-84  0.1200E+02
  -9.420  0.2755E-84  0.1200E+02
  -9.410  0.2755E-84  0.1200E+02
  -9.400  0.2755E-84  0.1200E+02
  -9.390  0.2755E-84  0.1200E+02
  -9.380  0.2755E-84  0.1200E+02
  -9.370  0.2755E-84  0.1200E+02
  -9.360  0.2755E-84  0.1200E+02
  -9.350  0.2755E-84  0.1200E+02
  -9.340  0.2755E-84  0.1200E+02
  -9.330  0.2755E-84  0.1200E+02
  -9.320  0.2755E-84  0.1200E+02
  -9.310  0.2755E-84  0.1200E+02
  -9.300  0.2755E-84  0.1200E+02
  -9.290  0.2755E-84  0.1200E+02
  -9.280  0.2755E-84  0.1200E+02
  -9.270  0.2755E-84  0.1200E+02
  -9.260  0.2755E-84  0.1200E+02
  -9.250  0.2755E-84  0.1200E+02
  -9.240  0.2755E-84  0.1200E+02
  -9.230  0.2755E-84  0.1200E+02
  -9.220  0.2755E-84  0.1200E+02
  -9.210  0.2755E-84  0.1200E+02
  -9.200  0.2755E-84  0.1200E+02
  -9.190  0.2755E-84  0.1200E+02
  -9.180  0.2755E-84  0.1200E+02
  -9.170  0.2755E-84  0.1200E+02
  -9.160  0.2755E-84  0.1200E+02
  -9.150  0.2755E-84  0.1200E+02
  -9.140  0.2755E-84  0.1200E+02
  -9.130  0.2755E-84  0.1200E+02
  -9.120  0.2755E-84  0.1200E+02
  -9.110  0.2755E-84  0.1200E+02
  -9.100  0.2755E-84  0.1200E+02
  -9.090  0.2755E-84  0.1200E+02
  -9.080  0.2755E-84  0.1200E+02
  -9.070  0.2755E-84  0.1200E+02
  -9.060  0.2755E-84  0.1200E+02
  -9.050  0.2755E-84  0.1200E+02
  -9.040  0.2755E-84  0.1200E+02
  -9.030  0.2755E-84  0.1200E+02
  -9.020  0.2755E-84  0.1200E+02
  -9.010  0.2755E-84  0.1200E+02
  -9.000  0.2755E-84  0.1200E+02
  -8.990  0.2755E-84  0.1200E+02
  -8.980  0.2755E-84  0.1200E+02
  -8.970  0.2755E-84  0.1200E+02
  -8.960  0.2755E-84  0.1200E+02
  -8.950  0.2755E-84  0.1200E+02
  -8.940  0.2755E-84  0.1200E+02
  -8.930  0.2755E-84  0.1200E+02
  -8.920  0.2755E-84  0.1200E+02
  -8.910  0.2755E-84  0.1200E+02
  -8.900  0.2755E-84  0.1200E+02
  -8.890  0.2755E-84  0.1200E+02
  -8.880  0.2755E-84  0.1200E+02
  -8.870  0.2755E-84  0.1200E+02
  -8.860  0.2755E-84  0.1200E+02
  -8.850  0.2755E-84  0.1200E+02
  -8.840  0.2755E-84  0.1200E+02
  -8.830  0.2755E-84  0.1200E+02
  -8.820  0.2755E-84  0.1200E+02
  -8.810  0.2755E-84  0.1200E+02
  -8.800  0.2755E-84  0.1200E+02
  -8.790  0.2755E-84  0.1200E+02
  -8.780  0.2755E-84  0.1200E+02
  -8.770  0.2755E-84  0.1200E+02
  -8.760  0.2755E-84  0.1200E+02
  -8.750  0.2755E-84  0.1200E+02
  -8.740  0.2755E-84  0.1200E+02
  -8.730  0.2755E-84  0.1200E+02
  -8.720  0.2755E-84  0.1200E+02
  -8.710  0.2755E-84  0.1200E+02
  -8.700  0.2755E-84  0.1200E+02
  -8.690  0.2755E-84  0.1200E+02
  -8.680  0.2755E-84  0.1200E+02
  -8.670  0.2755E-84  0.1200E+02
  -8.660  0.2755E-84  0.1200E+02
  -8.650  0.2759E-84  0.1200E+02
  -8.640  0.2801E-84  0.1200E+02
  -8.630  0.3132E-84  0.1200E+02
  -8.620  0.5687E-84  0.1200E+02
  -8.610  0.2520E-83  0.1200E+02
  -8.600  0.1726E-82  0.1200E+02
  -8.590  0.1275E-81  0.1200E+02
  -8.580  0.9423E-81  0.1200E+02
  -8.570  0.6902E-80  0.1200E+02
  -8.560  0.5003E-79  0.1200E+02
  -8.550  0.3587E-78  0.1200E+02
  -8.540  0.2544E-77  0.1200E+02
  -8.530  0.1785E-76  0.1200E+02
  -8.520  0.1239E-75  0.1200E+02
  -8.510  0.8510E-75  0.1200E+02
  -8.500  0.5781E-74  0.1200E+02
  -8.490  0.3885E-73  0.1200E+02
  -8.480  0.2583E-72  0.1200E+02
  -8.470  0.1698E-71  0.1200E+02
  -8.460  0.1105E-70  0.1200E+02
  -8.450  0.7112E-70  0.1200E+02
  -8.440  0.4528E-69  0.1200E+02
  -8.430  0.2852E-68  0.1200E+02
  -8.420  0.1777E-67  0.1200E+02
  -8.410  0.1095E-66  0.1200E+02
  -8.400  0.6678E-66  0.1200E+02
  -8.390  0.4028E-65  0.1200E+02
  -8.380  0.2404E-64  0.1200E+02
  -8.370  0.1419E-63  0.1200E+02
  -8.360  0.8285E-63  0.1200E+02
  -8.350  0.4786E-62  0.1200E+02
  -8.340  0.2735E-61  0.1200E+02
  -8.330  0.1546E-60  0.1200E+02
  -8.320  0.8648E-60  0.1200E+02
  -8.310  0.4784E-59  0.1200E+02
  -8.300  0.2618E-58  0.1200E+02
  -8.290  0.1418E-57  0.1200E+02
  -8.280  0.7593E-57  0.1200E+02
  -8.270  0.4023E-56  0.1200E+02
  -8.260  0.2109E-55  0.1200E+02
  -8.250  0.1093E-54  0.1200E+02
  -8.240  0.5609E-54  0.1200E+02
  -8.230  0.2846E-53  0.1200E+02
  -8.220  0.1429E-52  0.1200E+02
  -8.210  0.7095E-52  0.1200E+02
  -8.200  0.3485E-51  0.1200E+02
  -8.190  0.1694E-50  0.1200E+02
  -8.180  0.8143E-50  0.1200E+02
  -8.170  0.3873E-49  0.1200E+02
  -8.160  0.1822E-48  0.1200E+02
  -8.150  0.8480E-48  0.1200E+02
  -8.140  0.3904E-47  0.1200E+02
  -8.130  0.1778E-46  0.1200E+02
  -8.120  0.8013E-46  0.1200E+02
  -8.110  0.3571E-45  0.1200E+02
  -8.100  0.1575E-44  0.1200E+02
  -8.090  0.6869E-44  0.1200E+02
  -8.080  0.2964E-43  0.1200E+02
  -8.070  0.1265E-42  0.1200E+02
  -8.060  0.5344E-42  0.1200E+02
  -8.050  0.2232E-41  0.1200E+02
  -8.040  0.9226E-41  0.1200E+02
  -8.030  0.3772E-40  0.1200E+02
  -8.020  0.1525E-39  0.1200E+02
  -8.010  0.6103E-39  0.1200E+02
  -8.000  0.2415E-38  0.1200E+02
  -7.990  0.9457E-38  0.1200E+02
  -7.980  0.3663E-37  0.1200E+02
  -7.970  0.1404E-36  0.1200E+02
  -7.960  0.5320E-36  0.1200E+02
  -7.950  0.1995E-35  0.1200E+02
  -7.940  0.7400E-35  0.1200E+02
  -7.930  0.2716E-34  0.1200E+02
  -7.920  0.9858E-34  0.1200E+02
  -7.910  0.3540E-33  0.1200E+02
  -7.900  0.1258E-32  0.1200E+02
  -7.890  0.4420E-32  0.1200E+02
  -7.880  0.1537E-31  0.1200E+02
  -7.870  0.5285E-31  0.1200E+02
  -7.860  0.1798E-30  0.1200E+02
  -7.850  0.6052E-30  0.1200E+02
  -7.840  0.2015E-29  0.1200E+02
  -7.830  0.6637E-29  0.1200E+02
  -7.820  0.2163E-28  0.1200E+02
  -7.810  0.6971E-28  0.1200E+02
  -7.800  0.2223E-27  0.1200E+02
  -7.790  0.7012E-27  0.1200E+02
  -7.780  0.2188E-26  0.1200E+02
  -7.770  0.6754E-26  0.1200E+02
  -7.760  0.2063E-25  0.1200E+02
  -7.750  0.6232E-25  0.1200E+02
  -7.740  0.1862E-24  0.1200E+02
  -7.730  0.5506E-24  0.1200E+02
  -7.720  0.1610E-23  0.1200E+02
  -7.710  0.4659E-23  0.1200E+02
  -7.700  0.1334E-22  0.1200E+02
  -7.690  0.3776E-22  0.1200E+02
  -7.680  0.1058E-21  0.1200E+02
  -7.670  0.2931E-21  0.1200E+02
  -7.660  0.8033E-21  0.1200E+02
  -7.650  0.2178E-20  0.1200E+02
  -7.640  0.5843E-20  0.1200E+02
  -7.630  0.1551E-19  0.1200E+02
  -7.620  0.4071E-19  0.1200E+02
  -7.610  0.1057E-18  0.1200E+02
  -7.600  0.2716E-18  0.1200E+02
  -7.590  0.6902E-18  0.1200E+02
  -7.580  0.1735E-17  0.1200E+02
  -7.570  0.4316E-17  0.1200E+02
  -7.560  0.1062E-16  0.1200E+02
  -7.550  0.2585E-16  0.1200E+02
  -7.540  0.6223E-16  0.1200E+02
  -7.530  0.1482E-15  0.1200E+02
  -7.520  0.3493E-15  0.1200E+02
  -7.510  0.8142E-15  0.1200E+02
  -7.500  0.1878E-14  0.1200E+02
  -7.490  0.4283E-14  0.1200E+02
  -7.480  0.9666E-14  0.1200E+02
  -7.470  0.2158E-13  0.1200E+02
  -7.460  0.4765E-13  0.1200E+02
  -7.450  0.1041E-12  0.1200E+02
  -7.440  0.2250E-12  0.1200E+02
  -7.430  0.4811E-12  0.1200E+02
  -7.420  0.1017E-11  0.1200E+02
  -7.410  0.2129E-11  0.1200E+02
  -7.400  0.4406E-11  0.1200E+02
  -7.390  0.9022E-11  0.1200E+02
  -7.380  0.1827E-10  0.1200E+02
  -7.370  0.3662E-10  0.1200E+02
  -7.360  0.7259E-10  0.1200E+02
  -7.350  0.1423E-09  0.1200E+02
  -7.340  0.2761E-09  0.1200E+02
  -7.330  0.5299E-09  0.1200E+02
  -7.320  0.1006E-08  0.1200E+02
  -7.310  0.1889E-08  0.1200E+02
  -7.300  0.3510E-08  0.1200E+02
  -7.290  0.6451E-08  0.1200E+02
  -7.280  0.1173E-07  0.1200E+02
  -7.270  0.2110E-07  0.1200E+02
  -7.260  0.3754E-07  0.1200E+02
  -7.250  0.6607E-07  0.1200E+02
  -7.240  0.1150E-06  0.1200E+02
  -7.230  0.1982E-06  0.1200E+02
  -7.220  0.3377E-06  0.1200E+02
  -7.210  0.5692E-06  0.1200E+02
  -7.200  0.9492E-06  0.1200E+02
  -7.190  0.1566E-05  0.1200E+02
  -7.180  0.2555E-05  0.1200E+02
  -7.170  0.4125E-05  0.1200E+02
  -7.160  0.6589E-05  0.1200E+02
  -7.150  0.1041E-04  0.1200E+02
  -7.140  0.1627E-04  0.1200E+02
  -7.130  0.2515E-04  0.1200E+02
  -7.120  0.3847E-04  0.1200E+02
  -7.110  0.5821E-04  0.1200E+02
  -7.100  0.8713E-04  0.1200E+02
  -7.090  0.1290E-03  0.1200E+02
  -7.080  0.1890E-03  0.1200E+02
  -7.070  0.2739E-03  0.1200E+02
  -7.060  0.3926E-03  0.1200E+02
  -7.050  0.5567E-03  0.1200E+02
  -7.040  0.7810E-03  0.1200E+02
  -7.030  0.1084E-02  0.1200E+02
  -7.020  0.1488E-02  0.1200E+02
  -7.010  0.2021E-02  0.1200E+02
  -7.000  0.2715E-02  0.1200E+02
  -6.990  0.3609E-02  0.1200E+02
  -6.980  0.4745E-02  0.1200E+02
  -6.970  0.6172E-02  0.1200E+02
  -6.960  0.7941E-02  0.1200E+02
  -6.950  0.1011E-01  0.1200E+02
  -6.940  0.1273E-01  0.1200E+02
  -6.930  0.1586E-01  0.1200E+02
  -6.920  0.1954E-01  0.1200E+02
  -6.910  0.2382E-01  0.1200E+02
  -6.900  0.2873E-01  0.1200E+02
  -6.890  0.3429E-01  0.1200E+02
  -6.880  0.4047E-01  0.1200E+02
  -6.870  0.4727E-01  0.1200E+02
  -6.860  0.5462E-01  0.1200E+02
  -6.850  0.6244E-01  0.1200E+02
  -6.840  0.7063E-01  0.1200E+02
  -6.830  0.7906E-01  0.1201E+02
  -6.820  0.8758E-01  0.1201E+02
  -6.810  0.9604E-01  0.1201E+02
  -6.800  0.1042E+00  0.1201E+02
  -6.790  0.1121E+00  0.1201E+02
  -6.780  0.1193E+00  0.1201E+02
  -6.770  0.1259E+00  0.1201E+02
  -6.760  0.1317E+00  0.1201E+02
  -6.750  0.1368E+00  0.1201E+02
  -6.740  0.1411E+00  0.1202E+02
  -6.730  0.1448E+00  0.1202E+02
  -6.720  0.1480E+00  0.1202E+02
  -6.710  0.1510E+00  0.1202E+02
  -6.700  0.1542E+00  0.1202E+02
  -6.690  0.1579E+00  0.1202E+02
  -6.680  0.1626E+00  0.1203E+02
  -6.670  0.1689E+00  0.1203E+02
  -6.660  0.1773E+00  0.1203E+02
  -6.650  0.1883E+00  0.1203E+02
  -6.640  0.2025E+00  0.1203E+02
  -6.630  0.2203E+00  0.1203E+02
  -6.620  0.2421E+00  0.1204E+02
  -6.610  0.2682E+00  0.1204E+02
  -6.600  0.2988E+00  0.1204E+02
  -6.590  0.3337E+00  0.1205E+02
  -6.580  0.3729E+00  0.1205E+02
  -6.570  0.4158E+00  0.1205E+02
  -6.560  0.4620E+00  0.1206E+02
  -6.550  0.5105E+00  0.1206E+02
  -6.540  0.5606E+00  0.1207E+02
  -6.530  0.6110E+00  0.1208E+02
  -6.520  0.6606E+00  0.1208E+02
  -6.510  0.7081E+00  0.1209E+02
  -6.500  0.7524E+00  0.1210E+02
  -6.490  0.7921E+00  0.1210E+02
  -6.480  0.8263E+00  0.1211E+02
  -6.470  0.8539E+00  0.1212E+02
  -6.460  0.8745E+00  0.1213E+02
  -6.450  0.8873E+00  0.1214E+02
  -6.440  0.8924E+00  0.1215E+02
  -6.430  0.8899E+00  0.1216E+02
  -6.420  0.8802E+00  0.1217E+02
  -6.410  0.8639E+00  0.1217E+02
  -6.400  0.8421E+00  0.1218E+02
  -6.390  0.8158E+00  0.1219E+02
  -6.380  0.7866E+00  0.1220E+02
  -6.370  0.7556E+00  0.1221E+02
  -6.360  0.7245E+00  0.1221E+02
  -6.350  0.6948E+00  0.1222E+02
  -6.340  0.6677E+00  0.1223E+02
  -6.330  0.6445E+00  0.1223E+02
  -6.320  0.6263E+00  0.1224E+02
  -6.310  0.6140E+00  0.1225E+02
  -6.300  0.6081E+00  0.1225E+02
  -6.290  0.6091E+00  0.1226E+02
  -6.280  0.6169E+00  0.1226E+02
  -6.270  0.6314E+00  0.1227E+02
  -6.260  0.6521E+00  0.1228E+02
  -6.250  0.6784E+00  0.1228E+02
  -6.240  0.7095E+00  0.1229E+02
  -6.230  0.7444E+00  0.1230E+02
  -6.220  0.7821E+00  0.1231E+02
  -6.210  0.8217E+00  0.1231E+02
  -6.200  0.8621E+00  0.1232E+02
  -6.190  0.9028E+00  0.1233E+02
  -6.180  0.9429E+00  0.1234E+02
  -6.170  0.9824E+00  0.1235E+02
  -6.160  0.1021E+01  0.1236E+02
  -6.150  0.1059E+01  0.1237E+02
  -6.140  0.1097E+01  0.1238E+02
  -6.130  0.1135E+01  0.1239E+02
  -6.120  0.1175E+01  0.1241E+02
  -6.110  0.1219E+01  0.1242E+02
  -6.100  0.1266E+01  0.1243E+02
  -6.090  0.1319E+01  0.1244E+02
  -6.080  0.1380E+01  0.1246E+02
  -6.070  0.1449E+01  0.1247E+02
  -6.060  0.1528E+01  0.1249E+02
  -6.050  0.1618E+01  0.1250E+02
  -6.040  0.1720E+01  0.1252E+02
  -6.030  0.1835E+01  0.1254E+02
  -6.020  0.1962E+01  0.1256E+02
  -6.010  0.2102E+01  0.1258E+02
  -6.000  0.2254E+01  0.1260E+02
  -5.990  0.2418E+01  0.1263E+02
  -5.980  0.2590E+01  0.1265E+02
  -5.970  0.2771E+01  0.1268E+02
  -5.960  0.2958E+01  0.1271E+02
  -5.950  0.3147E+01  0.1274E+02
  -5.940  0.3337E+01  0.1277E+02
  -5.930  0.3524E+01  0.1281E+02
  -5.920  0.3703E+01  0.1285E+02
  -5.910  0.3873E+01  0.1289E+02
  -5.900  0.4029E+01  0.1293E+02
  -5.890  0.4168E+01  0.1297E+02
  -5.880  0.4285E+01  0.1301E+02
  -5.870  0.4380E+01  0.1305E+02
  -5.860  0.4448E+01  0.1310E+02
  -5.850  0.4488E+01  0.1314E+02
  -5.840  0.4499E+01  0.1319E+02
  -5.830  0.4479E+01  0.1323E+02
  -5.820  0.4430E+01  0.1328E+02
  -5.810  0.4352E+01  0.1332E+02
  -5.800  0.4246E+01  0.1336E+02
  -5.790  0.4115E+01  0.1341E+02
  -5.780  0.3961E+01  0.1344E+02
  -5.770  0.3788E+01  0.1348E+02
  -5.760  0.3600E+01  0.1352E+02
  -5.750  0.3401E+01  0.1355E+02
  -5.740  0.3194E+01  0.1358E+02
  -5.730  0.2983E+01  0.1361E+02
  -5.720  0.2774E+01  0.1364E+02
  -5.710  0.2569E+01  0.1367E+02
  -5.700  0.2372E+01  0.1369E+02
  -5.690  0.2186E+01  0.1371E+02
  -5.680  0.2014E+01  0.1373E+02
  -5.670  0.1857E+01  0.1375E+02
  -5.660  0.1717E+01  0.1377E+02
  -5.650  0.1594E+01  0.1379E+02
  -5.640  0.1490E+01  0.1380E+02
  -5.630  0.1403E+01  0.1381E+02
  -5.620  0.1333E+01  0.1383E+02
  -5.610  0.1279E+01  0.1384E+02
  -5.600  0.1239E+01  0.1385E+02
  -5.590  0.1211E+01  0.1386E+02
  -5.580  0.1193E+01  0.1388E+02
  -5.570  0.1182E+01  0.1389E+02
  -5.560  0.1177E+01  0.1390E+02
  -5.550  0.1175E+01  0.1391E+02
  -5.540  0.1174E+01  0.1392E+02
  -5.530  0.1171E+01  0.1394E+02
  -5.520  0.1166E+01  0.1395E+02
  -5.510  0.1157E+01  0.1396E+02
  -5.500  0.1143E+01  0.1397E+02
  -5.490  0.1123E+01  0.1398E+02
  -5.480  0.1097E+01  0.1399E+02
  -5.470  0.1064E+01  0.1400E+02
  -5.460  0.1025E+01  0.1401E+02
  -5.450  0.9809E+00  0.1402E+02
  -5.440  0.9315E+00  0.1403E+02
  -5.430  0.8778E+00  0.1404E+02
  -5.420  0.8209E+00  0.1405E+02
  -5.410  0.7616E+00  0.1406E+02
  -5.400  0.7010E+00  0.1406E+02
  -5.390  0.6401E+00  0.1407E+02
  -5.380  0.5797E+00  0.1408E+02
  -5.370  0.5207E+00  0.1408E+02
  -5.360  0.4639E+00  0.1409E+02
  -5.350  0.4100E+00  0.1409E+02
  -5.340  0.3594E+00  0.1409E+02
  -5.330  0.3125E+00  0.1410E+02
  -5.320  0.2696E+00  0.1410E+02
  -5.310  0.2310E+00  0.1410E+02
  -5.300  0.1967E+00  0.1410E+02
  -5.290  0.1666E+00  0.1411E+02
  -5.280  0.1409E+00  0.1411E+02
  -5.270  0.1194E+00  0.1411E+02
  -5.260  0.1019E+00  0.1411E+02
  -5.250  0.8848E-01  0.1411E+02
  -5.240  0.7893E-01  0.1411E+02
  -5.230  0.7322E-01  0.1411E+02
  -5.220  0.7135E-01  0.1411E+02
  -5.210  0.7335E-01  0.1411E+02
  -5.200  0.7932E-01  0.1411E+02
  -5.190  0.8941E-01  0.1411E+02
  -5.180  0.1038E+00  0.1412E+02
  -5.170  0.1229E+00  0.1412E+02
  -5.160  0.1468E+00  0.1412E+02
  -5.150  0.1761E+00  0.1412E+02
  -5.140  0.2110E+00  0.1412E+02
  -5.130  0.2521E+00  0.1412E+02
  -5.120  0.2996E+00  0.1413E+02
  -5.110  0.3541E+00  0.1413E+02
  -5.100  0.4158E+00  0.1414E+02
  -5.090  0.4853E+00  0.1414E+02
  -5.080  0.5628E+00  0.1415E+02
  -5.070  0.6485E+00  0.1415E+02
  -5.060  0.7427E+00  0.1416E+02
  -5.050  0.8454E+00  0.1417E+02
  -5.040  0.9569E+00  0.1418E+02
  -5.030  0.1077E+01  0.1419E+02
  -5.020  0.1205E+01  0.1420E+02
  -5.010  0.1342E+01  0.1421E+02
  -5.000  0.1485E+01  0.1423E+02
  -4.990  0.1636E+01  0.1425E+02
  -4.980  0.1793E+01  0.1426E+02
  -4.970  0.1954E+01  0.1428E+02
  -4.960  0.2118E+01  0.1430E+02
  -4.950  0.2284E+01  0.1433E+02
  -4.940  0.2450E+01  0.1435E+02
  -4.930  0.2613E+01  0.1438E+02
  -4.920  0.2771E+01  0.1441E+02
  -4.910  0.2921E+01  0.1443E+02
  -4.900  0.3061E+01  0.1447E+02
  -4.890  0.3188E+01  0.1450E+02
  -4.880  0.3299E+01  0.1453E+02
  -4.870  0.3393E+01  0.1456E+02
  -4.860  0.3467E+01  0.1460E+02
  -4.850  0.3520E+01  0.1463E+02
  -4.840  0.3551E+01  0.1467E+02
  -4.830  0.3560E+01  0.1470E+02
  -4.820  0.3548E+01  0.1474E+02
  -4.810  0.3515E+01  0.1478E+02
  -4.800  0.3464E+01  0.1481E+02
  -4.790  0.3397E+01  0.1484E+02
  -4.780  0.3318E+01  0.1488E+02
  -4.770  0.3229E+01  0.1491E+02
  -4.760  0.3136E+01  0.1494E+02
  -4.750  0.3040E+01  0.1497E+02
  -4.740  0.2947E+01  0.1500E+02
  -4.730  0.2858E+01  0.1503E+02
  -4.720  0.2778E+01  0.1506E+02
  -4.710  0.2707E+01  0.1508E+02
  -4.700  0.2648E+01  0.1511E+02
  -4.690  0.2601E+01  0.1514E+02
  -4.680  0.2565E+01  0.1516E+02
  -4.670  0.2541E+01  0.1519E+02
  -4.660  0.2526E+01  0.1521E+02
  -4.650  0.2518E+01  0.1524E+02
  -4.640  0.2515E+01  0.1526E+02
  -4.630  0.2515E+01  0.1529E+02
  -4.620  0.2515E+01  0.1531E+02
  -4.610  0.2513E+01  0.1534E+02
  -4.600  0.2505E+01  0.1536E+02
  -4.590  0.2491E+01  0.1539E+02
  -4.580  0.2469E+01  0.1541E+02
  -4.570  0.2438E+01  0.1544E+02
  -4.560  0.2397E+01  0.1546E+02
  -4.550  0.2345E+01  0.1549E+02
  -4.540  0.2284E+01  0.1551E+02
  -4.530  0.2213E+01  0.1553E+02
  -4.520  0.2133E+01  0.1555E+02
  -4.510  0.2046E+01  0.1557E+02
  -4.500  0.1953E+01  0.1559E+02
  -4.490  0.1854E+01  0.1561E+02
  -4.480  0.1753E+01  0.1563E+02
  -4.470  0.1649E+01  0.1564E+02
  -4.460  0.1545E+01  0.1566E+02
  -4.450  0.1441E+01  0.1567E+02
  -4.440  0.1341E+01  0.1569E+02
  -4.430  0.1244E+01  0.1570E+02
  -4.420  0.1153E+01  0.1571E+02
  -4.410  0.1069E+01  0.1572E+02
  -4.400  0.9919E+00  0.1573E+02
  -4.390  0.9239E+00  0.1574E+02
  -4.380  0.8653E+00  0.1575E+02
  -4.370  0.8167E+00  0.1576E+02
  -4.360  0.7783E+00  0.1577E+02
  -4.350  0.7501E+00  0.1577E+02
  -4.340  0.7319E+00  0.1578E+02
  -4.330  0.7229E+00  0.1579E+02
  -4.320  0.7225E+00  0.1580E+02
  -4.310  0.7293E+00  0.1580E+02
  -4.300  0.7421E+00  0.1581E+02
  -4.290  0.7595E+00  0.1582E+02
  -4.280  0.7798E+00  0.1583E+02
  -4.270  0.8015E+00  0.1583E+02
  -4.260  0.8230E+00  0.1584E+02
  -4.250  0.8429E+00  0.1585E+02
  -4.240  0.8600E+00  0.1586E+02
  -4.230  0.8734E+00  0.1587E+02
  -4.220  0.8823E+00  0.1588E+02
  -4.210  0.8863E+00  0.1588E+02
  -4.200  0.8855E+00  0.1589E+02
  -4.190  0.8802E+00  0.1590E+02
  -4.180  0.8711E+00  0.1591E+02
  -4.170  0.8589E+00  0.1592E+02
  -4.160  0.8450E+00  0.1593E+02
  -4.150  0.8307E+00  0.1594E+02
  -4.140  0.8174E+00  0.1594E+02
  -4.130  0.8066E+00  0.1595E+02
  -4.120  0.8000E+00  0.1596E+02
  -4.110  0.7990E+00  0.1597E+02
  -4.100  0.8050E+00  0.1598E+02
  -4.090  0.8191E+00  0.1599E+02
  -4.080  0.8425E+00  0.1599E+02
  -4.070  0.8759E+00  0.1600E+02
  -4.060  0.9200E+00  0.1601E+02
  -4.050  0.9752E+00  0.1602E+02
  -4.040  0.1042E+01  0.1603E+02
  -4.030  0.1119E+01  0.1604E+02
  -4.020  0.1207E+01  0.1605E+02
  -4.010  0.1306E+01  0.1607E+02
  -4.000  0.1414E+01  0.1608E+02
  -3.990  0.1530E+01  0.1610E+02
  -3.980  0.1654E+01  0.1611E+02
  -3.970  0.1783E+01  0.1613E+02
  -3.960  0.1917E+01  0.1615E+02
  -3.950  0.2054E+01  0.1617E+02
  -3.940  0.2191E+01  0.1619E+02
  -3.930  0.2326E+01  0.1622E+02
  -3.920  0.2457E+01  0.1624E+02
  -3.910  0.2583E+01  0.1627E+02
  -3.900  0.2699E+01  0.1629E+02
  -3.890  0.2805E+01  0.1632E+02
  -3.880  0.2898E+01  0.1635E+02
  -3.870  0.2977E+01  0.1638E+02
  -3.860  0.3039E+01  0.1641E+02
  -3.850  0.3084E+01  0.1644E+02
  -3.840  0.3111E+01  0.1647E+02
  -3.830  0.3119E+01  0.1650E+02
  -3.820  0.3111E+01  0.1654E+02
  -3.810  0.3085E+01  0.1657E+02
  -3.800  0.3044E+01  0.1660E+02
  -3.790  0.2991E+01  0.1663E+02
  -3.780  0.2927E+01  0.1666E+02
  -3.770  0.2855E+01  0.1668E+02
  -3.760  0.2778E+01  0.1671E+02
  -3.750  0.2700E+01  0.1674E+02
  -3.740  0.2622E+01  0.1677E+02
  -3.730  0.2549E+01  0.1679E+02
  -3.720  0.2482E+01  0.1682E+02
  -3.710  0.2423E+01  0.1684E+02
  -3.700  0.2373E+01  0.1686E+02
  -3.690  0.2335E+01  0.1689E+02
  -3.680  0.2307E+01  0.1691E+02
  -3.670  0.2289E+01  0.1693E+02
  -3.660  0.2282E+01  0.1696E+02
  -3.650  0.2282E+01  0.1698E+02
  -3.640  0.2290E+01  0.1700E+02
  -3.630  0.2302E+01  0.1702E+02
  -3.620  0.2316E+01  0.1705E+02
  -3.610  0.2331E+01  0.1707E+02
  -3.600  0.2343E+01  0.1709E+02
  -3.590  0.2351E+01  0.1712E+02
  -3.580  0.2352E+01  0.1714E+02
  -3.570  0.2346E+01  0.1716E+02
  -3.560  0.2330E+01  0.1719E+02
  -3.550  0.2305E+01  0.1721E+02
  -3.540  0.2271E+01  0.1723E+02
  -3.530  0.2227E+01  0.1726E+02
  -3.520  0.2174E+01  0.1728E+02
  -3.510  0.2115E+01  0.1730E+02
  -3.500  0.2050E+01  0.1732E+02
  -3.490  0.1982E+01  0.1734E+02
  -3.480  0.1913E+01  0.1736E+02
  -3.470  0.1845E+01  0.1738E+02
  -3.460  0.1780E+01  0.1739E+02
  -3.450  0.1720E+01  0.1741E+02
  -3.440  0.1668E+01  0.1743E+02
  -3.430  0.1624E+01  0.1744E+02
  -3.420  0.1589E+01  0.1746E+02
  -3.410  0.1565E+01  0.1748E+02
  -3.400  0.1550E+01  0.1749E+02
  -3.390  0.1544E+01  0.1751E+02
  -3.380  0.1547E+01  0.1752E+02
  -3.370  0.1556E+01  0.1754E+02
  -3.360  0.1570E+01  0.1755E+02
  -3.350  0.1587E+01  0.1757E+02
  -3.340  0.1605E+01  0.1759E+02
  -3.330  0.1622E+01  0.1760E+02
  -3.320  0.1635E+01  0.1762E+02
  -3.310  0.1643E+01  0.1764E+02
  -3.300  0.1644E+01  0.1765E+02
  -3.290  0.1637E+01  0.1767E+02
  -3.280  0.1622E+01  0.1768E+02
  -3.270  0.1598E+01  0.1770E+02
  -3.260  0.1566E+01  0.1772E+02
  -3.250  0.1526E+01  0.1773E+02
  -3.240  0.1481E+01  0.1775E+02
  -3.230  0.1432E+01  0.1776E+02
  -3.220  0.1382E+01  0.1777E+02
  -3.210  0.1334E+01  0.1779E+02
  -3.200  0.1289E+01  0.1780E+02
  -3.190  0.1253E+01  0.1781E+02
  -3.180  0.1227E+01  0.1783E+02
  -3.170  0.1216E+01  0.1784E+02
  -3.160  0.1222E+01  0.1785E+02
  -3.150  0.1250E+01  0.1786E+02
  -3.140  0.1301E+01  0.1787E+02
  -3.130  0.1380E+01  0.1789E+02
  -3.120  0.1489E+01  0.1790E+02
  -3.110  0.1630E+01  0.1792E+02
  -3.100  0.1806E+01  0.1794E+02
  -3.090  0.2018E+01  0.1796E+02
  -3.080  0.2267E+01  0.1798E+02
  -3.070  0.2553E+01  0.1801E+02
  -3.060  0.2877E+01  0.1804E+02
  -3.050  0.3237E+01  0.1807E+02
  -3.040  0.3631E+01  0.1810E+02
  -3.030  0.4055E+01  0.1814E+02
  -3.020  0.4507E+01  0.1819E+02
  -3.010  0.4981E+01  0.1824E+02
  -3.000  0.5470E+01  0.1829E+02
  -2.990  0.5969E+01  0.1835E+02
  -2.980  0.6469E+01  0.1842E+02
  -2.970  0.6963E+01  0.1849E+02
  -2.960  0.7442E+01  0.1856E+02
  -2.950  0.7898E+01  0.1864E+02
  -2.940  0.8323E+01  0.1872E+02
  -2.930  0.8710E+01  0.1881E+02
  -2.920  0.9052E+01  0.1890E+02
  -2.910  0.9342E+01  0.1900E+02
  -2.900  0.9578E+01  0.1909E+02
  -2.890  0.9756E+01  0.1919E+02
  -2.880  0.9875E+01  0.1929E+02
  -2.870  0.9936E+01  0.1939E+02
  -2.860  0.9939E+01  0.1949E+02
  -2.850  0.9890E+01  0.1959E+02
  -2.840  0.9791E+01  0.1968E+02
  -2.830  0.9650E+01  0.1978E+02
  -2.820  0.9473E+01  0.1987E+02
  -2.810  0.9266E+01  0.1997E+02
  -2.800  0.9038E+01  0.2006E+02
  -2.790  0.8796E+01  0.2015E+02
  -2.780  0.8546E+01  0.2023E+02
  -2.770  0.8296E+01  0.2031E+02
  -2.760  0.8051E+01  0.2039E+02
  -2.750  0.7816E+01  0.2047E+02
  -2.740  0.7595E+01  0.2055E+02
  -2.730  0.7390E+01  0.2062E+02
  -2.720  0.7204E+01  0.2069E+02
  -2.710  0.7036E+01  0.2076E+02
  -2.700  0.6887E+01  0.2083E+02
  -2.690  0.6757E+01  0.2090E+02
  -2.680  0.6643E+01  0.2097E+02
  -2.670  0.6545E+01  0.2103E+02
  -2.660  0.6460E+01  0.2110E+02
  -2.650  0.6387E+01  0.2116E+02
  -2.640  0.6324E+01  0.2122E+02
  -2.630  0.6269E+01  0.2129E+02
  -2.620  0.6221E+01  0.2135E+02
  -2.610  0.6180E+01  0.2141E+02
  -2.600  0.6145E+01  0.2147E+02
  -2.590  0.6114E+01  0.2153E+02
  -2.580  0.6089E+01  0.2160E+02
  -2.570  0.6067E+01  0.2166E+02
  -2.560  0.6050E+01  0.2172E+02
  -2.550  0.6036E+01  0.2178E+02
  -2.540  0.6026E+01  0.2184E+02
  -2.530  0.6018E+01  0.2190E+02
  -2.520  0.6011E+01  0.2196E+02
  -2.510  0.6005E+01  0.2202E+02
  -2.500  0.5999E+01  0.2208E+02
  -2.490  0.5991E+01  0.2214E+02
  -2.480  0.5980E+01  0.2220E+02
  -2.470  0.5966E+01  0.2226E+02
  -2.460  0.5947E+01  0.2232E+02
  -2.450  0.5923E+01  0.2238E+02
  -2.440  0.5894E+01  0.2243E+02
  -2.430  0.5859E+01  0.2249E+02
  -2.420  0.5818E+01  0.2255E+02
  -2.410  0.5772E+01  0.2261E+02
  -2.400  0.5721E+01  0.2267E+02
  -2.390  0.5664E+01  0.2272E+02
  -2.380  0.5604E+01  0.2278E+02
  -2.370  0.5539E+01  0.2283E+02
  -2.360  0.5470E+01  0.2289E+02
  -2.350  0.5397E+01  0.2294E+02
  -2.340  0.5320E+01  0.2300E+02
  -2.330  0.5239E+01  0.2305E+02
  -2.320  0.5153E+01  0.2310E+02
  -2.310  0.5062E+01  0.2315E+02
  -2.300  0.4965E+01  0.2320E+02
  -2.290  0.4861E+01  0.2325E+02
  -2.280  0.4748E+01  0.2330E+02
  -2.270  0.4628E+01  0.2334E+02
  -2.260  0.4498E+01  0.2339E+02
  -2.250  0.4359E+01  0.2343E+02
  -2.240  0.4210E+01  0.2347E+02
  -2.230  0.4052E+01  0.2351E+02
  -2.220  0.3885E+01  0.2355E+02
  -2.210  0.3710E+01  0.2359E+02
  -2.200  0.3528E+01  0.2362E+02
  -2.190  0.3340E+01  0.2366E+02
  -2.180  0.3148E+01  0.2369E+02
  -2.170  0.2954E+01  0.2372E+02
  -2.160  0.2759E+01  0.2375E+02
  -2.150  0.2566E+01  0.2377E+02
  -2.140  0.2375E+01  0.2380E+02
  -2.130  0.2189E+01  0.2382E+02
  -2.120  0.2009E+01  0.2384E+02
  -2.110  0.1837E+01  0.2386E+02
  -2.100  0.1672E+01  0.2387E+02
  -2.090  0.1516E+01  0.2389E+02
  -2.080  0.1370E+01  0.2390E+02
  -2.070  0.1234E+01  0.2391E+02
  -2.060  0.1107E+01  0.2393E+02
  -2.050  0.9893E+00  0.2394E+02
  -2.040  0.8812E+00  0.2394E+02
  -2.030  0.7820E+00  0.2395E+02
  -2.020  0.6913E+00  0.2396E+02
  -2.010  0.6087E+00  0.2397E+02
  -2.000  0.5336E+00  0.2397E+02
  -1.990  0.4656E+00  0.2398E+02
  -1.980  0.4043E+00  0.2398E+02
  -1.970  0.3492E+00  0.2398E+02
  -1.960  0.2998E+00  0.2399E+02
  -1.950  0.2559E+00  0.2399E+02
  -1.940  0.2170E+00  0.2399E+02
  -1.930  0.1827E+00  0.2399E+02
  -1.920  0.1527E+00  0.2399E+02
  -1.910  0.1267E+00  0.2399E+02
  -1.900  0.1043E+00  0.2400E+02
  -1.890  0.8510E-01  0.2400E+02
  -1.880  0.6886E-01  0.2400E+02
  -1.870  0.5524E-01  0.2400E+02
  -1.860  0.4391E-01  0.2400E+02
  -1.850  0.3458E-01  0.2400E+02
  -1.840  0.2698E-01  0.2400E+02
  -1.830  0.2085E-01  0.2400E+02
  -1.820  0.1595E-01  0.2400E+02
  -1.810  0.1209E-01  0.2400E+02
  -1.800  0.9068E-02  0.2400E+02
  -1.790  0.6734E-02  0.2400E+02
  -1.780  0.4950E-02  0.2400E+02
  -1.770  0.3602E-02  0.2400E+02
  -1.760  0.2594E-02  0.2400E+02
  -1.750  0.1848E-02  0.2400E+02
  -1.740  0.1304E-02  0.2400E+02
  -1.730  0.9097E-03  0.2400E+02
  -1.720  0.6282E-03  0.2400E+02
  -1.710  0.4293E-03  0.2400E+02
  -1.700  0.2902E-03  0.2400E+02
  -1.690  0.1942E-03  0.2400E+02
  -1.680  0.1285E-03  0.2400E+02
  -1.670  0.8416E-04  0.2400E+02
  -1.660  0.5453E-04  0.2400E+02
  -1.650  0.3495E-04  0.2400E+02
  -1.640  0.2217E-04  0.2400E+02
  -1.630  0.1391E-04  0.2400E+02
  -1.620  0.8633E-05  0.2400E+02
  -1.610  0.5301E-05  0.2400E+02
  -1.600  0.3221E-05  0.2400E+02
  -1.590  0.1936E-05  0.2400E+02
  -1.580  0.1151E-05  0.2400E+02
  -1.570  0.6770E-06  0.2400E+02
  -1.560  0.3940E-06  0.2400E+02
  -1.550  0.2268E-06  0.2400E+02
  -1.540  0.1292E-06  0.2400E+02
  -1.530  0.7277E-07  0.2400E+02
  -1.520  0.4056E-07  0.2400E+02
  -1.510  0.2236E-07  0.2400E+02
  -1.500  0.1220E-07  0.2400E+02
  -1.490  0.6582E-08  0.2400E+02
  -1.480  0.3513E-08  0.2400E+02
  -1.470  0.1855E-08  0.2400E+02
  -1.460  0.9692E-09  0.2400E+02
  -1.450  0.5009E-09  0.2400E+02
  -1.440  0.2561E-09  0.2400E+02
  -1.430  0.1295E-09  0.2400E+02
  -1.420  0.6481E-10  0.2400E+02
  -1.410  0.3210E-10  0.2400E+02
  -1.400  0.1577E-10  0.2400E+02
  -1.390  0.7763E-11  0.2400E+02
  -1.380  0.3990E-11  0.2400E+02
  -1.370  0.2482E-11  0.2400E+02
  -1.360  0.2441E-11  0.2400E+02
  -1.350  0.3862E-11  0.2400E+02
  -1.340  0.7545E-11  0.2400E+02
  -1.330  0.1550E-10  0.2400E+02
  -1.320  0.3197E-10  0.2400E+02
  -1.310  0.6542E-10  0.2400E+02
  -1.300  0.1326E-09  0.2400E+02
  -1.290  0.2658E-09  0.2400E+02
  -1.280  0.5272E-09  0.2400E+02
  -1.270  0.1035E-08  0.2400E+02
  -1.260  0.2010E-08  0.2400E+02
  -1.250  0.3862E-08  0.2400E+02
  -1.240  0.7344E-08  0.2400E+02
  -1.230  0.1382E-07  0.2400E+02
  -1.220  0.2572E-07  0.2400E+02
  -1.210  0.4738E-07  0.2400E+02
  -1.200  0.8637E-07  0.2400E+02
  -1.190  0.1558E-06  0.2400E+02
  -1.180  0.2781E-06  0.2400E+02
  -1.170  0.4912E-06  0.2400E+02
  -1.160  0.8586E-06  0.2400E+02
  -1.150  0.1485E-05  0.2400E+02
  -1.140  0.2542E-05  0.2400E+02
  -1.130  0.4307E-05  0.2400E+02
  -1.120  0.7222E-05  0.2400E+02
  -1.110  0.1198E-04  0.2400E+02
  -1.100  0.1968E-04  0.2400E+02
  -1.090  0.3200E-04  0.2400E+02
  -1.080  0.5149E-04  0.2400E+02
  -1.070  0.8201E-04  0.2400E+02
  -1.060  0.1293E-03  0.2400E+02
  -1.050  0.2018E-03  0.2400E+02
  -1.040  0.3117E-03  0.2400E+02
  -1.030  0.4768E-03  0.2400E+02
  -1.020  0.7220E-03  0.2400E+02
  -1.010  0.1082E-02  0.2400E+02
  -1.000  0.1606E-02  0.2400E+02
  -0.990  0.2361E-02  0.2400E+02
  -0.980  0.3436E-02  0.2400E+02
  -0.970  0.4951E-02  0.2400E+02
  -0.960  0.7066E-02  0.2400E+02
  -0.950  0.9987E-02  0.2400E+02
  -0.940  0.1398E-01  0.2400E+02
  -0.930  0.1938E-01  0.2400E+02
  -0.920  0.2662E-01  0.2400E+02
  -0.910  0.3621E-01  0.2400E+02
  -0.900  0.4879E-01  0.2400E+02
  -0.890  0.6514E-01  0.2400E+02
  -0.880  0.8616E-01  0.2400E+02
  -0.870  0.1129E+00  0.2400E+02
  -0.860  0.1467E+00  0.2401E+02
  -0.850  0.1887E+00  0.2401E+02
  -0.840  0.2407E+00  0.2401E+02
  -0.830  0.3043E+00  0.2401E+02
  -0.820  0.3813E+00  0.2402E+02
  -0.810  0.4735E+00  0.2402E+02
  -0.800  0.5829E+00  0.2403E+02
  -0.790  0.7115E+00  0.2403E+02
  -0.780  0.8610E+00  0.2404E+02
  -0.770  0.1033E+01  0.2405E+02
  -0.760  0.1229E+01  0.2407E+02
  -0.750  0.1450E+01  0.2408E+02
  -0.740  0.1697E+01  0.2410E+02
  -0.730  0.1969E+01  0.2412E+02
  -0.720  0.2267E+01  0.2414E+02
  -0.710  0.2589E+01  0.2417E+02
  -0.700  0.2932E+01  0.2419E+02
  -0.690  0.3296E+01  0.2423E+02
  -0.680  0.3675E+01  0.2426E+02
  -0.670  0.4067E+01  0.2431E+02
  -0.660  0.4467E+01  0.2435E+02
  -0.650  0.4870E+01  0.2440E+02
  -0.640  0.5269E+01  0.2445E+02
  -0.630  0.5661E+01  0.2451E+02
  -0.620  0.6038E+01  0.2457E+02
  -0.610  0.6397E+01  0.2463E+02
  -0.600  0.6731E+01  0.2470E+02
  -0.590  0.7036E+01  0.2477E+02
  -0.580  0.7309E+01  0.2484E+02
  -0.570  0.7547E+01  0.2492E+02
  -0.560  0.7747E+01  0.2500E+02
  -0.550  0.7908E+01  0.2508E+02
  -0.540  0.8032E+01  0.2516E+02
  -0.530  0.8118E+01  0.2524E+02
  -0.520  0.8168E+01  0.2532E+02
  -0.510  0.8185E+01  0.2540E+02
  -0.500  0.8172E+01  0.2548E+02
  -0.490  0.8133E+01  0.2556E+02
  -0.480  0.8071E+01  0.2564E+02
  -0.470  0.7992E+01  0.2572E+02
  -0.460  0.7898E+01  0.2580E+02
  -0.450  0.7794E+01  0.2588E+02
  -0.440  0.7682E+01  0.2596E+02
  -0.430  0.7567E+01  0.2603E+02
  -0.420  0.7451E+01  0.2611E+02
  -0.410  0.7336E+01  0.2618E+02
  -0.400  0.7224E+01  0.2625E+02
  -0.390  0.7116E+01  0.2632E+02
  -0.380  0.7015E+01  0.2639E+02
  -0.370  0.6919E+01  0.2646E+02
  -0.360  0.6832E+01  0.2653E+02
  -0.350  0.6752E+01  0.2660E+02
  -0.340  0.6681E+01  0.2667E+02
  -0.330  0.6619E+01  0.2673E+02
  -0.320  0.6567E+01  0.2680E+02
  -0.310  0.6525E+01  0.2686E+02
  -0.300  0.6494E+01  0.2693E+02
  -0.290  0.6475E+01  0.2699E+02
  -0.280  0.6468E+01  0.2706E+02
  -0.270  0.6473E+01  0.2712E+02
  -0.260  0.6491E+01  0.2719E+02
  -0.250  0.6520E+01  0.2725E+02
  -0.240  0.6561E+01  0.2732E+02
  -0.230  0.6614E+01  0.2738E+02
  -0.220  0.6675E+01  0.2745E+02
  -0.210  0.6746E+01  0.2752E+02
  -0.200  0.6822E+01  0.2759E+02
  -0.190  0.6904E+01  0.2766E+02
  -0.180  0.6988E+01  0.2773E+02
  -0.170  0.7072E+01  0.2780E+02
  -0.160  0.7155E+01  0.2787E+02
  -0.150  0.7233E+01  0.2794E+02
  -0.140  0.7305E+01  0.2801E+02
  -0.130  0.7369E+01  0.2809E+02
  -0.120  0.7423E+01  0.2816E+02
  -0.110  0.7465E+01  0.2824E+02
  -0.100  0.7495E+01  0.2831E+02
  -0.090  0.7510E+01  0.2839E+02
  -0.080  0.7512E+01  0.2846E+02
  -0.070  0.7498E+01  0.2854E+02
  -0.060  0.7468E+01  0.2861E+02
  -0.050  0.7424E+01  0.2869E+02
  -0.040  0.7363E+01  0.2876E+02
  -0.030  0.7288E+01  0.2883E+02
  -0.020  0.7197E+01  0.2890E+02
  -0.010  0.7094E+01  0.2897E+02
  -0.000  0.6977E+01  0.2904E+02
   0.010  0.6849E+01  0.2911E+02
   0.020  0.6711E+01  0.2918E+02
   0.030  0.6566E+01  0.2925E+02
   0.040  0.6415E+01  0.2931E+02
   0.050  0.6262E+01  0.2937E+02
   0.060  0.6108E+01  0.2943E+02
   0.070  0.5958E+01  0.2949E+02
   0.080  0.5814E+01  0.2955E+02
   0.090  0.5679E+01  0.2961E+02
   0.100  0.5556E+01  0.2966E+02
   0.110  0.5449E+01  0.2972E+02
   0.120  0.5361E+01  0.2977E+02
   0.130  0.5294E+01  0.2982E+02
   0.140  0.5249E+01  0.2988E+02
   0.150  0.5229E+01  0.2993E+02
   0.160  0.5233E+01  0.2998E+02
   0.170  0.5263E+01  0.3003E+02
   0.180  0.5317E+01  0.3009E+02
   0.190  0.5394E+01  0.3014E+02
   0.200  0.5492E+01  0.3020E+02
   0.210  0.5607E+01  0.3025E+02
   0.220  0.5736E+01  0.3031E+02
   0.230  0.5876E+01  0.3037E+02
   0.240  0.6021E+01  0.3043E+02
   0.250  0.6167E+01  0.3049E+02
   0.260  0.6311E+01  0.3055E+02
   0.270  0.6447E+01  0.3062E+02
   0.280  0.6573E+01  0.3068E+02
   0.290  0.6686E+01  0.3075E+02
   0.300  0.6783E+01  0.3082E+02
   0.310  0.6862E+01  0.3089E+02
   0.320  0.6925E+01  0.3096E+02
   0.330  0.6972E+01  0.3103E+02
   0.340  0.7003E+01  0.3110E+02
   0.350  0.7022E+01  0.3117E+02
   0.360  0.7032E+01  0.3124E+02
   0.370  0.7037E+01  0.3131E+02
   0.380  0.7040E+01  0.3138E+02
   0.390  0.7045E+01  0.3145E+02
   0.400  0.7057E+01  0.3152E+02
   0.410  0.7078E+01  0.3159E+02
   0.420  0.7112E+01  0.3166E+02
   0.430  0.7161E+01  0.3173E+02
   0.440  0.7226E+01  0.3180E+02
   0.450  0.7307E+01  0.3188E+02
   0.460  0.7404E+01  0.3195E+02
   0.470  0.7514E+01  0.3203E+02
   0.480  0.7634E+01  0.3210E+02
   0.490  0.7761E+01  0.3218E+02
   0.500  0.7891E+01  0.3226E+02
   0.510  0.8017E+01  0.3234E+02
   0.520  0.8135E+01  0.3242E+02
   0.530  0.8238E+01  0.3250E+02
   0.540  0.8322E+01  0.3259E+02
   0.550  0.8382E+01  0.3267E+02
   0.560  0.8413E+01  0.3275E+02
   0.570  0.8413E+01  0.3284E+02
   0.580  0.8379E+01  0.3292E+02
   0.590  0.8310E+01  0.3301E+02
   0.600  0.8208E+01  0.3309E+02
   0.610  0.8073E+01  0.3317E+02
   0.620  0.7909E+01  0.3325E+02
   0.630  0.7719E+01  0.3332E+02
   0.640  0.7509E+01  0.3340E+02
   0.650  0.7285E+01  0.3347E+02
   0.660  0.7052E+01  0.3354E+02
   0.670  0.6817E+01  0.3361E+02
   0.680  0.6585E+01  0.3368E+02
   0.690  0.6364E+01  0.3374E+02
   0.700  0.6157E+01  0.3380E+02
   0.710  0.5969E+01  0.3386E+02
   0.720  0.5805E+01  0.3392E+02
   0.730  0.5666E+01  0.3398E+02
   0.740  0.5556E+01  0.3403E+02
   0.750  0.5475E+01  0.3409E+02
   0.760  0.5424E+01  0.3414E+02
   0.770  0.5402E+01  0.3420E+02
   0.780  0.5410E+01  0.3425E+02
   0.790  0.5445E+01  0.3430E+02
   0.800  0.5506E+01  0.3436E+02
   0.810  0.5591E+01  0.3441E+02
   0.820  0.5699E+01  0.3447E+02
   0.830  0.5827E+01  0.3453E+02
   0.840  0.5973E+01  0.3459E+02
   0.850  0.6134E+01  0.3465E+02
   0.860  0.6308E+01  0.3471E+02
   0.870  0.6494E+01  0.3478E+02
   0.880  0.6687E+01  0.3485E+02
   0.890  0.6886E+01  0.3491E+02
   0.900  0.7087E+01  0.3499E+02
   0.910  0.7290E+01  0.3506E+02
   0.920  0.7490E+01  0.3513E+02
   0.930  0.7686E+01  0.3521E+02
   0.940  0.7876E+01  0.3529E+02
   0.950  0.8058E+01  0.3537E+02
   0.960  0.8229E+01  0.3545E+02
   0.970  0.8390E+01  0.3554E+02
   0.980  0.8537E+01  0.3562E+02
   0.990  0.8671E+01  0.3571E+02
   1.000  0.8791E+01  0.3580E+02
   1.010  0.8896E+01  0.3588E+02
   1.020  0.8985E+01  0.3597E+02
   1.030  0.9059E+01  0.3607E+02
   1.040  0.9118E+01  0.3616E+02
   1.050  0.9161E+01  0.3625E+02
   1.060  0.9188E+01  0.3634E+02
   1.070  0.9200E+01  0.3643E+02
   1.080  0.9197E+01  0.3652E+02
   1.090  0.9180E+01  0.3662E+02
   1.100  0.9147E+01  0.3671E+02
   1.110  0.9102E+01  0.3680E+02
   1.120  0.9043E+01  0.3689E+02
   1.130  0.8972E+01  0.3698E+02
   1.140  0.8890E+01  0.3707E+02
   1.150  0.8799E+01  0.3716E+02
   1.160  0.8699E+01  0.3724E+02
   1.170  0.8591E+01  0.3733E+02
   1.180  0.8479E+01  0.3741E+02
   1.190  0.8362E+01  0.3750E+02
   1.200  0.8243E+01  0.3758E+02
   1.210  0.8124E+01  0.3766E+02
   1.220  0.8007E+01  0.3774E+02
   1.230  0.7894E+01  0.3782E+02
   1.240  0.7786E+01  0.3790E+02
   1.250  0.7687E+01  0.3797E+02
   1.260  0.7599E+01  0.3805E+02
   1.270  0.7523E+01  0.3813E+02
   1.280  0.7461E+01  0.3820E+02
   1.290  0.7417E+01  0.3827E+02
   1.300  0.7391E+01  0.3835E+02
   1.310  0.7386E+01  0.3842E+02
   1.320  0.7401E+01  0.3850E+02
   1.330  0.7438E+01  0.3857E+02
   1.340  0.7495E+01  0.3865E+02
   1.350  0.7574E+01  0.3872E+02
   1.360  0.7671E+01  0.3880E+02
   1.370  0.7784E+01  0.3888E+02
   1.380  0.7912E+01  0.3895E+02
   1.390  0.8051E+01  0.3903E+02
   1.400  0.8197E+01  0.3912E+02
   1.410  0.8347E+01  0.3920E+02
   1.420  0.8496E+01  0.3929E+02
   1.430  0.8643E+01  0.3937E+02
   1.440  0.8782E+01  0.3946E+02
   1.450  0.8911E+01  0.3955E+02
   1.460  0.9028E+01  0.3964E+02
   1.470  0.9130E+01  0.3973E+02
   1.480  0.9217E+01  0.3982E+02
   1.490  0.9288E+01  0.3992E+02
   1.500  0.9342E+01  0.4001E+02
   1.510  0.9379E+01  0.4010E+02
   1.520  0.9399E+01  0.4020E+02
   1.530  0.9404E+01  0.4029E+02
   1.540  0.9393E+01  0.4038E+02
   1.550  0.9367E+01  0.4048E+02
   1.560  0.9328E+01  0.4057E+02
   1.570  0.9274E+01  0.4066E+02
   1.580  0.9208E+01  0.4076E+02
   1.590  0.9129E+01  0.4085E+02
   1.600  0.9038E+01  0.4094E+02
   1.610  0.8936E+01  0.4103E+02
   1.620  0.8823E+01  0.4112E+02
   1.630  0.8701E+01  0.4120E+02
   1.640  0.8572E+01  0.4129E+02
   1.650  0.8436E+01  0.4137E+02
   1.660  0.8296E+01  0.4146E+02
   1.670  0.8155E+01  0.4154E+02
   1.680  0.8014E+01  0.4162E+02
   1.690  0.7876E+01  0.4170E+02
   1.700  0.7744E+01  0.4177E+02
   1.710  0.7621E+01  0.4185E+02
   1.720  0.7507E+01  0.4192E+02
   1.730  0.7405E+01  0.4200E+02
   1.740  0.7316E+01  0.4207E+02
   1.750  0.7242E+01  0.4214E+02
   1.760  0.7181E+01  0.4222E+02
   1.770  0.7133E+01  0.4229E+02
   1.780  0.7098E+01  0.4236E+02
   1.790  0.7073E+01  0.4243E+02
   1.800  0.7056E+01  0.4250E+02
   1.810  0.7046E+01  0.4257E+02
   1.820  0.7038E+01  0.4264E+02
   1.830  0.7031E+01  0.4271E+02
   1.840  0.7021E+01  0.4278E+02
   1.850  0.7006E+01  0.4285E+02
   1.860  0.6984E+01  0.4292E+02
   1.870  0.6952E+01  0.4299E+02
   1.880  0.6909E+01  0.4306E+02
   1.890  0.6854E+01  0.4313E+02
   1.900  0.6786E+01  0.4320E+02
   1.910  0.6707E+01  0.4326E+02
   1.920  0.6616E+01  0.4333E+02
   1.930  0.6515E+01  0.4339E+02
   1.940  0.6405E+01  0.4346E+02
   1.950  0.6290E+01  0.4352E+02
   1.960  0.6171E+01  0.4358E+02
   1.970  0.6052E+01  0.4364E+02
   1.980  0.5936E+01  0.4370E+02
   1.990  0.5825E+01  0.4376E+02
   2.000  0.5724E+01  0.4382E+02
   2.010  0.5635E+01  0.4387E+02
   2.020  0.5560E+01  0.4393E+02
   2.030  0.5502E+01  0.4399E+02
   2.040  0.5464E+01  0.4404E+02
   2.050  0.5446E+01  0.4409E+02
   2.060  0.5449E+01  0.4415E+02
   2.070  0.5475E+01  0.4420E+02
   2.080  0.5523E+01  0.4426E+02
   2.090  0.5592E+01  0.4431E+02
   2.100  0.5681E+01  0.4437E+02
   2.110  0.5788E+01  0.4443E+02
   2.120  0.5912E+01  0.4449E+02
   2.130  0.6049E+01  0.4455E+02
   2.140  0.6198E+01  0.4461E+02
   2.150  0.6354E+01  0.4467E+02
   2.160  0.6515E+01  0.4474E+02
   2.170  0.6678E+01  0.4481E+02
   2.180  0.6839E+01  0.4488E+02
   2.190  0.6996E+01  0.4494E+02
   2.200  0.7145E+01  0.4502E+02
   2.210  0.7285E+01  0.4509E+02
   2.220  0.7414E+01  0.4516E+02
   2.230  0.7530E+01  0.4524E+02
   2.240  0.7631E+01  0.4532E+02
   2.250  0.7718E+01  0.4539E+02
   2.260  0.7790E+01  0.4547E+02
   2.270  0.7847E+01  0.4555E+02
   2.280  0.7890E+01  0.4563E+02
   2.290  0.7921E+01  0.4571E+02
   2.300  0.7940E+01  0.4579E+02
   2.310  0.7949E+01  0.4587E+02
   2.320  0.7950E+01  0.4595E+02
   2.330  0.7944E+01  0.4602E+02
   2.340  0.7932E+01  0.4610E+02
   2.350  0.7916E+01  0.4618E+02
   2.360  0.7897E+01  0.4626E+02
   2.370  0.7874E+01  0.4634E+02
   2.380  0.7847E+01  0.4642E+02
   2.390  0.7816E+01  0.4650E+02
   2.400  0.7779E+01  0.4658E+02
   2.410  0.7735E+01  0.4665E+02
   2.420  0.7682E+01  0.4673E+02
   2.430  0.7616E+01  0.4681E+02
   2.440  0.7536E+01  0.4688E+02
   2.450  0.7438E+01  0.4696E+02
   2.460  0.7319E+01  0.4703E+02
   2.470  0.7178E+01  0.4710E+02
   2.480  0.7012E+01  0.4717E+02
   2.490  0.6819E+01  0.4724E+02
   2.500  0.6599E+01  0.4730E+02
   2.510  0.6353E+01  0.4737E+02
   2.520  0.6081E+01  0.4743E+02
   2.530  0.5785E+01  0.4749E+02
   2.540  0.5468E+01  0.4754E+02
   2.550  0.5133E+01  0.4759E+02
   2.560  0.4785E+01  0.4764E+02
   2.570  0.4427E+01  0.4768E+02
   2.580  0.4066E+01  0.4773E+02
   2.590  0.3704E+01  0.4776E+02
   2.600  0.3348E+01  0.4780E+02
   2.610  0.3001E+01  0.4783E+02
   2.620  0.2668E+01  0.4785E+02
   2.630  0.2352E+01  0.4788E+02
   2.640  0.2055E+01  0.4790E+02
   2.650  0.1780E+01  0.4791E+02
   2.660  0.1529E+01  0.4793E+02
