#  E (eV)   dos(E)     Int dos(E) EFermi =   2.581 eV
 -17.180  0.3791E-04  0.3791E-06
 -17.170  0.5860E-04  0.9651E-06
 -17.160  0.8962E-04  0.1861E-05
 -17.150  0.1356E-03  0.3217E-05
 -17.140  0.2029E-03  0.5246E-05
 -17.130  0.3004E-03  0.8250E-05
 -17.120  0.4400E-03  0.1265E-04
 -17.110  0.6374E-03  0.1902E-04
 -17.100  0.9136E-03  0.2816E-04
 -17.090  0.1295E-02  0.4111E-04
 -17.080  0.1817E-02  0.5929E-04
 -17.070  0.2521E-02  0.8450E-04
 -17.060  0.3461E-02  0.1191E-03
 -17.050  0.4700E-02  0.1661E-03
 -17.040  0.6314E-02  0.2293E-03
 -17.030  0.8391E-02  0.3132E-03
 -17.020  0.1103E-01  0.4235E-03
 -17.010  0.1435E-01  0.5670E-03
 -17.000  0.1846E-01  0.7516E-03
 -16.990  0.2350E-01  0.9867E-03
 -16.980  0.2960E-01  0.1283E-02
 -16.970  0.3688E-01  0.1651E-02
 -16.960  0.4546E-01  0.2106E-02
 -16.950  0.5544E-01  0.2660E-02
 -16.940  0.6689E-01  0.3329E-02
 -16.930  0.7986E-01  0.4128E-02
 -16.920  0.9435E-01  0.5071E-02
 -16.910  0.1103E+00  0.6174E-02
 -16.900  0.1276E+00  0.7451E-02
 -16.890  0.1461E+00  0.8912E-02
 -16.880  0.1656E+00  0.1057E-01
 -16.870  0.1859E+00  0.1243E-01
 -16.860  0.2066E+00  0.1449E-01
 -16.850  0.2275E+00  0.1677E-01
 -16.840  0.2482E+00  0.1925E-01
 -16.830  0.2685E+00  0.2194E-01
 -16.820  0.2881E+00  0.2482E-01
 -16.810  0.3069E+00  0.2789E-01
 -16.800  0.3248E+00  0.3113E-01
 -16.790  0.3418E+00  0.3455E-01
 -16.780  0.3583E+00  0.3813E-01
 -16.770  0.3746E+00  0.4188E-01
 -16.760  0.3912E+00  0.4579E-01
 -16.750  0.4087E+00  0.4988E-01
 -16.740  0.4282E+00  0.5416E-01
 -16.730  0.4505E+00  0.5867E-01
 -16.720  0.4766E+00  0.6343E-01
 -16.710  0.5079E+00  0.6851E-01
 -16.700  0.5453E+00  0.7396E-01
 -16.690  0.5899E+00  0.7986E-01
 -16.680  0.6430E+00  0.8629E-01
 -16.670  0.7052E+00  0.9334E-01
 -16.660  0.7774E+00  0.1011E+00
 -16.650  0.8601E+00  0.1097E+00
 -16.640  0.9535E+00  0.1193E+00
 -16.630  0.1058E+01  0.1298E+00
 -16.620  0.1172E+01  0.1416E+00
 -16.610  0.1297E+01  0.1545E+00
 -16.600  0.1431E+01  0.1688E+00
 -16.590  0.1573E+01  0.1846E+00
 -16.580  0.1721E+01  0.2018E+00
 -16.570  0.1876E+01  0.2205E+00
 -16.560  0.2035E+01  0.2409E+00
 -16.550  0.2197E+01  0.2629E+00
 -16.540  0.2361E+01  0.2865E+00
 -16.530  0.2525E+01  0.3117E+00
 -16.520  0.2689E+01  0.3386E+00
 -16.510  0.2852E+01  0.3671E+00
 -16.500  0.3012E+01  0.3972E+00
 -16.490  0.3171E+01  0.4289E+00
 -16.480  0.3326E+01  0.4622E+00
 -16.470  0.3478E+01  0.4970E+00
 -16.460  0.3626E+01  0.5332E+00
 -16.450  0.3771E+01  0.5710E+00
 -16.440  0.3910E+01  0.6101E+00
 -16.430  0.4043E+01  0.6505E+00
 -16.420  0.4169E+01  0.6922E+00
 -16.410  0.4286E+01  0.7350E+00
 -16.400  0.4392E+01  0.7790E+00
 -16.390  0.4485E+01  0.8238E+00
 -16.380  0.4564E+01  0.8694E+00
 -16.370  0.4624E+01  0.9157E+00
 -16.360  0.4666E+01  0.9623E+00
 -16.350  0.4686E+01  0.1009E+01
 -16.340  0.4684E+01  0.1056E+01
 -16.330  0.4659E+01  0.1103E+01
 -16.320  0.4611E+01  0.1149E+01
 -16.310  0.4541E+01  0.1194E+01
 -16.300  0.4450E+01  0.1239E+01
 -16.290  0.4341E+01  0.1282E+01
 -16.280  0.4216E+01  0.1324E+01
 -16.270  0.4079E+01  0.1365E+01
 -16.260  0.3933E+01  0.1404E+01
 -16.250  0.3783E+01  0.1442E+01
 -16.240  0.3631E+01  0.1479E+01
 -16.230  0.3481E+01  0.1513E+01
 -16.220  0.3337E+01  0.1547E+01
 -16.210  0.3202E+01  0.1579E+01
 -16.200  0.3077E+01  0.1609E+01
 -16.190  0.2965E+01  0.1639E+01
 -16.180  0.2867E+01  0.1668E+01
 -16.170  0.2783E+01  0.1696E+01
 -16.160  0.2715E+01  0.1723E+01
 -16.150  0.2662E+01  0.1749E+01
 -16.140  0.2623E+01  0.1776E+01
 -16.130  0.2599E+01  0.1802E+01
 -16.120  0.2588E+01  0.1827E+01
 -16.110  0.2591E+01  0.1853E+01
 -16.100  0.2606E+01  0.1879E+01
 -16.090  0.2632E+01  0.1906E+01
 -16.080  0.2670E+01  0.1932E+01
 -16.070  0.2718E+01  0.1960E+01
 -16.060  0.2776E+01  0.1987E+01
 -16.050  0.2845E+01  0.2016E+01
 -16.040  0.2923E+01  0.2045E+01
 -16.030  0.3011E+01  0.2075E+01
 -16.020  0.3108E+01  0.2106E+01
 -16.010  0.3214E+01  0.2138E+01
 -16.000  0.3328E+01  0.2172E+01
 -15.990  0.3450E+01  0.2206E+01
 -15.980  0.3579E+01  0.2242E+01
 -15.970  0.3713E+01  0.2279E+01
 -15.960  0.3850E+01  0.2318E+01
 -15.950  0.3987E+01  0.2357E+01
 -15.940  0.4123E+01  0.2399E+01
 -15.930  0.4254E+01  0.2441E+01
 -15.920  0.4377E+01  0.2485E+01
 -15.910  0.4488E+01  0.2530E+01
 -15.900  0.4584E+01  0.2576E+01
 -15.890  0.4663E+01  0.2622E+01
 -15.880  0.4721E+01  0.2670E+01
 -15.870  0.4756E+01  0.2717E+01
 -15.860  0.4767E+01  0.2765E+01
 -15.850  0.4754E+01  0.2812E+01
 -15.840  0.4715E+01  0.2860E+01
 -15.830  0.4653E+01  0.2906E+01
 -15.820  0.4569E+01  0.2952E+01
 -15.810  0.4466E+01  0.2996E+01
 -15.800  0.4345E+01  0.3040E+01
 -15.790  0.4212E+01  0.3082E+01
 -15.780  0.4070E+01  0.3123E+01
 -15.770  0.3923E+01  0.3162E+01
 -15.760  0.3774E+01  0.3200E+01
 -15.750  0.3627E+01  0.3236E+01
 -15.740  0.3485E+01  0.3271E+01
 -15.730  0.3351E+01  0.3304E+01
 -15.720  0.3227E+01  0.3337E+01
 -15.710  0.3115E+01  0.3368E+01
 -15.700  0.3014E+01  0.3398E+01
 -15.690  0.2926E+01  0.3427E+01
 -15.680  0.2850E+01  0.3456E+01
 -15.670  0.2784E+01  0.3483E+01
 -15.660  0.2727E+01  0.3511E+01
 -15.650  0.2677E+01  0.3537E+01
 -15.640  0.2632E+01  0.3564E+01
 -15.630  0.2590E+01  0.3590E+01
 -15.620  0.2549E+01  0.3615E+01
 -15.610  0.2506E+01  0.3640E+01
 -15.600  0.2461E+01  0.3665E+01
 -15.590  0.2412E+01  0.3689E+01
 -15.580  0.2359E+01  0.3713E+01
 -15.570  0.2301E+01  0.3736E+01
 -15.560  0.2239E+01  0.3758E+01
 -15.550  0.2175E+01  0.3780E+01
 -15.540  0.2108E+01  0.3801E+01
 -15.530  0.2041E+01  0.3821E+01
 -15.520  0.1977E+01  0.3841E+01
 -15.510  0.1916E+01  0.3860E+01
 -15.500  0.1861E+01  0.3879E+01
 -15.490  0.1814E+01  0.3897E+01
 -15.480  0.1776E+01  0.3915E+01
 -15.470  0.1749E+01  0.3932E+01
 -15.460  0.1734E+01  0.3949E+01
 -15.450  0.1731E+01  0.3967E+01
 -15.440  0.1740E+01  0.3984E+01
 -15.430  0.1761E+01  0.4002E+01
 -15.420  0.1795E+01  0.4020E+01
 -15.410  0.1842E+01  0.4038E+01
 -15.400  0.1900E+01  0.4057E+01
 -15.390  0.1969E+01  0.4077E+01
 -15.380  0.2049E+01  0.4097E+01
 -15.370  0.2141E+01  0.4119E+01
 -15.360  0.2244E+01  0.4141E+01
 -15.350  0.2357E+01  0.4165E+01
 -15.340  0.2482E+01  0.4190E+01
 -15.330  0.2618E+01  0.4216E+01
 -15.320  0.2765E+01  0.4243E+01
 -15.310  0.2922E+01  0.4273E+01
 -15.300  0.3090E+01  0.4304E+01
 -15.290  0.3266E+01  0.4336E+01
 -15.280  0.3451E+01  0.4371E+01
 -15.270  0.3641E+01  0.4407E+01
 -15.260  0.3836E+01  0.4445E+01
 -15.250  0.4033E+01  0.4486E+01
 -15.240  0.4229E+01  0.4528E+01
 -15.230  0.4421E+01  0.4572E+01
 -15.220  0.4607E+01  0.4618E+01
 -15.210  0.4782E+01  0.4666E+01
 -15.200  0.4945E+01  0.4716E+01
 -15.190  0.5092E+01  0.4767E+01
 -15.180  0.5221E+01  0.4819E+01
 -15.170  0.5327E+01  0.4872E+01
 -15.160  0.5410E+01  0.4926E+01
 -15.150  0.5465E+01  0.4981E+01
 -15.140  0.5493E+01  0.5036E+01
 -15.130  0.5490E+01  0.5091E+01
 -15.120  0.5456E+01  0.5145E+01
 -15.110  0.5389E+01  0.5199E+01
 -15.100  0.5291E+01  0.5252E+01
 -15.090  0.5161E+01  0.5304E+01
 -15.080  0.5001E+01  0.5354E+01
 -15.070  0.4812E+01  0.5402E+01
 -15.060  0.4597E+01  0.5448E+01
 -15.050  0.4360E+01  0.5491E+01
 -15.040  0.4103E+01  0.5532E+01
 -15.030  0.3831E+01  0.5571E+01
 -15.020  0.3548E+01  0.5606E+01
 -15.010  0.3260E+01  0.5639E+01
 -15.000  0.2972E+01  0.5668E+01
 -14.990  0.2687E+01  0.5695E+01
 -14.980  0.2412E+01  0.5719E+01
 -14.970  0.2150E+01  0.5741E+01
 -14.960  0.1907E+01  0.5760E+01
 -14.950  0.1685E+01  0.5777E+01
 -14.940  0.1489E+01  0.5792E+01
 -14.930  0.1322E+01  0.5805E+01
 -14.920  0.1188E+01  0.5817E+01
 -14.910  0.1090E+01  0.5828E+01
 -14.900  0.1031E+01  0.5838E+01
 -14.890  0.1016E+01  0.5848E+01
 -14.880  0.1049E+01  0.5859E+01
 -14.870  0.1133E+01  0.5870E+01
 -14.860  0.1275E+01  0.5883E+01
 -14.850  0.1480E+01  0.5898E+01
 -14.840  0.1754E+01  0.5915E+01
 -14.830  0.2103E+01  0.5936E+01
 -14.820  0.2535E+01  0.5961E+01
 -14.810  0.3054E+01  0.5992E+01
 -14.800  0.3667E+01  0.6029E+01
 -14.790  0.4378E+01  0.6073E+01
 -14.780  0.5190E+01  0.6124E+01
 -14.770  0.6104E+01  0.6185E+01
 -14.760  0.7117E+01  0.6257E+01
 -14.750  0.8225E+01  0.6339E+01
 -14.740  0.9420E+01  0.6433E+01
 -14.730  0.1069E+02  0.6540E+01
 -14.720  0.1202E+02  0.6660E+01
 -14.710  0.1339E+02  0.6794E+01
 -14.700  0.1478E+02  0.6942E+01
 -14.690  0.1616E+02  0.7103E+01
 -14.680  0.1751E+02  0.7279E+01
 -14.670  0.1879E+02  0.7467E+01
 -14.660  0.1998E+02  0.7666E+01
 -14.650  0.2105E+02  0.7877E+01
 -14.640  0.2198E+02  0.8097E+01
 -14.630  0.2273E+02  0.8324E+01
 -14.620  0.2328E+02  0.8557E+01
 -14.610  0.2363E+02  0.8793E+01
 -14.600  0.2376E+02  0.9031E+01
 -14.590  0.2367E+02  0.9267E+01
 -14.580  0.2337E+02  0.9501E+01
 -14.570  0.2285E+02  0.9730E+01
 -14.560  0.2213E+02  0.9951E+01
 -14.550  0.2123E+02  0.1016E+02
 -14.540  0.2018E+02  0.1037E+02
 -14.530  0.1900E+02  0.1056E+02
 -14.520  0.1773E+02  0.1073E+02
 -14.510  0.1638E+02  0.1090E+02
 -14.500  0.1499E+02  0.1105E+02
 -14.490  0.1359E+02  0.1118E+02
 -14.480  0.1220E+02  0.1130E+02
 -14.470  0.1085E+02  0.1141E+02
 -14.460  0.9558E+01  0.1151E+02
 -14.450  0.8338E+01  0.1159E+02
 -14.440  0.7204E+01  0.1166E+02
 -14.430  0.6165E+01  0.1173E+02
 -14.420  0.5225E+01  0.1178E+02
 -14.410  0.4385E+01  0.1182E+02
 -14.400  0.3645E+01  0.1186E+02
 -14.390  0.3000E+01  0.1189E+02
 -14.380  0.2445E+01  0.1191E+02
 -14.370  0.1974E+01  0.1193E+02
 -14.360  0.1578E+01  0.1195E+02
 -14.350  0.1249E+01  0.1196E+02
 -14.340  0.9787E+00  0.1197E+02
 -14.330  0.7595E+00  0.1198E+02
 -14.320  0.5837E+00  0.1198E+02
 -14.310  0.4441E+00  0.1199E+02
 -14.300  0.3346E+00  0.1199E+02
 -14.290  0.2496E+00  0.1199E+02
 -14.280  0.1844E+00  0.1200E+02
 -14.270  0.1348E+00  0.1200E+02
 -14.260  0.9762E-01  0.1200E+02
 -14.250  0.6999E-01  0.1200E+02
 -14.240  0.4968E-01  0.1200E+02
 -14.230  0.3491E-01  0.1200E+02
 -14.220  0.2429E-01  0.1200E+02
 -14.210  0.1674E-01  0.1200E+02
 -14.200  0.1141E-01  0.1200E+02
 -14.190  0.7707E-02  0.1200E+02
 -14.180  0.5153E-02  0.1200E+02
 -14.170  0.3410E-02  0.1200E+02
 -14.160  0.2235E-02  0.1200E+02
 -14.150  0.1450E-02  0.1200E+02
 -14.140  0.9312E-03  0.1200E+02
 -14.130  0.5921E-03  0.1200E+02
 -14.120  0.3727E-03  0.1200E+02
 -14.110  0.2323E-03  0.1200E+02
 -14.100  0.1433E-03  0.1200E+02
 -14.090  0.8754E-04  0.1200E+02
 -14.080  0.5293E-04  0.1200E+02
 -14.070  0.3169E-04  0.1200E+02
 -14.060  0.1878E-04  0.1200E+02
 -14.050  0.1102E-04  0.1200E+02
 -14.040  0.6398E-05  0.1200E+02
 -14.030  0.3678E-05  0.1200E+02
 -14.020  0.2093E-05  0.1200E+02
 -14.010  0.1179E-05  0.1200E+02
 -14.000  0.6578E-06  0.1200E+02
 -13.990  0.3632E-06  0.1200E+02
 -13.980  0.1985E-06  0.1200E+02
 -13.970  0.1074E-06  0.1200E+02
 -13.960  0.5752E-07  0.1200E+02
 -13.950  0.3049E-07  0.1200E+02
 -13.940  0.1600E-07  0.1200E+02
 -13.930  0.8312E-08  0.1200E+02
 -13.920  0.4274E-08  0.1200E+02
 -13.910  0.2175E-08  0.1200E+02
 -13.900  0.1096E-08  0.1200E+02
 -13.890  0.5464E-09  0.1200E+02
 -13.880  0.2697E-09  0.1200E+02
 -13.870  0.1318E-09  0.1200E+02
 -13.860  0.6371E-10  0.1200E+02
 -13.850  0.3049E-10  0.1200E+02
 -13.840  0.1445E-10  0.1200E+02
 -13.830  0.6773E-11  0.1200E+02
 -13.820  0.3143E-11  0.1200E+02
 -13.810  0.1444E-11  0.1200E+02
 -13.800  0.6563E-12  0.1200E+02
 -13.790  0.2953E-12  0.1200E+02
 -13.780  0.1315E-12  0.1200E+02
 -13.770  0.5795E-13  0.1200E+02
 -13.760  0.2527E-13  0.1200E+02
 -13.750  0.1091E-13  0.1200E+02
 -13.740  0.4660E-14  0.1200E+02
 -13.730  0.1970E-14  0.1200E+02
 -13.720  0.8243E-15  0.1200E+02
 -13.710  0.3413E-15  0.1200E+02
 -13.700  0.1399E-15  0.1200E+02
 -13.690  0.5671E-16  0.1200E+02
 -13.680  0.2276E-16  0.1200E+02
 -13.670  0.9037E-17  0.1200E+02
 -13.660  0.3552E-17  0.1200E+02
 -13.650  0.1381E-17  0.1200E+02
 -13.640  0.5315E-18  0.1200E+02
 -13.630  0.2024E-18  0.1200E+02
 -13.620  0.7626E-19  0.1200E+02
 -13.610  0.2844E-19  0.1200E+02
 -13.600  0.1049E-19  0.1200E+02
 -13.590  0.3831E-20  0.1200E+02
 -13.580  0.1384E-20  0.1200E+02
 -13.570  0.4948E-21  0.1200E+02
 -13.560  0.1750E-21  0.1200E+02
 -13.550  0.6126E-22  0.1200E+02
 -13.540  0.2122E-22  0.1200E+02
 -13.530  0.7271E-23  0.1200E+02
 -13.520  0.2465E-23  0.1200E+02
 -13.510  0.8271E-24  0.1200E+02
 -13.500  0.2746E-24  0.1200E+02
 -13.490  0.9019E-25  0.1200E+02
 -13.480  0.2931E-25  0.1200E+02
 -13.470  0.9425E-26  0.1200E+02
 -13.460  0.2999E-26  0.1200E+02
 -13.450  0.9440E-27  0.1200E+02
 -13.440  0.2940E-27  0.1200E+02
 -13.430  0.9061E-28  0.1200E+02
 -13.420  0.2763E-28  0.1200E+02
 -13.410  0.8335E-29  0.1200E+02
 -13.400  0.2488E-29  0.1200E+02
 -13.390  0.7346E-30  0.1200E+02
 -13.380  0.2146E-30  0.1200E+02
 -13.370  0.6205E-31  0.1200E+02
 -13.360  0.1774E-31  0.1200E+02
 -13.350  0.5021E-32  0.1200E+02
 -13.340  0.1406E-32  0.1200E+02
 -13.330  0.3893E-33  0.1200E+02
 -13.320  0.1067E-33  0.1200E+02
 -13.310  0.2893E-34  0.1200E+02
 -13.300  0.7759E-35  0.1200E+02
 -13.290  0.2059E-35  0.1200E+02
 -13.280  0.5405E-36  0.1200E+02
 -13.270  0.1404E-36  0.1200E+02
 -13.260  0.3608E-37  0.1200E+02
 -13.250  0.9173E-38  0.1200E+02
 -13.240  0.2307E-38  0.1200E+02
 -13.230  0.5742E-39  0.1200E+02
 -13.220  0.1413E-39  0.1200E+02
 -13.210  0.3443E-40  0.1200E+02
 -13.200  0.8296E-41  0.1200E+02
 -13.190  0.1978E-41  0.1200E+02
 -13.180  0.4664E-42  0.1200E+02
 -13.170  0.1088E-42  0.1200E+02
 -13.160  0.2512E-43  0.1200E+02
 -13.150  0.5736E-44  0.1200E+02
 -13.140  0.1296E-44  0.1200E+02
 -13.130  0.2896E-45  0.1200E+02
 -13.120  0.6404E-46  0.1200E+02
 -13.110  0.1401E-46  0.1200E+02
 -13.100  0.3032E-47  0.1200E+02
 -13.090  0.6491E-48  0.1200E+02
 -13.080  0.1375E-48  0.1200E+02
 -13.070  0.2881E-49  0.1200E+02
 -13.060  0.5972E-50  0.1200E+02
 -13.050  0.1225E-50  0.1200E+02
 -13.040  0.2485E-51  0.1200E+02
 -13.030  0.4987E-52  0.1200E+02
 -13.020  0.9902E-53  0.1200E+02
 -13.010  0.1945E-53  0.1200E+02
 -13.000  0.3780E-54  0.1200E+02
 -12.990  0.7266E-55  0.1200E+02
 -12.980  0.1382E-55  0.1200E+02
 -12.970  0.2600E-56  0.1200E+02
 -12.960  0.4840E-57  0.1200E+02
 -12.950  0.8912E-58  0.1200E+02
 -12.940  0.1623E-58  0.1200E+02
 -12.930  0.2926E-59  0.1200E+02
 -12.920  0.5216E-60  0.1200E+02
 -12.910  0.9199E-61  0.1200E+02
 -12.900  0.1605E-61  0.1200E+02
 -12.890  0.2770E-62  0.1200E+02
 -12.880  0.4731E-63  0.1200E+02
 -12.870  0.7991E-64  0.1200E+02
 -12.860  0.1335E-64  0.1200E+02
 -12.850  0.2208E-65  0.1200E+02
 -12.840  0.3611E-66  0.1200E+02
 -12.830  0.5842E-67  0.1200E+02
 -12.820  0.9351E-68  0.1200E+02
 -12.810  0.1481E-68  0.1200E+02
 -12.800  0.2319E-69  0.1200E+02
 -12.790  0.3594E-70  0.1200E+02
 -12.780  0.5510E-71  0.1200E+02
 -12.770  0.8356E-72  0.1200E+02
 -12.760  0.1254E-72  0.1200E+02
 -12.750  0.1861E-73  0.1200E+02
 -12.740  0.2732E-74  0.1200E+02
 -12.730  0.3968E-75  0.1200E+02
 -12.720  0.5701E-76  0.1200E+02
 -12.710  0.8104E-77  0.1200E+02
 -12.700  0.1140E-77  0.1200E+02
 -12.690  0.1585E-78  0.1200E+02
 -12.680  0.2182E-79  0.1200E+02
 -12.670  0.2971E-80  0.1200E+02
 -12.660  0.4003E-81  0.1200E+02
 -12.650  0.5356E-82  0.1200E+02
 -12.640  0.7292E-83  0.1200E+02
 -12.630  0.1187E-83  0.1200E+02
 -12.620  0.3916E-84  0.1200E+02
 -12.610  0.2895E-84  0.1200E+02
 -12.600  0.2765E-84  0.1200E+02
 -12.590  0.2755E-84  0.1200E+02
 -12.580  0.2755E-84  0.1200E+02
 -12.570  0.2755E-84  0.1200E+02
 -12.560  0.2755E-84  0.1200E+02
 -12.550  0.2755E-84  0.1200E+02
 -12.540  0.2755E-84  0.1200E+02
 -12.530  0.2755E-84  0.1200E+02
 -12.520  0.2755E-84  0.1200E+02
 -12.510  0.2755E-84  0.1200E+02
 -12.500  0.2755E-84  0.1200E+02
 -12.490  0.2755E-84  0.1200E+02
 -12.480  0.2755E-84  0.1200E+02
 -12.470  0.2755E-84  0.1200E+02
 -12.460  0.2755E-84  0.1200E+02
 -12.450  0.2755E-84  0.1200E+02
 -12.440  0.2755E-84  0.1200E+02
 -12.430  0.2755E-84  0.1200E+02
 -12.420  0.2755E-84  0.1200E+02
 -12.410  0.2755E-84  0.1200E+02
 -12.400  0.2755E-84  0.1200E+02
 -12.390  0.2755E-84  0.1200E+02
 -12.380  0.2755E-84  0.1200E+02
 -12.370  0.2755E-84  0.1200E+02
 -12.360  0.2755E-84  0.1200E+02
 -12.350  0.2755E-84  0.1200E+02
 -12.340  0.2755E-84  0.1200E+02
 -12.330  0.2755E-84  0.1200E+02
 -12.320  0.2755E-84  0.1200E+02
 -12.310  0.2755E-84  0.1200E+02
 -12.300  0.2755E-84  0.1200E+02
 -12.290  0.2755E-84  0.1200E+02
 -12.280  0.2755E-84  0.1200E+02
 -12.270  0.2755E-84  0.1200E+02
 -12.260  0.2755E-84  0.1200E+02
 -12.250  0.2755E-84  0.1200E+02
 -12.240  0.2755E-84  0.1200E+02
 -12.230  0.2755E-84  0.1200E+02
 -12.220  0.2755E-84  0.1200E+02
 -12.210  0.2755E-84  0.1200E+02
 -12.200  0.2755E-84  0.1200E+02
 -12.190  0.2755E-84  0.1200E+02
 -12.180  0.2755E-84  0.1200E+02
 -12.170  0.2755E-84  0.1200E+02
 -12.160  0.2755E-84  0.1200E+02
 -12.150  0.2755E-84  0.1200E+02
 -12.140  0.2755E-84  0.1200E+02
 -12.130  0.2755E-84  0.1200E+02
 -12.120  0.2755E-84  0.1200E+02
 -12.110  0.2755E-84  0.1200E+02
 -12.100  0.2755E-84  0.1200E+02
 -12.090  0.2755E-84  0.1200E+02
 -12.080  0.2755E-84  0.1200E+02
 -12.070  0.2755E-84  0.1200E+02
 -12.060  0.2755E-84  0.1200E+02
 -12.050  0.2755E-84  0.1200E+02
 -12.040  0.2755E-84  0.1200E+02
 -12.030  0.2755E-84  0.1200E+02
 -12.020  0.2755E-84  0.1200E+02
 -12.010  0.2755E-84  0.1200E+02
 -12.000  0.2755E-84  0.1200E+02
 -11.990  0.2755E-84  0.1200E+02
 -11.980  0.2755E-84  0.1200E+02
 -11.970  0.2755E-84  0.1200E+02
 -11.960  0.2755E-84  0.1200E+02
 -11.950  0.2755E-84  0.1200E+02
 -11.940  0.2755E-84  0.1200E+02
 -11.930  0.2755E-84  0.1200E+02
 -11.920  0.2755E-84  0.1200E+02
 -11.910  0.2755E-84  0.1200E+02
 -11.900  0.2755E-84  0.1200E+02
 -11.890  0.2755E-84  0.1200E+02
 -11.880  0.2755E-84  0.1200E+02
 -11.870  0.2755E-84  0.1200E+02
 -11.860  0.2755E-84  0.1200E+02
 -11.850  0.2755E-84  0.1200E+02
 -11.840  0.2755E-84  0.1200E+02
 -11.830  0.2755E-84  0.1200E+02
 -11.820  0.2755E-84  0.1200E+02
 -11.810  0.2755E-84  0.1200E+02
 -11.800  0.2755E-84  0.1200E+02
 -11.790  0.2755E-84  0.1200E+02
 -11.780  0.2755E-84  0.1200E+02
 -11.770  0.2755E-84  0.1200E+02
 -11.760  0.2755E-84  0.1200E+02
 -11.750  0.2755E-84  0.1200E+02
 -11.740  0.2755E-84  0.1200E+02
 -11.730  0.2755E-84  0.1200E+02
 -11.720  0.2755E-84  0.1200E+02
 -11.710  0.2755E-84  0.1200E+02
 -11.700  0.2755E-84  0.1200E+02
 -11.690  0.2755E-84  0.1200E+02
 -11.680  0.2755E-84  0.1200E+02
 -11.670  0.2755E-84  0.1200E+02
 -11.660  0.2755E-84  0.1200E+02
 -11.650  0.2755E-84  0.1200E+02
 -11.640  0.2755E-84  0.1200E+02
 -11.630  0.2755E-84  0.1200E+02
 -11.620  0.2755E-84  0.1200E+02
 -11.610  0.2755E-84  0.1200E+02
 -11.600  0.2755E-84  0.1200E+02
 -11.590  0.2755E-84  0.1200E+02
 -11.580  0.2755E-84  0.1200E+02
 -11.570  0.2755E-84  0.1200E+02
 -11.560  0.2755E-84  0.1200E+02
 -11.550  0.2755E-84  0.1200E+02
 -11.540  0.2755E-84  0.1200E+02
 -11.530  0.2755E-84  0.1200E+02
 -11.520  0.2755E-84  0.1200E+02
 -11.510  0.2755E-84  0.1200E+02
 -11.500  0.2755E-84  0.1200E+02
 -11.490  0.2755E-84  0.1200E+02
 -11.480  0.2755E-84  0.1200E+02
 -11.470  0.2755E-84  0.1200E+02
 -11.460  0.2755E-84  0.1200E+02
 -11.450  0.2755E-84  0.1200E+02
 -11.440  0.2755E-84  0.1200E+02
 -11.430  0.2755E-84  0.1200E+02
 -11.420  0.2755E-84  0.1200E+02
 -11.410  0.2755E-84  0.1200E+02
 -11.400  0.2755E-84  0.1200E+02
 -11.390  0.2755E-84  0.1200E+02
 -11.380  0.2755E-84  0.1200E+02
 -11.370  0.2755E-84  0.1200E+02
 -11.360  0.2755E-84  0.1200E+02
 -11.350  0.2755E-84  0.1200E+02
 -11.340  0.2755E-84  0.1200E+02
 -11.330  0.2755E-84  0.1200E+02
 -11.320  0.2755E-84  0.1200E+02
 -11.310  0.2755E-84  0.1200E+02
 -11.300  0.2755E-84  0.1200E+02
 -11.290  0.2755E-84  0.1200E+02
 -11.280  0.2755E-84  0.1200E+02
 -11.270  0.2755E-84  0.1200E+02
 -11.260  0.2755E-84  0.1200E+02
 -11.250  0.2755E-84  0.1200E+02
 -11.240  0.2755E-84  0.1200E+02
 -11.230  0.2755E-84  0.1200E+02
 -11.220  0.2755E-84  0.1200E+02
 -11.210  0.2755E-84  0.1200E+02
 -11.200  0.2755E-84  0.1200E+02
 -11.190  0.2755E-84  0.1200E+02
 -11.180  0.2755E-84  0.1200E+02
 -11.170  0.2755E-84  0.1200E+02
 -11.160  0.2755E-84  0.1200E+02
 -11.150  0.2755E-84  0.1200E+02
 -11.140  0.2755E-84  0.1200E+02
 -11.130  0.2755E-84  0.1200E+02
 -11.120  0.2755E-84  0.1200E+02
 -11.110  0.2755E-84  0.1200E+02
 -11.100  0.2755E-84  0.1200E+02
 -11.090  0.2755E-84  0.1200E+02
 -11.080  0.2755E-84  0.1200E+02
 -11.070  0.2755E-84  0.1200E+02
 -11.060  0.2755E-84  0.1200E+02
 -11.050  0.2755E-84  0.1200E+02
 -11.040  0.2755E-84  0.1200E+02
 -11.030  0.2755E-84  0.1200E+02
 -11.020  0.2755E-84  0.1200E+02
 -11.010  0.2755E-84  0.1200E+02
 -11.000  0.2755E-84  0.1200E+02
 -10.990  0.2755E-84  0.1200E+02
 -10.980  0.2755E-84  0.1200E+02
 -10.970  0.2755E-84  0.1200E+02
 -10.960  0.2755E-84  0.1200E+02
 -10.950  0.2755E-84  0.1200E+02
 -10.940  0.2755E-84  0.1200E+02
 -10.930  0.2755E-84  0.1200E+02
 -10.920  0.2755E-84  0.1200E+02
 -10.910  0.2755E-84  0.1200E+02
 -10.900  0.2755E-84  0.1200E+02
 -10.890  0.2755E-84  0.1200E+02
 -10.880  0.2755E-84  0.1200E+02
 -10.870  0.2755E-84  0.1200E+02
 -10.860  0.2755E-84  0.1200E+02
 -10.850  0.2755E-84  0.1200E+02
 -10.840  0.2755E-84  0.1200E+02
 -10.830  0.2755E-84  0.1200E+02
 -10.820  0.2755E-84  0.1200E+02
 -10.810  0.2755E-84  0.1200E+02
 -10.800  0.2755E-84  0.1200E+02
 -10.790  0.2755E-84  0.1200E+02
 -10.780  0.2755E-84  0.1200E+02
 -10.770  0.2755E-84  0.1200E+02
 -10.760  0.2755E-84  0.1200E+02
 -10.750  0.2755E-84  0.1200E+02
 -10.740  0.2755E-84  0.1200E+02
 -10.730  0.2755E-84  0.1200E+02
 -10.720  0.2755E-84  0.1200E+02
 -10.710  0.2755E-84  0.1200E+02
 -10.700  0.2755E-84  0.1200E+02
 -10.690  0.2755E-84  0.1200E+02
 -10.680  0.2755E-84  0.1200E+02
 -10.670  0.2755E-84  0.1200E+02
 -10.660  0.2755E-84  0.1200E+02
 -10.650  0.2755E-84  0.1200E+02
 -10.640  0.2755E-84  0.1200E+02
 -10.630  0.2755E-84  0.1200E+02
 -10.620  0.2755E-84  0.1200E+02
 -10.610  0.2755E-84  0.1200E+02
 -10.600  0.2755E-84  0.1200E+02
 -10.590  0.2755E-84  0.1200E+02
 -10.580  0.2755E-84  0.1200E+02
 -10.570  0.2755E-84  0.1200E+02
 -10.560  0.2755E-84  0.1200E+02
 -10.550  0.2755E-84  0.1200E+02
 -10.540  0.2755E-84  0.1200E+02
 -10.530  0.2755E-84  0.1200E+02
 -10.520  0.2755E-84  0.1200E+02
 -10.510  0.2755E-84  0.1200E+02
 -10.500  0.2755E-84  0.1200E+02
 -10.490  0.2755E-84  0.1200E+02
 -10.480  0.2755E-84  0.1200E+02
 -10.470  0.2755E-84  0.1200E+02
 -10.460  0.2755E-84  0.1200E+02
 -10.450  0.2755E-84  0.1200E+02
 -10.440  0.2755E-84  0.1200E+02
 -10.430  0.2755E-84  0.1200E+02
 -10.420  0.2755E-84  0.1200E+02
 -10.410  0.2755E-84  0.1200E+02
 -10.400  0.2755E-84  0.1200E+02
 -10.390  0.2755E-84  0.1200E+02
 -10.380  0.2755E-84  0.1200E+02
 -10.370  0.2755E-84  0.1200E+02
 -10.360  0.2755E-84  0.1200E+02
 -10.350  0.2755E-84  0.1200E+02
 -10.340  0.2755E-84  0.1200E+02
 -10.330  0.2755E-84  0.1200E+02
 -10.320  0.2755E-84  0.1200E+02
 -10.310  0.2755E-84  0.1200E+02
 -10.300  0.2755E-84  0.1200E+02
 -10.290  0.2755E-84  0.1200E+02
 -10.280  0.2755E-84  0.1200E+02
 -10.270  0.2755E-84  0.1200E+02
 -10.260  0.2755E-84  0.1200E+02
 -10.250  0.2755E-84  0.1200E+02
 -10.240  0.2755E-84  0.1200E+02
 -10.230  0.2755E-84  0.1200E+02
 -10.220  0.2755E-84  0.1200E+02
 -10.210  0.2755E-84  0.1200E+02
 -10.200  0.2755E-84  0.1200E+02
 -10.190  0.2755E-84  0.1200E+02
 -10.180  0.2755E-84  0.1200E+02
 -10.170  0.2755E-84  0.1200E+02
 -10.160  0.2755E-84  0.1200E+02
 -10.150  0.2755E-84  0.1200E+02
 -10.140  0.2755E-84  0.1200E+02
 -10.130  0.2755E-84  0.1200E+02
 -10.120  0.2755E-84  0.1200E+02
 -10.110  0.2755E-84  0.1200E+02
 -10.100  0.2755E-84  0.1200E+02
 -10.090  0.2755E-84  0.1200E+02
 -10.080  0.2755E-84  0.1200E+02
 -10.070  0.2755E-84  0.1200E+02
 -10.060  0.2755E-84  0.1200E+02
 -10.050  0.2755E-84  0.1200E+02
 -10.040  0.2755E-84  0.1200E+02
 -10.030  0.2755E-84  0.1200E+02
 -10.020  0.2755E-84  0.1200E+02
 -10.010  0.2755E-84  0.1200E+02
 -10.000  0.2755E-84  0.1200E+02
  -9.990  0.2755E-84  0.1200E+02
  -9.980  0.2755E-84  0.1200E+02
  -9.970  0.2755E-84  0.1200E+02
  -9.960  0.2755E-84  0.1200E+02
  -9.950  0.2755E-84  0.1200E+02
  -9.940  0.2755E-84  0.1200E+02
  -9.930  0.2755E-84  0.1200E+02
  -9.920  0.2755E-84  0.1200E+02
  -9.910  0.2755E-84  0.1200E+02
  -9.900  0.2755E-84  0.1200E+02
  -9.890  0.2755E-84  0.1200E+02
  -9.880  0.2755E-84  0.1200E+02
  -9.870  0.2755E-84  0.1200E+02
  -9.860  0.2755E-84  0.1200E+02
  -9.850  0.2755E-84  0.1200E+02
  -9.840  0.2755E-84  0.1200E+02
  -9.830  0.2755E-84  0.1200E+02
  -9.820  0.2755E-84  0.1200E+02
  -9.810  0.2755E-84  0.1200E+02
  -9.800  0.2755E-84  0.1200E+02
  -9.790  0.2755E-84  0.1200E+02
  -9.780  0.2755E-84  0.1200E+02
  -9.770  0.2755E-84  0.1200E+02
  -9.760  0.2755E-84  0.1200E+02
  -9.750  0.2755E-84  0.1200E+02
  -9.740  0.2755E-84  0.1200E+02
  -9.730  0.2755E-84  0.1200E+02
  -9.720  0.2755E-84  0.1200E+02
  -9.710  0.2755E-84  0.1200E+02
  -9.700  0.2755E-84  0.1200E+02
  -9.690  0.2755E-84  0.1200E+02
  -9.680  0.2755E-84  0.1200E+02
  -9.670  0.2755E-84  0.1200E+02
  -9.660  0.2755E-84  0.1200E+02
  -9.650  0.2755E-84  0.1200E+02
  -9.640  0.2755E-84  0.1200E+02
  -9.630  0.2755E-84  0.1200E+02
  -9.620  0.2755E-84  0.1200E+02
  -9.610  0.2755E-84  0.1200E+02
  -9.600  0.2755E-84  0.1200E+02
  -9.590  0.2755E-84  0.1200E+02
  -9.580  0.2755E-84  0.1200E+02
  -9.570  0.2755E-84  0.1200E+02
  -9.560  0.2755E-84  0.1200E+02
  -9.550  0.2755E-84  0.1200E+02
  -9.540  0.2755E-84  0.1200E+02
  -9.530  0.2755E-84  0.1200E+02
  -9.520  0.2755E-84  0.1200E+02
  -9.510  0.2755E-84  0.1200E+02
  -9.500  0.2755E-84  0.1200E+02
  -9.490  0.2755E-84  0.1200E+02
  -9.480  0.2755E-84  0.1200E+02
  -9.470  0.2755E-84  0.1200E+02
  -9.460  0.2755E-84  0.1200E+02
  -9.450  0.2755E-84  0.1200E+02
  -9.440  0.2755E-84  0.1200E+02
  -9.430  0.2755E-84  0.1200E+02
  -9.420  0.2755E-84  0.1200E+02
  -9.410  0.2755E-84  0.1200E+02
  -9.400  0.2755E-84  0.1200E+02
  -9.390  0.2755E-84  0.1200E+02
  -9.380  0.2755E-84  0.1200E+02
  -9.370  0.2755E-84  0.1200E+02
  -9.360  0.2755E-84  0.1200E+02
  -9.350  0.2755E-84  0.1200E+02
  -9.340  0.2755E-84  0.1200E+02
  -9.330  0.2755E-84  0.1200E+02
  -9.320  0.2755E-84  0.1200E+02
  -9.310  0.2755E-84  0.1200E+02
  -9.300  0.2755E-84  0.1200E+02
  -9.290  0.2755E-84  0.1200E+02
  -9.280  0.2755E-84  0.1200E+02
  -9.270  0.2755E-84  0.1200E+02
  -9.260  0.2755E-84  0.1200E+02
  -9.250  0.2755E-84  0.1200E+02
  -9.240  0.2755E-84  0.1200E+02
  -9.230  0.2755E-84  0.1200E+02
  -9.220  0.2755E-84  0.1200E+02
  -9.210  0.2755E-84  0.1200E+02
  -9.200  0.2755E-84  0.1200E+02
  -9.190  0.2755E-84  0.1200E+02
  -9.180  0.2755E-84  0.1200E+02
  -9.170  0.2755E-84  0.1200E+02
  -9.160  0.2755E-84  0.1200E+02
  -9.150  0.2755E-84  0.1200E+02
  -9.140  0.2755E-84  0.1200E+02
  -9.130  0.2755E-84  0.1200E+02
  -9.120  0.2755E-84  0.1200E+02
  -9.110  0.2755E-84  0.1200E+02
  -9.100  0.2755E-84  0.1200E+02
  -9.090  0.2755E-84  0.1200E+02
  -9.080  0.2755E-84  0.1200E+02
  -9.070  0.2755E-84  0.1200E+02
  -9.060  0.2755E-84  0.1200E+02
  -9.050  0.2755E-84  0.1200E+02
  -9.040  0.2755E-84  0.1200E+02
  -9.030  0.2755E-84  0.1200E+02
  -9.020  0.2755E-84  0.1200E+02
  -9.010  0.2755E-84  0.1200E+02
  -9.000  0.2755E-84  0.1200E+02
  -8.990  0.2755E-84  0.1200E+02
  -8.980  0.2755E-84  0.1200E+02
  -8.970  0.2755E-84  0.1200E+02
  -8.960  0.2755E-84  0.1200E+02
  -8.950  0.2755E-84  0.1200E+02
  -8.940  0.2755E-84  0.1200E+02
  -8.930  0.2755E-84  0.1200E+02
  -8.920  0.2755E-84  0.1200E+02
  -8.910  0.2755E-84  0.1200E+02
  -8.900  0.2755E-84  0.1200E+02
  -8.890  0.2755E-84  0.1200E+02
  -8.880  0.2755E-84  0.1200E+02
  -8.870  0.2755E-84  0.1200E+02
  -8.860  0.2755E-84  0.1200E+02
  -8.850  0.2755E-84  0.1200E+02
  -8.840  0.2755E-84  0.1200E+02
  -8.830  0.2755E-84  0.1200E+02
  -8.820  0.2755E-84  0.1200E+02
  -8.810  0.2755E-84  0.1200E+02
  -8.800  0.2755E-84  0.1200E+02
  -8.790  0.2755E-84  0.1200E+02
  -8.780  0.2755E-84  0.1200E+02
  -8.770  0.2755E-84  0.1200E+02
  -8.760  0.2755E-84  0.1200E+02
  -8.750  0.2755E-84  0.1200E+02
  -8.740  0.2755E-84  0.1200E+02
  -8.730  0.2755E-84  0.1200E+02
  -8.720  0.2755E-84  0.1200E+02
  -8.710  0.2755E-84  0.1200E+02
  -8.700  0.2755E-84  0.1200E+02
  -8.690  0.2755E-84  0.1200E+02
  -8.680  0.2755E-84  0.1200E+02
  -8.670  0.2755E-84  0.1200E+02
  -8.660  0.2755E-84  0.1200E+02
  -8.650  0.2755E-84  0.1200E+02
  -8.640  0.2755E-84  0.1200E+02
  -8.630  0.2755E-84  0.1200E+02
  -8.620  0.2755E-84  0.1200E+02
  -8.610  0.2755E-84  0.1200E+02
  -8.600  0.2755E-84  0.1200E+02
  -8.590  0.2755E-84  0.1200E+02
  -8.580  0.2755E-84  0.1200E+02
  -8.570  0.2755E-84  0.1200E+02
  -8.560  0.2805E-84  0.1200E+02
  -8.550  0.3213E-84  0.1200E+02
  -8.540  0.6383E-84  0.1200E+02
  -8.530  0.3076E-83  0.1200E+02
  -8.520  0.2163E-82  0.1200E+02
  -8.510  0.1612E-81  0.1200E+02
  -8.500  0.1201E-80  0.1200E+02
  -8.490  0.8858E-80  0.1200E+02
  -8.480  0.6465E-79  0.1200E+02
  -8.470  0.4668E-78  0.1200E+02
  -8.460  0.3334E-77  0.1200E+02
  -8.450  0.2356E-76  0.1200E+02
  -8.440  0.1647E-75  0.1200E+02
  -8.430  0.1139E-74  0.1200E+02
  -8.420  0.7790E-74  0.1200E+02
  -8.410  0.5271E-73  0.1200E+02
  -8.400  0.3529E-72  0.1200E+02
  -8.390  0.2337E-71  0.1200E+02
  -8.380  0.1531E-70  0.1200E+02
  -8.370  0.9923E-70  0.1200E+02
  -8.360  0.6362E-69  0.1200E+02
  -8.350  0.4035E-68  0.1200E+02
  -8.340  0.2531E-67  0.1200E+02
  -8.330  0.1571E-66  0.1200E+02
  -8.320  0.9647E-66  0.1200E+02
  -8.310  0.5860E-65  0.1200E+02
  -8.300  0.3521E-64  0.1200E+02
  -8.290  0.2093E-63  0.1200E+02
  -8.280  0.1231E-62  0.1200E+02
  -8.270  0.7160E-62  0.1200E+02
  -8.260  0.4120E-61  0.1200E+02
  -8.250  0.2346E-60  0.1200E+02
  -8.240  0.1321E-59  0.1200E+02
  -8.230  0.7359E-59  0.1200E+02
  -8.220  0.4056E-58  0.1200E+02
  -8.210  0.2211E-57  0.1200E+02
  -8.200  0.1193E-56  0.1200E+02
  -8.190  0.6363E-56  0.1200E+02
  -8.180  0.3359E-55  0.1200E+02
  -8.170  0.1754E-54  0.1200E+02
  -8.160  0.9059E-54  0.1200E+02
  -8.150  0.4629E-53  0.1200E+02
  -8.140  0.2340E-52  0.1200E+02
  -8.130  0.1170E-51  0.1200E+02
  -8.120  0.5788E-51  0.1200E+02
  -8.110  0.2833E-50  0.1200E+02
  -8.100  0.1371E-49  0.1200E+02
  -8.090  0.6567E-49  0.1200E+02
  -8.080  0.3111E-48  0.1200E+02
  -8.070  0.1458E-47  0.1200E+02
  -8.060  0.6761E-47  0.1200E+02
  -8.050  0.3101E-46  0.1200E+02
  -8.040  0.1407E-45  0.1200E+02
  -8.030  0.6315E-45  0.1200E+02
  -8.020  0.2804E-44  0.1200E+02
  -8.010  0.1232E-43  0.1200E+02
  -8.000  0.5352E-43  0.1200E+02
  -7.990  0.2301E-42  0.1200E+02
  -7.980  0.9784E-42  0.1200E+02
  -7.970  0.4116E-41  0.1200E+02
  -7.960  0.1713E-40  0.1200E+02
  -7.950  0.7051E-40  0.1200E+02
  -7.940  0.2872E-39  0.1200E+02
  -7.930  0.1157E-38  0.1200E+02
  -7.920  0.4611E-38  0.1200E+02
  -7.910  0.1818E-37  0.1200E+02
  -7.900  0.7091E-37  0.1200E+02
  -7.890  0.2736E-36  0.1200E+02
  -7.880  0.1044E-35  0.1200E+02
  -7.870  0.3943E-35  0.1200E+02
  -7.860  0.1473E-34  0.1200E+02
  -7.850  0.5443E-34  0.1200E+02
  -7.840  0.1990E-33  0.1200E+02
  -7.830  0.7195E-33  0.1200E+02
  -7.820  0.2574E-32  0.1200E+02
  -7.810  0.9110E-32  0.1200E+02
  -7.800  0.3189E-31  0.1200E+02
  -7.790  0.1105E-30  0.1200E+02
  -7.780  0.3784E-30  0.1200E+02
  -7.770  0.1283E-29  0.1200E+02
  -7.760  0.4300E-29  0.1200E+02
  -7.750  0.1426E-28  0.1200E+02
  -7.740  0.4680E-28  0.1200E+02
  -7.730  0.1519E-27  0.1200E+02
  -7.720  0.4878E-27  0.1200E+02
  -7.710  0.1549E-26  0.1200E+02
  -7.700  0.4869E-26  0.1200E+02
  -7.690  0.1514E-25  0.1200E+02
  -7.680  0.4654E-25  0.1200E+02
  -7.670  0.1416E-24  0.1200E+02
  -7.660  0.4261E-24  0.1200E+02
  -7.650  0.1269E-23  0.1200E+02
  -7.640  0.3736E-23  0.1200E+02
  -7.630  0.1089E-22  0.1200E+02
  -7.620  0.3138E-22  0.1200E+02
  -7.610  0.8946E-22  0.1200E+02
  -7.600  0.2523E-21  0.1200E+02
  -7.590  0.7041E-21  0.1200E+02
  -7.580  0.1943E-20  0.1200E+02
  -7.570  0.5307E-20  0.1200E+02
  -7.560  0.1433E-19  0.1200E+02
  -7.550  0.3831E-19  0.1200E+02
  -7.540  0.1013E-18  0.1200E+02
  -7.530  0.2648E-18  0.1200E+02
  -7.520  0.6851E-18  0.1200E+02
  -7.510  0.1753E-17  0.1200E+02
  -7.500  0.4439E-17  0.1200E+02
  -7.490  0.1112E-16  0.1200E+02
  -7.480  0.2754E-16  0.1200E+02
  -7.470  0.6751E-16  0.1200E+02
  -7.460  0.1637E-15  0.1200E+02
  -7.450  0.3926E-15  0.1200E+02
  -7.440  0.9316E-15  0.1200E+02
  -7.430  0.2187E-14  0.1200E+02
  -7.420  0.5078E-14  0.1200E+02
  -7.410  0.1166E-13  0.1200E+02
  -7.400  0.2651E-13  0.1200E+02
  -7.390  0.5959E-13  0.1200E+02
  -7.380  0.1325E-12  0.1200E+02
  -7.370  0.2915E-12  0.1200E+02
  -7.360  0.6345E-12  0.1200E+02
  -7.350  0.1366E-11  0.1200E+02
  -7.340  0.2909E-11  0.1200E+02
  -7.330  0.6130E-11  0.1200E+02
  -7.320  0.1278E-10  0.1200E+02
  -7.310  0.2634E-10  0.1200E+02
  -7.300  0.5374E-10  0.1200E+02
  -7.290  0.1084E-09  0.1200E+02
  -7.280  0.2164E-09  0.1200E+02
  -7.270  0.4274E-09  0.1200E+02
  -7.260  0.8349E-09  0.1200E+02
  -7.250  0.1613E-08  0.1200E+02
  -7.240  0.3084E-08  0.1200E+02
  -7.230  0.5833E-08  0.1200E+02
  -7.220  0.1091E-07  0.1200E+02
  -7.210  0.2020E-07  0.1200E+02
  -7.200  0.3698E-07  0.1200E+02
  -7.190  0.6697E-07  0.1200E+02
  -7.180  0.1200E-06  0.1200E+02
  -7.170  0.2127E-06  0.1200E+02
  -7.160  0.3729E-06  0.1200E+02
  -7.150  0.6469E-06  0.1200E+02
  -7.140  0.1110E-05  0.1200E+02
  -7.130  0.1884E-05  0.1200E+02
  -7.120  0.3164E-05  0.1200E+02
  -7.110  0.5256E-05  0.1200E+02
  -7.100  0.8637E-05  0.1200E+02
  -7.090  0.1404E-04  0.1200E+02
  -7.080  0.2258E-04  0.1200E+02
  -7.070  0.3593E-04  0.1200E+02
  -7.060  0.5654E-04  0.1200E+02
  -7.050  0.8803E-04  0.1200E+02
  -7.040  0.1356E-03  0.1200E+02
  -7.030  0.2066E-03  0.1200E+02
  -7.020  0.3114E-03  0.1200E+02
  -7.010  0.4643E-03  0.1200E+02
  -7.000  0.6849E-03  0.1200E+02
  -6.990  0.9994E-03  0.1200E+02
  -6.980  0.1443E-02  0.1200E+02
  -6.970  0.2060E-02  0.1200E+02
  -6.960  0.2910E-02  0.1200E+02
  -6.950  0.4067E-02  0.1200E+02
  -6.940  0.5623E-02  0.1200E+02
  -6.930  0.7690E-02  0.1200E+02
  -6.920  0.1040E-01  0.1200E+02
  -6.910  0.1392E-01  0.1200E+02
  -6.900  0.1843E-01  0.1200E+02
  -6.890  0.2415E-01  0.1200E+02
  -6.880  0.3129E-01  0.1200E+02
  -6.870  0.4010E-01  0.1200E+02
  -6.860  0.5085E-01  0.1200E+02
  -6.850  0.6378E-01  0.1200E+02
  -6.840  0.7915E-01  0.1200E+02
  -6.830  0.9716E-01  0.1200E+02
  -6.820  0.1180E+00  0.1201E+02
  -6.810  0.1417E+00  0.1201E+02
  -6.800  0.1684E+00  0.1201E+02
  -6.790  0.1980E+00  0.1201E+02
  -6.780  0.2303E+00  0.1201E+02
  -6.770  0.2650E+00  0.1202E+02
  -6.760  0.3016E+00  0.1202E+02
  -6.750  0.3395E+00  0.1202E+02
  -6.740  0.3782E+00  0.1203E+02
  -6.730  0.4167E+00  0.1203E+02
  -6.720  0.4542E+00  0.1203E+02
  -6.710  0.4898E+00  0.1204E+02
  -6.700  0.5224E+00  0.1204E+02
  -6.690  0.5513E+00  0.1205E+02
  -6.680  0.5755E+00  0.1206E+02
  -6.670  0.5943E+00  0.1206E+02
  -6.660  0.6071E+00  0.1207E+02
  -6.650  0.6136E+00  0.1207E+02
  -6.640  0.6134E+00  0.1208E+02
  -6.630  0.6067E+00  0.1209E+02
  -6.620  0.5936E+00  0.1209E+02
  -6.610  0.5745E+00  0.1210E+02
  -6.600  0.5500E+00  0.1210E+02
  -6.590  0.5210E+00  0.1211E+02
  -6.580  0.4882E+00  0.1211E+02
  -6.570  0.4525E+00  0.1212E+02
  -6.560  0.4149E+00  0.1212E+02
  -6.550  0.3764E+00  0.1213E+02
  -6.540  0.3378E+00  0.1213E+02
  -6.530  0.2998E+00  0.1213E+02
  -6.520  0.2633E+00  0.1214E+02
  -6.510  0.2288E+00  0.1214E+02
  -6.500  0.1966E+00  0.1214E+02
  -6.490  0.1672E+00  0.1214E+02
  -6.480  0.1406E+00  0.1214E+02
  -6.470  0.1170E+00  0.1214E+02
  -6.460  0.9636E-01  0.1214E+02
  -6.450  0.7854E-01  0.1215E+02
  -6.440  0.6340E-01  0.1215E+02
  -6.430  0.5072E-01  0.1215E+02
  -6.420  0.4030E-01  0.1215E+02
  -6.410  0.3192E-01  0.1215E+02
  -6.400  0.2537E-01  0.1215E+02
  -6.390  0.2047E-01  0.1215E+02
  -6.380  0.1711E-01  0.1215E+02
  -6.370  0.1521E-01  0.1215E+02
  -6.360  0.1476E-01  0.1215E+02
  -6.350  0.1585E-01  0.1215E+02
  -6.340  0.1866E-01  0.1215E+02
  -6.330  0.2345E-01  0.1215E+02
  -6.320  0.3065E-01  0.1215E+02
  -6.310  0.4079E-01  0.1215E+02
  -6.300  0.5455E-01  0.1215E+02
  -6.290  0.7278E-01  0.1215E+02
  -6.280  0.9648E-01  0.1215E+02
  -6.270  0.1268E+00  0.1215E+02
  -6.260  0.1651E+00  0.1215E+02
  -6.250  0.2127E+00  0.1216E+02
  -6.240  0.2713E+00  0.1216E+02
  -6.230  0.3423E+00  0.1216E+02
  -6.220  0.4273E+00  0.1217E+02
  -6.210  0.5278E+00  0.1217E+02
  -6.200  0.6451E+00  0.1218E+02
  -6.190  0.7800E+00  0.1219E+02
  -6.180  0.9331E+00  0.1220E+02
  -6.170  0.1104E+01  0.1221E+02
  -6.160  0.1294E+01  0.1222E+02
  -6.150  0.1499E+01  0.1224E+02
  -6.140  0.1719E+01  0.1225E+02
  -6.130  0.1951E+01  0.1227E+02
  -6.120  0.2192E+01  0.1229E+02
  -6.110  0.2436E+01  0.1232E+02
  -6.100  0.2681E+01  0.1234E+02
  -6.090  0.2920E+01  0.1237E+02
  -6.080  0.3149E+01  0.1241E+02
  -6.070  0.3363E+01  0.1244E+02
  -6.060  0.3558E+01  0.1247E+02
  -6.050  0.3728E+01  0.1251E+02
  -6.040  0.3870E+01  0.1255E+02
  -6.030  0.3983E+01  0.1259E+02
  -6.020  0.4065E+01  0.1263E+02
  -6.010  0.4115E+01  0.1267E+02
  -6.000  0.4135E+01  0.1271E+02
  -5.990  0.4127E+01  0.1275E+02
  -5.980  0.4093E+01  0.1280E+02
  -5.970  0.4038E+01  0.1284E+02
  -5.960  0.3965E+01  0.1288E+02
  -5.950  0.3880E+01  0.1291E+02
  -5.940  0.3787E+01  0.1295E+02
  -5.930  0.3690E+01  0.1299E+02
  -5.920  0.3593E+01  0.1303E+02
  -5.910  0.3499E+01  0.1306E+02
  -5.900  0.3411E+01  0.1309E+02
  -5.890  0.3331E+01  0.1313E+02
  -5.880  0.3259E+01  0.1316E+02
  -5.870  0.3195E+01  0.1319E+02
  -5.860  0.3138E+01  0.1322E+02
  -5.850  0.3087E+01  0.1325E+02
  -5.840  0.3040E+01  0.1328E+02
  -5.830  0.2994E+01  0.1331E+02
  -5.820  0.2949E+01  0.1334E+02
  -5.810  0.2901E+01  0.1337E+02
  -5.800  0.2849E+01  0.1340E+02
  -5.790  0.2792E+01  0.1343E+02
  -5.780  0.2728E+01  0.1346E+02
  -5.770  0.2658E+01  0.1348E+02
  -5.760  0.2581E+01  0.1351E+02
  -5.750  0.2498E+01  0.1353E+02
  -5.740  0.2410E+01  0.1356E+02
  -5.730  0.2318E+01  0.1358E+02
  -5.720  0.2225E+01  0.1360E+02
  -5.710  0.2132E+01  0.1363E+02
  -5.700  0.2041E+01  0.1365E+02
  -5.690  0.1954E+01  0.1367E+02
  -5.680  0.1873E+01  0.1368E+02
  -5.670  0.1799E+01  0.1370E+02
  -5.660  0.1733E+01  0.1372E+02
  -5.650  0.1676E+01  0.1374E+02
  -5.640  0.1628E+01  0.1375E+02
  -5.630  0.1590E+01  0.1377E+02
  -5.620  0.1560E+01  0.1378E+02
  -5.610  0.1537E+01  0.1380E+02
  -5.600  0.1520E+01  0.1381E+02
  -5.590  0.1507E+01  0.1383E+02
  -5.580  0.1497E+01  0.1384E+02
  -5.570  0.1488E+01  0.1386E+02
  -5.560  0.1476E+01  0.1387E+02
  -5.550  0.1462E+01  0.1389E+02
  -5.540  0.1442E+01  0.1390E+02
  -5.530  0.1416E+01  0.1392E+02
  -5.520  0.1383E+01  0.1393E+02
  -5.510  0.1342E+01  0.1394E+02
  -5.500  0.1292E+01  0.1396E+02
  -5.490  0.1235E+01  0.1397E+02
  -5.480  0.1171E+01  0.1398E+02
  -5.470  0.1100E+01  0.1399E+02
  -5.460  0.1025E+01  0.1400E+02
  -5.450  0.9458E+00  0.1401E+02
  -5.440  0.8648E+00  0.1402E+02
  -5.430  0.7835E+00  0.1403E+02
  -5.420  0.7035E+00  0.1404E+02
  -5.410  0.6264E+00  0.1404E+02
  -5.400  0.5534E+00  0.1405E+02
  -5.390  0.4860E+00  0.1405E+02
  -5.380  0.4251E+00  0.1406E+02
  -5.370  0.3717E+00  0.1406E+02
  -5.360  0.3265E+00  0.1406E+02
  -5.350  0.2902E+00  0.1407E+02
  -5.340  0.2632E+00  0.1407E+02
  -5.330  0.2460E+00  0.1407E+02
  -5.320  0.2388E+00  0.1407E+02
  -5.310  0.2421E+00  0.1408E+02
  -5.300  0.2561E+00  0.1408E+02
  -5.290  0.2810E+00  0.1408E+02
  -5.280  0.3170E+00  0.1409E+02
  -5.270  0.3642E+00  0.1409E+02
  -5.260  0.4224E+00  0.1409E+02
  -5.250  0.4916E+00  0.1410E+02
  -5.240  0.5712E+00  0.1410E+02
  -5.230  0.6604E+00  0.1411E+02
  -5.220  0.7583E+00  0.1412E+02
  -5.210  0.8635E+00  0.1413E+02
  -5.200  0.9741E+00  0.1414E+02
  -5.190  0.1088E+01  0.1415E+02
  -5.180  0.1203E+01  0.1416E+02
  -5.170  0.1317E+01  0.1417E+02
  -5.160  0.1426E+01  0.1419E+02
  -5.150  0.1528E+01  0.1420E+02
  -5.140  0.1619E+01  0.1422E+02
  -5.130  0.1698E+01  0.1423E+02
  -5.120  0.1762E+01  0.1425E+02
  -5.110  0.1808E+01  0.1427E+02
  -5.100  0.1836E+01  0.1429E+02
  -5.090  0.1845E+01  0.1431E+02
  -5.080  0.1834E+01  0.1433E+02
  -5.070  0.1803E+01  0.1434E+02
  -5.060  0.1755E+01  0.1436E+02
  -5.050  0.1690E+01  0.1438E+02
  -5.040  0.1611E+01  0.1439E+02
  -5.030  0.1521E+01  0.1441E+02
  -5.020  0.1422E+01  0.1442E+02
  -5.010  0.1318E+01  0.1444E+02
  -5.000  0.1212E+01  0.1445E+02
  -4.990  0.1106E+01  0.1446E+02
  -4.980  0.1004E+01  0.1447E+02
  -4.970  0.9094E+00  0.1448E+02
  -4.960  0.8234E+00  0.1449E+02
  -4.950  0.7485E+00  0.1449E+02
  -4.940  0.6864E+00  0.1450E+02
  -4.930  0.6383E+00  0.1451E+02
  -4.920  0.6053E+00  0.1451E+02
  -4.910  0.5878E+00  0.1452E+02
  -4.900  0.5860E+00  0.1453E+02
  -4.890  0.5998E+00  0.1453E+02
  -4.880  0.6289E+00  0.1454E+02
  -4.870  0.6726E+00  0.1455E+02
  -4.860  0.7301E+00  0.1455E+02
  -4.850  0.8006E+00  0.1456E+02
  -4.840  0.8830E+00  0.1457E+02
  -4.830  0.9762E+00  0.1458E+02
  -4.820  0.1079E+01  0.1459E+02
  -4.810  0.1191E+01  0.1460E+02
  -4.800  0.1311E+01  0.1461E+02
  -4.790  0.1438E+01  0.1463E+02
  -4.780  0.1572E+01  0.1464E+02
  -4.770  0.1712E+01  0.1466E+02
  -4.760  0.1857E+01  0.1468E+02
  -4.750  0.2008E+01  0.1470E+02
  -4.740  0.2164E+01  0.1472E+02
  -4.730  0.2325E+01  0.1475E+02
  -4.720  0.2490E+01  0.1477E+02
  -4.710  0.2657E+01  0.1480E+02
  -4.700  0.2827E+01  0.1483E+02
  -4.690  0.2997E+01  0.1486E+02
  -4.680  0.3165E+01  0.1489E+02
  -4.670  0.3328E+01  0.1492E+02
  -4.660  0.3483E+01  0.1495E+02
  -4.650  0.3627E+01  0.1499E+02
  -4.640  0.3755E+01  0.1503E+02
  -4.630  0.3864E+01  0.1507E+02
  -4.620  0.3951E+01  0.1511E+02
  -4.610  0.4011E+01  0.1515E+02
  -4.600  0.4042E+01  0.1519E+02
  -4.590  0.4041E+01  0.1523E+02
  -4.580  0.4009E+01  0.1527E+02
  -4.570  0.3944E+01  0.1531E+02
  -4.560  0.3847E+01  0.1535E+02
  -4.550  0.3721E+01  0.1538E+02
  -4.540  0.3568E+01  0.1542E+02
  -4.530  0.3393E+01  0.1545E+02
  -4.520  0.3201E+01  0.1548E+02
  -4.510  0.2995E+01  0.1551E+02
  -4.500  0.2782E+01  0.1554E+02
  -4.490  0.2567E+01  0.1557E+02
  -4.480  0.2355E+01  0.1559E+02
  -4.470  0.2151E+01  0.1561E+02
  -4.460  0.1958E+01  0.1563E+02
  -4.450  0.1780E+01  0.1565E+02
  -4.440  0.1620E+01  0.1567E+02
  -4.430  0.1478E+01  0.1568E+02
  -4.420  0.1357E+01  0.1570E+02
  -4.410  0.1255E+01  0.1571E+02
  -4.400  0.1173E+01  0.1572E+02
  -4.390  0.1110E+01  0.1573E+02
  -4.380  0.1064E+01  0.1574E+02
  -4.370  0.1033E+01  0.1575E+02
  -4.360  0.1017E+01  0.1576E+02
  -4.350  0.1012E+01  0.1577E+02
  -4.340  0.1018E+01  0.1578E+02
  -4.330  0.1034E+01  0.1579E+02
  -4.320  0.1057E+01  0.1580E+02
  -4.310  0.1086E+01  0.1581E+02
  -4.300  0.1121E+01  0.1582E+02
  -4.290  0.1161E+01  0.1584E+02
  -4.280  0.1204E+01  0.1585E+02
  -4.270  0.1251E+01  0.1586E+02
  -4.260  0.1300E+01  0.1587E+02
  -4.250  0.1351E+01  0.1589E+02
  -4.240  0.1402E+01  0.1590E+02
  -4.230  0.1454E+01  0.1592E+02
  -4.220  0.1506E+01  0.1593E+02
  -4.210  0.1556E+01  0.1595E+02
  -4.200  0.1604E+01  0.1596E+02
  -4.190  0.1649E+01  0.1598E+02
  -4.180  0.1690E+01  0.1600E+02
  -4.170  0.1728E+01  0.1601E+02
  -4.160  0.1761E+01  0.1603E+02
  -4.150  0.1789E+01  0.1605E+02
  -4.140  0.1813E+01  0.1607E+02
  -4.130  0.1830E+01  0.1609E+02
  -4.120  0.1843E+01  0.1610E+02
  -4.110  0.1849E+01  0.1612E+02
  -4.100  0.1850E+01  0.1614E+02
  -4.090  0.1845E+01  0.1616E+02
  -4.080  0.1834E+01  0.1618E+02
  -4.070  0.1816E+01  0.1620E+02
  -4.060  0.1792E+01  0.1621E+02
  -4.050  0.1761E+01  0.1623E+02
  -4.040  0.1722E+01  0.1625E+02
  -4.030  0.1677E+01  0.1627E+02
  -4.020  0.1624E+01  0.1628E+02
  -4.010  0.1565E+01  0.1630E+02
  -4.000  0.1500E+01  0.1631E+02
  -3.990  0.1429E+01  0.1633E+02
  -3.980  0.1355E+01  0.1634E+02
  -3.970  0.1278E+01  0.1635E+02
  -3.960  0.1201E+01  0.1636E+02
  -3.950  0.1125E+01  0.1638E+02
  -3.940  0.1052E+01  0.1639E+02
  -3.930  0.9862E+00  0.1640E+02
  -3.920  0.9288E+00  0.1641E+02
  -3.910  0.8828E+00  0.1641E+02
  -3.900  0.8508E+00  0.1642E+02
  -3.890  0.8351E+00  0.1643E+02
  -3.880  0.8381E+00  0.1644E+02
  -3.870  0.8617E+00  0.1645E+02
  -3.860  0.9076E+00  0.1646E+02
  -3.850  0.9769E+00  0.1647E+02
  -3.840  0.1070E+01  0.1648E+02
  -3.830  0.1187E+01  0.1649E+02
  -3.820  0.1328E+01  0.1650E+02
  -3.810  0.1490E+01  0.1652E+02
  -3.800  0.1672E+01  0.1653E+02
  -3.790  0.1869E+01  0.1655E+02
  -3.780  0.2080E+01  0.1657E+02
  -3.770  0.2297E+01  0.1660E+02
  -3.760  0.2518E+01  0.1662E+02
  -3.750  0.2734E+01  0.1665E+02
  -3.740  0.2942E+01  0.1668E+02
  -3.730  0.3134E+01  0.1671E+02
  -3.720  0.3305E+01  0.1674E+02
  -3.710  0.3450E+01  0.1678E+02
  -3.700  0.3563E+01  0.1681E+02
  -3.690  0.3641E+01  0.1685E+02
  -3.680  0.3681E+01  0.1689E+02
  -3.670  0.3683E+01  0.1692E+02
  -3.660  0.3645E+01  0.1696E+02
  -3.650  0.3569E+01  0.1700E+02
  -3.640  0.3457E+01  0.1703E+02
  -3.630  0.3313E+01  0.1706E+02
  -3.620  0.3141E+01  0.1709E+02
  -3.610  0.2946E+01  0.1712E+02
  -3.600  0.2734E+01  0.1715E+02
  -3.590  0.2511E+01  0.1718E+02
  -3.580  0.2282E+01  0.1720E+02
  -3.570  0.2052E+01  0.1722E+02
  -3.560  0.1827E+01  0.1724E+02
  -3.550  0.1611E+01  0.1725E+02
  -3.540  0.1407E+01  0.1727E+02
  -3.530  0.1219E+01  0.1728E+02
  -3.520  0.1049E+01  0.1729E+02
  -3.510  0.8977E+00  0.1730E+02
  -3.500  0.7667E+00  0.1731E+02
  -3.490  0.6559E+00  0.1731E+02
  -3.480  0.5653E+00  0.1732E+02
  -3.470  0.4942E+00  0.1733E+02
  -3.460  0.4419E+00  0.1733E+02
  -3.450  0.4073E+00  0.1733E+02
  -3.440  0.3895E+00  0.1734E+02
  -3.430  0.3874E+00  0.1734E+02
  -3.420  0.3998E+00  0.1735E+02
  -3.410  0.4260E+00  0.1735E+02
  -3.400  0.4647E+00  0.1735E+02
  -3.390  0.5153E+00  0.1736E+02
  -3.380  0.5769E+00  0.1737E+02
  -3.370  0.6488E+00  0.1737E+02
  -3.360  0.7300E+00  0.1738E+02
  -3.350  0.8200E+00  0.1739E+02
  -3.340  0.9179E+00  0.1740E+02
  -3.330  0.1023E+01  0.1741E+02
  -3.320  0.1134E+01  0.1742E+02
  -3.310  0.1250E+01  0.1743E+02
  -3.300  0.1370E+01  0.1744E+02
  -3.290  0.1494E+01  0.1746E+02
  -3.280  0.1618E+01  0.1748E+02
  -3.270  0.1743E+01  0.1749E+02
  -3.260  0.1867E+01  0.1751E+02
  -3.250  0.1988E+01  0.1753E+02
  -3.240  0.2106E+01  0.1755E+02
  -3.230  0.2219E+01  0.1757E+02
  -3.220  0.2326E+01  0.1760E+02
  -3.210  0.2427E+01  0.1762E+02
  -3.200  0.2523E+01  0.1765E+02
  -3.190  0.2612E+01  0.1767E+02
  -3.180  0.2696E+01  0.1770E+02
  -3.170  0.2777E+01  0.1773E+02
  -3.160  0.2856E+01  0.1776E+02
  -3.150  0.2936E+01  0.1779E+02
  -3.140  0.3020E+01  0.1782E+02
  -3.130  0.3111E+01  0.1785E+02
  -3.120  0.3214E+01  0.1788E+02
  -3.110  0.3332E+01  0.1791E+02
  -3.100  0.3468E+01  0.1795E+02
  -3.090  0.3627E+01  0.1798E+02
  -3.080  0.3812E+01  0.1802E+02
  -3.070  0.4025E+01  0.1806E+02
  -3.060  0.4268E+01  0.1810E+02
  -3.050  0.4543E+01  0.1815E+02
  -3.040  0.4849E+01  0.1820E+02
  -3.030  0.5184E+01  0.1825E+02
  -3.020  0.5547E+01  0.1831E+02
  -3.010  0.5933E+01  0.1837E+02
  -3.000  0.6337E+01  0.1843E+02
  -2.990  0.6753E+01  0.1850E+02
  -2.980  0.7173E+01  0.1857E+02
  -2.970  0.7590E+01  0.1864E+02
  -2.960  0.7995E+01  0.1872E+02
  -2.950  0.8379E+01  0.1881E+02
  -2.940  0.8732E+01  0.1889E+02
  -2.930  0.9048E+01  0.1899E+02
  -2.920  0.9317E+01  0.1908E+02
  -2.910  0.9533E+01  0.1917E+02
  -2.900  0.9691E+01  0.1927E+02
  -2.890  0.9787E+01  0.1937E+02
  -2.880  0.9818E+01  0.1947E+02
  -2.870  0.9784E+01  0.1956E+02
  -2.860  0.9687E+01  0.1966E+02
  -2.850  0.9529E+01  0.1976E+02
  -2.840  0.9315E+01  0.1985E+02
  -2.830  0.9052E+01  0.1994E+02
  -2.820  0.8747E+01  0.2003E+02
  -2.810  0.8409E+01  0.2011E+02
  -2.800  0.8046E+01  0.2019E+02
  -2.790  0.7669E+01  0.2027E+02
  -2.780  0.7288E+01  0.2034E+02
  -2.770  0.6911E+01  0.2041E+02
  -2.760  0.6550E+01  0.2048E+02
  -2.750  0.6210E+01  0.2054E+02
  -2.740  0.5902E+01  0.2060E+02
  -2.730  0.5629E+01  0.2065E+02
  -2.720  0.5398E+01  0.2071E+02
  -2.710  0.5212E+01  0.2076E+02
  -2.700  0.5073E+01  0.2081E+02
  -2.690  0.4981E+01  0.2086E+02
  -2.680  0.4936E+01  0.2091E+02
  -2.670  0.4934E+01  0.2096E+02
  -2.660  0.4971E+01  0.2101E+02
  -2.650  0.5044E+01  0.2106E+02
  -2.640  0.5145E+01  0.2111E+02
  -2.630  0.5270E+01  0.2116E+02
  -2.620  0.5411E+01  0.2122E+02
  -2.610  0.5561E+01  0.2127E+02
  -2.600  0.5716E+01  0.2133E+02
  -2.590  0.5869E+01  0.2139E+02
  -2.580  0.6016E+01  0.2145E+02
  -2.570  0.6153E+01  0.2151E+02
  -2.560  0.6277E+01  0.2157E+02
  -2.550  0.6388E+01  0.2164E+02
  -2.540  0.6483E+01  0.2170E+02
  -2.530  0.6564E+01  0.2177E+02
  -2.520  0.6631E+01  0.2183E+02
  -2.510  0.6687E+01  0.2190E+02
  -2.500  0.6732E+01  0.2197E+02
  -2.490  0.6770E+01  0.2204E+02
  -2.480  0.6801E+01  0.2210E+02
  -2.470  0.6828E+01  0.2217E+02
  -2.460  0.6849E+01  0.2224E+02
  -2.450  0.6867E+01  0.2231E+02
  -2.440  0.6881E+01  0.2238E+02
  -2.430  0.6888E+01  0.2245E+02
  -2.420  0.6889E+01  0.2252E+02
  -2.410  0.6880E+01  0.2259E+02
  -2.400  0.6860E+01  0.2265E+02
  -2.390  0.6826E+01  0.2272E+02
  -2.380  0.6776E+01  0.2279E+02
  -2.370  0.6706E+01  0.2286E+02
  -2.360  0.6616E+01  0.2292E+02
  -2.350  0.6504E+01  0.2299E+02
  -2.340  0.6369E+01  0.2305E+02
  -2.330  0.6210E+01  0.2311E+02
  -2.320  0.6028E+01  0.2317E+02
  -2.310  0.5823E+01  0.2323E+02
  -2.300  0.5597E+01  0.2329E+02
  -2.290  0.5352E+01  0.2334E+02
  -2.280  0.5090E+01  0.2339E+02
  -2.270  0.4814E+01  0.2344E+02
  -2.260  0.4528E+01  0.2349E+02
  -2.250  0.4235E+01  0.2353E+02
  -2.240  0.3939E+01  0.2357E+02
  -2.230  0.3643E+01  0.2360E+02
  -2.220  0.3351E+01  0.2364E+02
  -2.210  0.3067E+01  0.2367E+02
  -2.200  0.2794E+01  0.2370E+02
  -2.190  0.2535E+01  0.2372E+02
  -2.180  0.2293E+01  0.2374E+02
  -2.170  0.2068E+01  0.2377E+02
  -2.160  0.1864E+01  0.2378E+02
  -2.150  0.1680E+01  0.2380E+02
  -2.140  0.1517E+01  0.2382E+02
  -2.130  0.1375E+01  0.2383E+02
  -2.120  0.1253E+01  0.2384E+02
  -2.110  0.1149E+01  0.2385E+02
  -2.100  0.1061E+01  0.2386E+02
  -2.090  0.9888E+00  0.2387E+02
  -2.080  0.9287E+00  0.2388E+02
  -2.070  0.8787E+00  0.2389E+02
  -2.060  0.8366E+00  0.2390E+02
  -2.050  0.8001E+00  0.2391E+02
  -2.040  0.7674E+00  0.2392E+02
  -2.030  0.7366E+00  0.2392E+02
  -2.020  0.7064E+00  0.2393E+02
  -2.010  0.6755E+00  0.2394E+02
  -2.000  0.6432E+00  0.2394E+02
  -1.990  0.6091E+00  0.2395E+02
  -1.980  0.5730E+00  0.2396E+02
  -1.970  0.5351E+00  0.2396E+02
  -1.960  0.4956E+00  0.2397E+02
  -1.950  0.4549E+00  0.2397E+02
  -1.940  0.4138E+00  0.2397E+02
  -1.930  0.3729E+00  0.2398E+02
  -1.920  0.3326E+00  0.2398E+02
  -1.910  0.2938E+00  0.2398E+02
  -1.900  0.2568E+00  0.2399E+02
  -1.890  0.2222E+00  0.2399E+02
  -1.880  0.1903E+00  0.2399E+02
  -1.870  0.1612E+00  0.2399E+02
  -1.860  0.1352E+00  0.2399E+02
  -1.850  0.1121E+00  0.2400E+02
  -1.840  0.9200E-01  0.2400E+02
  -1.830  0.7470E-01  0.2400E+02
  -1.820  0.6000E-01  0.2400E+02
  -1.810  0.4768E-01  0.2400E+02
  -1.800  0.3748E-01  0.2400E+02
  -1.790  0.2915E-01  0.2400E+02
  -1.780  0.2243E-01  0.2400E+02
  -1.770  0.1707E-01  0.2400E+02
  -1.760  0.1285E-01  0.2400E+02
  -1.750  0.9575E-02  0.2400E+02
  -1.740  0.7056E-02  0.2400E+02
  -1.730  0.5144E-02  0.2400E+02
  -1.720  0.3709E-02  0.2400E+02
  -1.710  0.2646E-02  0.2400E+02
  -1.700  0.1868E-02  0.2400E+02
  -1.690  0.1304E-02  0.2400E+02
  -1.680  0.9005E-03  0.2400E+02
  -1.670  0.6153E-03  0.2400E+02
  -1.660  0.4159E-03  0.2400E+02
  -1.650  0.2781E-03  0.2400E+02
  -1.640  0.1839E-03  0.2400E+02
  -1.630  0.1204E-03  0.2400E+02
  -1.620  0.7791E-04  0.2400E+02
  -1.610  0.4989E-04  0.2400E+02
  -1.600  0.3160E-04  0.2400E+02
  -1.590  0.1980E-04  0.2400E+02
  -1.580  0.1228E-04  0.2400E+02
  -1.570  0.7529E-05  0.2400E+02
  -1.560  0.4568E-05  0.2400E+02
  -1.550  0.2742E-05  0.2400E+02
  -1.540  0.1628E-05  0.2400E+02
  -1.530  0.9560E-06  0.2400E+02
  -1.520  0.5555E-06  0.2400E+02
  -1.510  0.3193E-06  0.2400E+02
  -1.500  0.1815E-06  0.2400E+02
  -1.490  0.1021E-06  0.2400E+02
  -1.480  0.5682E-07  0.2400E+02
  -1.470  0.3128E-07  0.2400E+02
  -1.460  0.1703E-07  0.2400E+02
  -1.450  0.9176E-08  0.2400E+02
  -1.440  0.4890E-08  0.2400E+02
  -1.430  0.2578E-08  0.2400E+02
  -1.420  0.1344E-08  0.2400E+02
  -1.410  0.6936E-09  0.2400E+02
  -1.400  0.3540E-09  0.2400E+02
  -1.390  0.1788E-09  0.2400E+02
  -1.380  0.8949E-10  0.2400E+02
  -1.370  0.4461E-10  0.2400E+02
  -1.360  0.2266E-10  0.2400E+02
  -1.350  0.1281E-10  0.2400E+02
  -1.340  0.1012E-10  0.2400E+02
  -1.330  0.1326E-10  0.2400E+02
  -1.320  0.2401E-10  0.2400E+02
  -1.310  0.4815E-10  0.2400E+02
  -1.300  0.9826E-10  0.2400E+02
  -1.290  0.1997E-09  0.2400E+02
  -1.280  0.4021E-09  0.2400E+02
  -1.270  0.8014E-09  0.2400E+02
  -1.260  0.1581E-08  0.2400E+02
  -1.250  0.3084E-08  0.2400E+02
  -1.240  0.5955E-08  0.2400E+02
  -1.230  0.1138E-07  0.2400E+02
  -1.220  0.2151E-07  0.2400E+02
  -1.210  0.4023E-07  0.2400E+02
  -1.200  0.7447E-07  0.2400E+02
  -1.190  0.1364E-06  0.2400E+02
  -1.180  0.2472E-06  0.2400E+02
  -1.170  0.4433E-06  0.2400E+02
  -1.160  0.7867E-06  0.2400E+02
  -1.150  0.1382E-05  0.2400E+02
  -1.140  0.2401E-05  0.2400E+02
  -1.130  0.4128E-05  0.2400E+02
  -1.120  0.7025E-05  0.2400E+02
  -1.110  0.1183E-04  0.2400E+02
  -1.100  0.1972E-04  0.2400E+02
  -1.090  0.3252E-04  0.2400E+02
  -1.080  0.5307E-04  0.2400E+02
  -1.070  0.8573E-04  0.2400E+02
  -1.060  0.1370E-03  0.2400E+02
  -1.050  0.2168E-03  0.2400E+02
  -1.040  0.3395E-03  0.2400E+02
  -1.030  0.5261E-03  0.2400E+02
  -1.020  0.8070E-03  0.2400E+02
  -1.010  0.1225E-02  0.2400E+02
  -1.000  0.1841E-02  0.2400E+02
  -0.990  0.2738E-02  0.2400E+02
  -0.980  0.4030E-02  0.2400E+02
  -0.970  0.5873E-02  0.2400E+02
  -0.960  0.8471E-02  0.2400E+02
  -0.950  0.1210E-01  0.2400E+02
  -0.940  0.1710E-01  0.2400E+02
  -0.930  0.2392E-01  0.2400E+02
  -0.920  0.3313E-01  0.2400E+02
  -0.910  0.4543E-01  0.2400E+02
  -0.900  0.6167E-01  0.2400E+02
  -0.890  0.8289E-01  0.2400E+02
  -0.880  0.1103E+00  0.2400E+02
  -0.870  0.1453E+00  0.2401E+02
  -0.860  0.1895E+00  0.2401E+02
  -0.850  0.2448E+00  0.2401E+02
  -0.840  0.3131E+00  0.2401E+02
  -0.830  0.3965E+00  0.2402E+02
  -0.820  0.4971E+00  0.2402E+02
  -0.810  0.6173E+00  0.2403E+02
  -0.800  0.7591E+00  0.2404E+02
  -0.790  0.9244E+00  0.2404E+02
  -0.780  0.1115E+01  0.2406E+02
  -0.770  0.1331E+01  0.2407E+02
  -0.760  0.1575E+01  0.2409E+02
  -0.750  0.1845E+01  0.2410E+02
  -0.740  0.2141E+01  0.2413E+02
  -0.730  0.2461E+01  0.2415E+02
  -0.720  0.2802E+01  0.2418E+02
  -0.710  0.3160E+01  0.2421E+02
  -0.700  0.3530E+01  0.2424E+02
  -0.690  0.3906E+01  0.2428E+02
  -0.680  0.4282E+01  0.2433E+02
  -0.670  0.4651E+01  0.2437E+02
  -0.660  0.5006E+01  0.2442E+02
  -0.650  0.5338E+01  0.2448E+02
  -0.640  0.5642E+01  0.2453E+02
  -0.630  0.5910E+01  0.2459E+02
  -0.620  0.6137E+01  0.2465E+02
  -0.610  0.6319E+01  0.2472E+02
  -0.600  0.6453E+01  0.2478E+02
  -0.590  0.6539E+01  0.2485E+02
  -0.580  0.6577E+01  0.2491E+02
  -0.570  0.6571E+01  0.2498E+02
  -0.560  0.6526E+01  0.2504E+02
  -0.550  0.6448E+01  0.2511E+02
  -0.540  0.6345E+01  0.2517E+02
  -0.530  0.6227E+01  0.2523E+02
  -0.520  0.6103E+01  0.2529E+02
  -0.510  0.5985E+01  0.2535E+02
  -0.500  0.5881E+01  0.2541E+02
  -0.490  0.5802E+01  0.2547E+02
  -0.480  0.5755E+01  0.2553E+02
  -0.470  0.5748E+01  0.2559E+02
  -0.460  0.5785E+01  0.2564E+02
  -0.450  0.5868E+01  0.2570E+02
  -0.440  0.5999E+01  0.2576E+02
  -0.430  0.6175E+01  0.2582E+02
  -0.420  0.6392E+01  0.2589E+02
  -0.410  0.6645E+01  0.2595E+02
  -0.400  0.6925E+01  0.2602E+02
  -0.390  0.7224E+01  0.2610E+02
  -0.380  0.7532E+01  0.2617E+02
  -0.370  0.7839E+01  0.2625E+02
  -0.360  0.8136E+01  0.2633E+02
  -0.350  0.8413E+01  0.2642E+02
  -0.340  0.8661E+01  0.2650E+02
  -0.330  0.8875E+01  0.2659E+02
  -0.320  0.9047E+01  0.2668E+02
  -0.310  0.9175E+01  0.2677E+02
  -0.300  0.9256E+01  0.2687E+02
  -0.290  0.9291E+01  0.2696E+02
  -0.280  0.9278E+01  0.2705E+02
  -0.270  0.9222E+01  0.2714E+02
  -0.260  0.9126E+01  0.2723E+02
  -0.250  0.8993E+01  0.2732E+02
  -0.240  0.8830E+01  0.2741E+02
  -0.230  0.8640E+01  0.2750E+02
  -0.220  0.8431E+01  0.2758E+02
  -0.210  0.8206E+01  0.2767E+02
  -0.200  0.7971E+01  0.2775E+02
  -0.190  0.7732E+01  0.2782E+02
  -0.180  0.7491E+01  0.2790E+02
  -0.170  0.7254E+01  0.2797E+02
  -0.160  0.7023E+01  0.2804E+02
  -0.150  0.6802E+01  0.2811E+02
  -0.140  0.6592E+01  0.2817E+02
  -0.130  0.6394E+01  0.2824E+02
  -0.120  0.6212E+01  0.2830E+02
  -0.110  0.6045E+01  0.2836E+02
  -0.100  0.5894E+01  0.2842E+02
  -0.090  0.5761E+01  0.2848E+02
  -0.080  0.5646E+01  0.2853E+02
  -0.070  0.5548E+01  0.2859E+02
  -0.060  0.5470E+01  0.2864E+02
  -0.050  0.5411E+01  0.2870E+02
  -0.040  0.5373E+01  0.2875E+02
  -0.030  0.5355E+01  0.2881E+02
  -0.020  0.5359E+01  0.2886E+02
  -0.010  0.5384E+01  0.2891E+02
  -0.000  0.5430E+01  0.2897E+02
   0.010  0.5497E+01  0.2902E+02
   0.020  0.5583E+01  0.2908E+02
   0.030  0.5687E+01  0.2913E+02
   0.040  0.5806E+01  0.2919E+02
   0.050  0.5937E+01  0.2925E+02
   0.060  0.6077E+01  0.2931E+02
   0.070  0.6221E+01  0.2938E+02
   0.080  0.6364E+01  0.2944E+02
   0.090  0.6503E+01  0.2950E+02
   0.100  0.6634E+01  0.2957E+02
   0.110  0.6750E+01  0.2964E+02
   0.120  0.6851E+01  0.2971E+02
   0.130  0.6931E+01  0.2978E+02
   0.140  0.6991E+01  0.2985E+02
   0.150  0.7028E+01  0.2992E+02
   0.160  0.7042E+01  0.2999E+02
   0.170  0.7035E+01  0.3006E+02
   0.180  0.7007E+01  0.3013E+02
   0.190  0.6961E+01  0.3020E+02
   0.200  0.6899E+01  0.3027E+02
   0.210  0.6824E+01  0.3033E+02
   0.220  0.6738E+01  0.3040E+02
   0.230  0.6645E+01  0.3047E+02
   0.240  0.6545E+01  0.3053E+02
   0.250  0.6442E+01  0.3060E+02
   0.260  0.6337E+01  0.3066E+02
   0.270  0.6231E+01  0.3072E+02
   0.280  0.6126E+01  0.3078E+02
   0.290  0.6024E+01  0.3084E+02
   0.300  0.5925E+01  0.3090E+02
   0.310  0.5832E+01  0.3096E+02
   0.320  0.5747E+01  0.3102E+02
   0.330  0.5673E+01  0.3108E+02
   0.340  0.5613E+01  0.3113E+02
   0.350  0.5569E+01  0.3119E+02
   0.360  0.5548E+01  0.3124E+02
   0.370  0.5551E+01  0.3130E+02
   0.380  0.5582E+01  0.3135E+02
   0.390  0.5646E+01  0.3141E+02
   0.400  0.5744E+01  0.3147E+02
   0.410  0.5878E+01  0.3153E+02
   0.420  0.6048E+01  0.3159E+02
   0.430  0.6255E+01  0.3165E+02
   0.440  0.6495E+01  0.3172E+02
   0.450  0.6766E+01  0.3178E+02
   0.460  0.7062E+01  0.3185E+02
   0.470  0.7377E+01  0.3193E+02
   0.480  0.7704E+01  0.3200E+02
   0.490  0.8035E+01  0.3208E+02
   0.500  0.8361E+01  0.3217E+02
   0.510  0.8675E+01  0.3226E+02
   0.520  0.8966E+01  0.3234E+02
   0.530  0.9228E+01  0.3244E+02
   0.540  0.9452E+01  0.3253E+02
   0.550  0.9631E+01  0.3263E+02
   0.560  0.9762E+01  0.3273E+02
   0.570  0.9838E+01  0.3282E+02
   0.580  0.9857E+01  0.3292E+02
   0.590  0.9819E+01  0.3302E+02
   0.600  0.9723E+01  0.3312E+02
   0.610  0.9570E+01  0.3321E+02
   0.620  0.9364E+01  0.3331E+02
   0.630  0.9109E+01  0.3340E+02
   0.640  0.8810E+01  0.3349E+02
   0.650  0.8474E+01  0.3357E+02
   0.660  0.8108E+01  0.3365E+02
   0.670  0.7719E+01  0.3373E+02
   0.680  0.7317E+01  0.3380E+02
   0.690  0.6910E+01  0.3387E+02
   0.700  0.6507E+01  0.3394E+02
   0.710  0.6116E+01  0.3400E+02
   0.720  0.5745E+01  0.3406E+02
   0.730  0.5403E+01  0.3411E+02
   0.740  0.5096E+01  0.3416E+02
   0.750  0.4831E+01  0.3421E+02
   0.760  0.4613E+01  0.3425E+02
   0.770  0.4446E+01  0.3430E+02
   0.780  0.4333E+01  0.3434E+02
   0.790  0.4276E+01  0.3439E+02
   0.800  0.4274E+01  0.3443E+02
   0.810  0.4328E+01  0.3447E+02
   0.820  0.4434E+01  0.3452E+02
   0.830  0.4590E+01  0.3456E+02
   0.840  0.4792E+01  0.3461E+02
   0.850  0.5034E+01  0.3466E+02
   0.860  0.5311E+01  0.3471E+02
   0.870  0.5616E+01  0.3477E+02
   0.880  0.5943E+01  0.3483E+02
   0.890  0.6286E+01  0.3489E+02
   0.900  0.6637E+01  0.3496E+02
   0.910  0.6991E+01  0.3503E+02
   0.920  0.7342E+01  0.3510E+02
   0.930  0.7685E+01  0.3518E+02
   0.940  0.8014E+01  0.3526E+02
   0.950  0.8326E+01  0.3534E+02
   0.960  0.8616E+01  0.3543E+02
   0.970  0.8882E+01  0.3552E+02
   0.980  0.9121E+01  0.3561E+02
   0.990  0.9331E+01  0.3570E+02
   1.000  0.9509E+01  0.3580E+02
   1.010  0.9654E+01  0.3589E+02
   1.020  0.9764E+01  0.3599E+02
   1.030  0.9837E+01  0.3609E+02
   1.040  0.9873E+01  0.3619E+02
   1.050  0.9870E+01  0.3629E+02
   1.060  0.9828E+01  0.3638E+02
   1.070  0.9746E+01  0.3648E+02
   1.080  0.9625E+01  0.3658E+02
   1.090  0.9466E+01  0.3667E+02
   1.100  0.9271E+01  0.3677E+02
   1.110  0.9043E+01  0.3686E+02
   1.120  0.8786E+01  0.3694E+02
   1.130  0.8503E+01  0.3703E+02
   1.140  0.8203E+01  0.3711E+02
   1.150  0.7890E+01  0.3719E+02
   1.160  0.7573E+01  0.3727E+02
   1.170  0.7261E+01  0.3734E+02
   1.180  0.6961E+01  0.3741E+02
   1.190  0.6682E+01  0.3747E+02
   1.200  0.6434E+01  0.3754E+02
   1.210  0.6224E+01  0.3760E+02
   1.220  0.6059E+01  0.3766E+02
   1.230  0.5946E+01  0.3772E+02
   1.240  0.5890E+01  0.3778E+02
   1.250  0.5892E+01  0.3784E+02
   1.260  0.5955E+01  0.3790E+02
   1.270  0.6078E+01  0.3796E+02
   1.280  0.6257E+01  0.3802E+02
   1.290  0.6487E+01  0.3809E+02
   1.300  0.6762E+01  0.3815E+02
   1.310  0.7073E+01  0.3823E+02
   1.320  0.7410E+01  0.3830E+02
   1.330  0.7764E+01  0.3838E+02
   1.340  0.8121E+01  0.3846E+02
   1.350  0.8473E+01  0.3854E+02
   1.360  0.8808E+01  0.3863E+02
   1.370  0.9116E+01  0.3872E+02
   1.380  0.9390E+01  0.3882E+02
   1.390  0.9623E+01  0.3891E+02
   1.400  0.9811E+01  0.3901E+02
   1.410  0.9952E+01  0.3911E+02
   1.420  0.1005E+02  0.3921E+02
   1.430  0.1009E+02  0.3931E+02
   1.440  0.1010E+02  0.3941E+02
   1.450  0.1007E+02  0.3951E+02
   1.460  0.1001E+02  0.3961E+02
   1.470  0.9930E+01  0.3971E+02
   1.480  0.9833E+01  0.3981E+02
   1.490  0.9730E+01  0.3991E+02
   1.500  0.9627E+01  0.4000E+02
   1.510  0.9530E+01  0.4010E+02
   1.520  0.9443E+01  0.4019E+02
   1.530  0.9371E+01  0.4029E+02
   1.540  0.9316E+01  0.4038E+02
   1.550  0.9278E+01  0.4047E+02
   1.560  0.9257E+01  0.4057E+02
   1.570  0.9251E+01  0.4066E+02
   1.580  0.9257E+01  0.4075E+02
   1.590  0.9270E+01  0.4084E+02
   1.600  0.9288E+01  0.4094E+02
   1.610  0.9305E+01  0.4103E+02
   1.620  0.9318E+01  0.4112E+02
   1.630  0.9322E+01  0.4122E+02
   1.640  0.9314E+01  0.4131E+02
   1.650  0.9292E+01  0.4140E+02
   1.660  0.9253E+01  0.4149E+02
   1.670  0.9196E+01  0.4159E+02
   1.680  0.9120E+01  0.4168E+02
   1.690  0.9027E+01  0.4177E+02
   1.700  0.8915E+01  0.4186E+02
   1.710  0.8787E+01  0.4195E+02
   1.720  0.8644E+01  0.4203E+02
   1.730  0.8487E+01  0.4212E+02
   1.740  0.8318E+01  0.4220E+02
   1.750  0.8140E+01  0.4228E+02
   1.760  0.7953E+01  0.4236E+02
   1.770  0.7761E+01  0.4244E+02
   1.780  0.7564E+01  0.4251E+02
   1.790  0.7364E+01  0.4259E+02
   1.800  0.7164E+01  0.4266E+02
   1.810  0.6964E+01  0.4273E+02
   1.820  0.6767E+01  0.4280E+02
   1.830  0.6574E+01  0.4286E+02
   1.840  0.6386E+01  0.4293E+02
   1.850  0.6205E+01  0.4299E+02
   1.860  0.6033E+01  0.4305E+02
   1.870  0.5871E+01  0.4311E+02
   1.880  0.5719E+01  0.4316E+02
   1.890  0.5579E+01  0.4322E+02
   1.900  0.5452E+01  0.4327E+02
   1.910  0.5338E+01  0.4333E+02
   1.920  0.5237E+01  0.4338E+02
   1.930  0.5151E+01  0.4343E+02
   1.940  0.5078E+01  0.4348E+02
   1.950  0.5020E+01  0.4353E+02
   1.960  0.4976E+01  0.4358E+02
   1.970  0.4947E+01  0.4363E+02
   1.980  0.4933E+01  0.4368E+02
   1.990  0.4933E+01  0.4373E+02
   2.000  0.4949E+01  0.4378E+02
   2.010  0.4981E+01  0.4383E+02
   2.020  0.5028E+01  0.4388E+02
   2.030  0.5091E+01  0.4393E+02
   2.040  0.5169E+01  0.4398E+02
   2.050  0.5262E+01  0.4404E+02
   2.060  0.5369E+01  0.4409E+02
   2.070  0.5490E+01  0.4414E+02
   2.080  0.5622E+01  0.4420E+02
   2.090  0.5765E+01  0.4426E+02
   2.100  0.5916E+01  0.4432E+02
   2.110  0.6073E+01  0.4438E+02
   2.120  0.6234E+01  0.4444E+02
   2.130  0.6397E+01  0.4450E+02
   2.140  0.6560E+01  0.4457E+02
   2.150  0.6720E+01  0.4464E+02
   2.160  0.6876E+01  0.4471E+02
   2.170  0.7025E+01  0.4478E+02
   2.180  0.7167E+01  0.4485E+02
   2.190  0.7300E+01  0.4492E+02
   2.200  0.7423E+01  0.4499E+02
   2.210  0.7535E+01  0.4507E+02
   2.220  0.7635E+01  0.4515E+02
   2.230  0.7723E+01  0.4522E+02
   2.240  0.7799E+01  0.4530E+02
   2.250  0.7862E+01  0.4538E+02
   2.260  0.7913E+01  0.4546E+02
   2.270  0.7952E+01  0.4554E+02
   2.280  0.7981E+01  0.4562E+02
   2.290  0.7998E+01  0.4570E+02
   2.300  0.8006E+01  0.4578E+02
   2.310  0.8006E+01  0.4586E+02
   2.320  0.7998E+01  0.4594E+02
   2.330  0.7984E+01  0.4602E+02
   2.340  0.7965E+01  0.4610E+02
   2.350  0.7942E+01  0.4618E+02
   2.360  0.7915E+01  0.4626E+02
   2.370  0.7885E+01  0.4634E+02
   2.380  0.7852E+01  0.4641E+02
   2.390  0.7815E+01  0.4649E+02
   2.400  0.7773E+01  0.4657E+02
   2.410  0.7724E+01  0.4665E+02
   2.420  0.7667E+01  0.4672E+02
   2.430  0.7600E+01  0.4680E+02
   2.440  0.7518E+01  0.4688E+02
   2.450  0.7420E+01  0.4695E+02
   2.460  0.7303E+01  0.4702E+02
   2.470  0.7164E+01  0.4709E+02
   2.480  0.7000E+01  0.4716E+02
   2.490  0.6811E+01  0.4723E+02
   2.500  0.6595E+01  0.4730E+02
   2.510  0.6352E+01  0.4736E+02
   2.520  0.6084E+01  0.4742E+02
   2.530  0.5791E+01  0.4748E+02
   2.540  0.5477E+01  0.4754E+02
   2.550  0.5145E+01  0.4759E+02
   2.560  0.4800E+01  0.4763E+02
   2.570  0.4444E+01  0.4768E+02
   2.580  0.4084E+01  0.4772E+02
   2.590  0.3725E+01  0.4776E+02
   2.600  0.3370E+01  0.4779E+02
   2.610  0.3025E+01  0.4782E+02
   2.620  0.2693E+01  0.4785E+02
   2.630  0.2378E+01  0.4787E+02
   2.640  0.2082E+01  0.4789E+02
   2.650  0.1808E+01  0.4791E+02
   2.660  0.1557E+01  0.4793E+02
