#  E (eV)   dos(E)     Int dos(E) EFermi =   2.581 eV
 -17.180  0.6061E-05  0.6061E-07
 -17.170  0.9529E-05  0.1559E-06
 -17.160  0.1484E-04  0.3043E-06
 -17.150  0.2288E-04  0.5331E-06
 -17.140  0.3495E-04  0.8826E-06
 -17.130  0.5288E-04  0.1411E-05
 -17.120  0.7926E-04  0.2204E-05
 -17.110  0.1177E-03  0.3381E-05
 -17.100  0.1731E-03  0.5112E-05
 -17.090  0.2524E-03  0.7636E-05
 -17.080  0.3645E-03  0.1128E-04
 -17.070  0.5218E-03  0.1650E-04
 -17.060  0.7402E-03  0.2390E-04
 -17.050  0.1041E-02  0.3431E-04
 -17.040  0.1450E-02  0.4881E-04
 -17.030  0.2003E-02  0.6884E-04
 -17.020  0.2743E-02  0.9628E-04
 -17.010  0.3724E-02  0.1335E-03
 -17.000  0.5013E-02  0.1837E-03
 -16.990  0.6690E-02  0.2506E-03
 -16.980  0.8853E-02  0.3391E-03
 -16.970  0.1162E-01  0.4552E-03
 -16.960  0.1511E-01  0.6064E-03
 -16.950  0.1950E-01  0.8014E-03
 -16.940  0.2496E-01  0.1051E-02
 -16.930  0.3168E-01  0.1368E-02
 -16.920  0.3988E-01  0.1767E-02
 -16.910  0.4980E-01  0.2265E-02
 -16.900  0.6167E-01  0.2881E-02
 -16.890  0.7576E-01  0.3639E-02
 -16.880  0.9231E-01  0.4562E-02
 -16.870  0.1116E+00  0.5678E-02
 -16.860  0.1338E+00  0.7016E-02
 -16.850  0.1592E+00  0.8608E-02
 -16.840  0.1879E+00  0.1049E-01
 -16.830  0.2200E+00  0.1269E-01
 -16.820  0.2557E+00  0.1524E-01
 -16.810  0.2948E+00  0.1819E-01
 -16.800  0.3374E+00  0.2157E-01
 -16.790  0.3834E+00  0.2540E-01
 -16.780  0.4324E+00  0.2972E-01
 -16.770  0.4843E+00  0.3457E-01
 -16.760  0.5388E+00  0.3996E-01
 -16.750  0.5955E+00  0.4591E-01
 -16.740  0.6541E+00  0.5245E-01
 -16.730  0.7143E+00  0.5960E-01
 -16.720  0.7758E+00  0.6735E-01
 -16.710  0.8382E+00  0.7574E-01
 -16.700  0.9015E+00  0.8475E-01
 -16.690  0.9656E+00  0.9441E-01
 -16.680  0.1030E+01  0.1047E+00
 -16.670  0.1096E+01  0.1157E+00
 -16.660  0.1163E+01  0.1273E+00
 -16.650  0.1230E+01  0.1396E+00
 -16.640  0.1300E+01  0.1526E+00
 -16.630  0.1371E+01  0.1663E+00
 -16.620  0.1443E+01  0.1807E+00
 -16.610  0.1518E+01  0.1959E+00
 -16.600  0.1595E+01  0.2119E+00
 -16.590  0.1674E+01  0.2286E+00
 -16.580  0.1755E+01  0.2462E+00
 -16.570  0.1838E+01  0.2646E+00
 -16.560  0.1922E+01  0.2838E+00
 -16.550  0.2007E+01  0.3038E+00
 -16.540  0.2092E+01  0.3248E+00
 -16.530  0.2178E+01  0.3465E+00
 -16.520  0.2263E+01  0.3692E+00
 -16.510  0.2348E+01  0.3927E+00
 -16.500  0.2434E+01  0.4170E+00
 -16.490  0.2519E+01  0.4422E+00
 -16.480  0.2606E+01  0.4682E+00
 -16.470  0.2695E+01  0.4952E+00
 -16.460  0.2787E+01  0.5231E+00
 -16.450  0.2883E+01  0.5519E+00
 -16.440  0.2984E+01  0.5817E+00
 -16.430  0.3093E+01  0.6127E+00
 -16.420  0.3210E+01  0.6448E+00
 -16.410  0.3336E+01  0.6781E+00
 -16.400  0.3472E+01  0.7128E+00
 -16.390  0.3616E+01  0.7490E+00
 -16.380  0.3770E+01  0.7867E+00
 -16.370  0.3931E+01  0.8260E+00
 -16.360  0.4097E+01  0.8670E+00
 -16.350  0.4266E+01  0.9096E+00
 -16.340  0.4434E+01  0.9540E+00
 -16.330  0.4597E+01  0.1000E+01
 -16.320  0.4752E+01  0.1047E+01
 -16.310  0.4892E+01  0.1096E+01
 -16.300  0.5015E+01  0.1147E+01
 -16.290  0.5116E+01  0.1198E+01
 -16.280  0.5190E+01  0.1250E+01
 -16.270  0.5235E+01  0.1302E+01
 -16.260  0.5247E+01  0.1354E+01
 -16.250  0.5226E+01  0.1407E+01
 -16.240  0.5172E+01  0.1458E+01
 -16.230  0.5083E+01  0.1509E+01
 -16.220  0.4963E+01  0.1559E+01
 -16.210  0.4813E+01  0.1607E+01
 -16.200  0.4637E+01  0.1653E+01
 -16.190  0.4440E+01  0.1698E+01
 -16.180  0.4226E+01  0.1740E+01
 -16.170  0.4001E+01  0.1780E+01
 -16.160  0.3770E+01  0.1818E+01
 -16.150  0.3537E+01  0.1853E+01
 -16.140  0.3309E+01  0.1886E+01
 -16.130  0.3091E+01  0.1917E+01
 -16.120  0.2885E+01  0.1946E+01
 -16.110  0.2696E+01  0.1973E+01
 -16.100  0.2527E+01  0.1998E+01
 -16.090  0.2380E+01  0.2022E+01
 -16.080  0.2256E+01  0.2045E+01
 -16.070  0.2157E+01  0.2066E+01
 -16.060  0.2083E+01  0.2087E+01
 -16.050  0.2034E+01  0.2107E+01
 -16.040  0.2009E+01  0.2127E+01
 -16.030  0.2008E+01  0.2147E+01
 -16.020  0.2030E+01  0.2168E+01
 -16.010  0.2073E+01  0.2189E+01
 -16.000  0.2136E+01  0.2210E+01
 -15.990  0.2219E+01  0.2232E+01
 -15.980  0.2320E+01  0.2255E+01
 -15.970  0.2437E+01  0.2280E+01
 -15.960  0.2570E+01  0.2305E+01
 -15.950  0.2716E+01  0.2332E+01
 -15.940  0.2875E+01  0.2361E+01
 -15.930  0.3044E+01  0.2392E+01
 -15.920  0.3222E+01  0.2424E+01
 -15.910  0.3406E+01  0.2458E+01
 -15.900  0.3593E+01  0.2494E+01
 -15.890  0.3781E+01  0.2532E+01
 -15.880  0.3966E+01  0.2571E+01
 -15.870  0.4145E+01  0.2613E+01
 -15.860  0.4315E+01  0.2656E+01
 -15.850  0.4472E+01  0.2701E+01
 -15.840  0.4612E+01  0.2747E+01
 -15.830  0.4732E+01  0.2794E+01
 -15.820  0.4829E+01  0.2842E+01
 -15.810  0.4902E+01  0.2891E+01
 -15.800  0.4948E+01  0.2941E+01
 -15.790  0.4966E+01  0.2991E+01
 -15.780  0.4956E+01  0.3040E+01
 -15.770  0.4919E+01  0.3089E+01
 -15.760  0.4856E+01  0.3138E+01
 -15.750  0.4769E+01  0.3186E+01
 -15.740  0.4660E+01  0.3232E+01
 -15.730  0.4533E+01  0.3277E+01
 -15.720  0.4390E+01  0.3321E+01
 -15.710  0.4235E+01  0.3364E+01
 -15.700  0.4070E+01  0.3404E+01
 -15.690  0.3900E+01  0.3443E+01
 -15.680  0.3726E+01  0.3481E+01
 -15.670  0.3551E+01  0.3516E+01
 -15.660  0.3378E+01  0.3550E+01
 -15.650  0.3206E+01  0.3582E+01
 -15.640  0.3038E+01  0.3612E+01
 -15.630  0.2875E+01  0.3641E+01
 -15.620  0.2717E+01  0.3668E+01
 -15.610  0.2564E+01  0.3694E+01
 -15.600  0.2416E+01  0.3718E+01
 -15.590  0.2274E+01  0.3741E+01
 -15.580  0.2138E+01  0.3762E+01
 -15.570  0.2008E+01  0.3782E+01
 -15.560  0.1885E+01  0.3801E+01
 -15.550  0.1769E+01  0.3819E+01
 -15.540  0.1662E+01  0.3835E+01
 -15.530  0.1564E+01  0.3851E+01
 -15.520  0.1477E+01  0.3866E+01
 -15.510  0.1402E+01  0.3880E+01
 -15.500  0.1341E+01  0.3893E+01
 -15.490  0.1294E+01  0.3906E+01
 -15.480  0.1265E+01  0.3919E+01
 -15.470  0.1253E+01  0.3931E+01
 -15.460  0.1262E+01  0.3944E+01
 -15.450  0.1292E+01  0.3957E+01
 -15.440  0.1344E+01  0.3970E+01
 -15.430  0.1419E+01  0.3985E+01
 -15.420  0.1518E+01  0.4000E+01
 -15.410  0.1641E+01  0.4016E+01
 -15.400  0.1787E+01  0.4034E+01
 -15.390  0.1955E+01  0.4054E+01
 -15.380  0.2145E+01  0.4075E+01
 -15.370  0.2353E+01  0.4099E+01
 -15.360  0.2578E+01  0.4124E+01
 -15.350  0.2816E+01  0.4153E+01
 -15.340  0.3063E+01  0.4183E+01
 -15.330  0.3315E+01  0.4216E+01
 -15.320  0.3568E+01  0.4252E+01
 -15.310  0.3817E+01  0.4290E+01
 -15.300  0.4057E+01  0.4331E+01
 -15.290  0.4284E+01  0.4374E+01
 -15.280  0.4492E+01  0.4419E+01
 -15.270  0.4677E+01  0.4465E+01
 -15.260  0.4837E+01  0.4514E+01
 -15.250  0.4967E+01  0.4563E+01
 -15.240  0.5067E+01  0.4614E+01
 -15.230  0.5133E+01  0.4665E+01
 -15.220  0.5168E+01  0.4717E+01
 -15.210  0.5169E+01  0.4769E+01
 -15.200  0.5140E+01  0.4820E+01
 -15.190  0.5082E+01  0.4871E+01
 -15.180  0.4998E+01  0.4921E+01
 -15.170  0.4891E+01  0.4970E+01
 -15.160  0.4765E+01  0.5017E+01
 -15.150  0.4624E+01  0.5064E+01
 -15.140  0.4470E+01  0.5108E+01
 -15.130  0.4309E+01  0.5151E+01
 -15.120  0.4143E+01  0.5193E+01
 -15.110  0.3975E+01  0.5233E+01
 -15.100  0.3809E+01  0.5271E+01
 -15.090  0.3645E+01  0.5307E+01
 -15.080  0.3485E+01  0.5342E+01
 -15.070  0.3331E+01  0.5375E+01
 -15.060  0.3183E+01  0.5407E+01
 -15.050  0.3041E+01  0.5438E+01
 -15.040  0.2905E+01  0.5467E+01
 -15.030  0.2775E+01  0.5494E+01
 -15.020  0.2650E+01  0.5521E+01
 -15.010  0.2530E+01  0.5546E+01
 -15.000  0.2415E+01  0.5570E+01
 -14.990  0.2304E+01  0.5593E+01
 -14.980  0.2198E+01  0.5615E+01
 -14.970  0.2097E+01  0.5636E+01
 -14.960  0.2003E+01  0.5656E+01
 -14.950  0.1916E+01  0.5676E+01
 -14.940  0.1840E+01  0.5694E+01
 -14.930  0.1776E+01  0.5712E+01
 -14.920  0.1728E+01  0.5729E+01
 -14.910  0.1699E+01  0.5746E+01
 -14.900  0.1695E+01  0.5763E+01
 -14.890  0.1718E+01  0.5780E+01
 -14.880  0.1776E+01  0.5798E+01
 -14.870  0.1874E+01  0.5817E+01
 -14.860  0.2019E+01  0.5837E+01
 -14.850  0.2217E+01  0.5859E+01
 -14.840  0.2477E+01  0.5884E+01
 -14.830  0.2804E+01  0.5912E+01
 -14.820  0.3207E+01  0.5944E+01
 -14.810  0.3692E+01  0.5981E+01
 -14.800  0.4265E+01  0.6023E+01
 -14.790  0.4933E+01  0.6073E+01
 -14.780  0.5697E+01  0.6130E+01
 -14.770  0.6559E+01  0.6195E+01
 -14.760  0.7518E+01  0.6270E+01
 -14.750  0.8571E+01  0.6356E+01
 -14.740  0.9711E+01  0.6453E+01
 -14.730  0.1093E+02  0.6563E+01
 -14.720  0.1220E+02  0.6685E+01
 -14.710  0.1352E+02  0.6820E+01
 -14.700  0.1486E+02  0.6968E+01
 -14.690  0.1620E+02  0.7130E+01
 -14.680  0.1750E+02  0.7305E+01
 -14.670  0.1875E+02  0.7493E+01
 -14.660  0.1992E+02  0.7692E+01
 -14.650  0.2096E+02  0.7902E+01
 -14.640  0.2187E+02  0.8120E+01
 -14.630  0.2261E+02  0.8347E+01
 -14.620  0.2316E+02  0.8578E+01
 -14.610  0.2350E+02  0.8813E+01
 -14.600  0.2363E+02  0.9049E+01
 -14.590  0.2355E+02  0.9285E+01
 -14.580  0.2324E+02  0.9517E+01
 -14.570  0.2273E+02  0.9745E+01
 -14.560  0.2202E+02  0.9965E+01
 -14.550  0.2113E+02  0.1018E+02
 -14.540  0.2008E+02  0.1038E+02
 -14.530  0.1891E+02  0.1057E+02
 -14.520  0.1764E+02  0.1074E+02
 -14.510  0.1629E+02  0.1091E+02
 -14.500  0.1491E+02  0.1105E+02
 -14.490  0.1351E+02  0.1119E+02
 -14.480  0.1213E+02  0.1131E+02
 -14.470  0.1078E+02  0.1142E+02
 -14.460  0.9492E+01  0.1151E+02
 -14.450  0.8277E+01  0.1160E+02
 -14.440  0.7147E+01  0.1167E+02
 -14.430  0.6112E+01  0.1173E+02
 -14.420  0.5176E+01  0.1178E+02
 -14.410  0.4340E+01  0.1182E+02
 -14.400  0.3604E+01  0.1186E+02
 -14.390  0.2964E+01  0.1189E+02
 -14.380  0.2413E+01  0.1191E+02
 -14.370  0.1946E+01  0.1193E+02
 -14.360  0.1553E+01  0.1195E+02
 -14.350  0.1228E+01  0.1196E+02
 -14.340  0.9609E+00  0.1197E+02
 -14.330  0.7446E+00  0.1198E+02
 -14.320  0.5713E+00  0.1198E+02
 -14.310  0.4340E+00  0.1199E+02
 -14.300  0.3264E+00  0.1199E+02
 -14.290  0.2430E+00  0.1199E+02
 -14.280  0.1791E+00  0.1200E+02
 -14.270  0.1307E+00  0.1200E+02
 -14.260  0.9446E-01  0.1200E+02
 -14.250  0.6757E-01  0.1200E+02
 -14.240  0.4785E-01  0.1200E+02
 -14.230  0.3354E-01  0.1200E+02
 -14.220  0.2327E-01  0.1200E+02
 -14.210  0.1599E-01  0.1200E+02
 -14.200  0.1087E-01  0.1200E+02
 -14.190  0.7320E-02  0.1200E+02
 -14.180  0.4878E-02  0.1200E+02
 -14.170  0.3218E-02  0.1200E+02
 -14.160  0.2101E-02  0.1200E+02
 -14.150  0.1358E-02  0.1200E+02
 -14.140  0.8690E-03  0.1200E+02
 -14.130  0.5504E-03  0.1200E+02
 -14.120  0.3451E-03  0.1200E+02
 -14.110  0.2141E-03  0.1200E+02
 -14.100  0.1315E-03  0.1200E+02
 -14.090  0.7996E-04  0.1200E+02
 -14.080  0.4812E-04  0.1200E+02
 -14.070  0.2866E-04  0.1200E+02
 -14.060  0.1690E-04  0.1200E+02
 -14.050  0.9862E-05  0.1200E+02
 -14.040  0.5696E-05  0.1200E+02
 -14.030  0.3256E-05  0.1200E+02
 -14.020  0.1843E-05  0.1200E+02
 -14.010  0.1032E-05  0.1200E+02
 -14.000  0.5721E-06  0.1200E+02
 -13.990  0.3139E-06  0.1200E+02
 -13.980  0.1704E-06  0.1200E+02
 -13.970  0.9159E-07  0.1200E+02
 -13.960  0.4872E-07  0.1200E+02
 -13.950  0.2565E-07  0.1200E+02
 -13.940  0.1336E-07  0.1200E+02
 -13.930  0.6892E-08  0.1200E+02
 -13.920  0.3518E-08  0.1200E+02
 -13.910  0.1777E-08  0.1200E+02
 -13.900  0.8882E-09  0.1200E+02
 -13.890  0.4395E-09  0.1200E+02
 -13.880  0.2152E-09  0.1200E+02
 -13.870  0.1043E-09  0.1200E+02
 -13.860  0.5002E-10  0.1200E+02
 -13.850  0.2374E-10  0.1200E+02
 -13.840  0.1115E-10  0.1200E+02
 -13.830  0.5184E-11  0.1200E+02
 -13.820  0.2385E-11  0.1200E+02
 -13.810  0.1086E-11  0.1200E+02
 -13.800  0.4893E-12  0.1200E+02
 -13.790  0.2182E-12  0.1200E+02
 -13.780  0.9629E-13  0.1200E+02
 -13.770  0.4205E-13  0.1200E+02
 -13.760  0.1817E-13  0.1200E+02
 -13.750  0.7773E-14  0.1200E+02
 -13.740  0.3290E-14  0.1200E+02
 -13.730  0.1378E-14  0.1200E+02
 -13.720  0.5712E-15  0.1200E+02
 -13.710  0.2343E-15  0.1200E+02
 -13.700  0.9511E-16  0.1200E+02
 -13.690  0.3821E-16  0.1200E+02
 -13.680  0.1519E-16  0.1200E+02
 -13.670  0.5974E-17  0.1200E+02
 -13.660  0.2325E-17  0.1200E+02
 -13.650  0.8957E-18  0.1200E+02
 -13.640  0.3414E-18  0.1200E+02
 -13.630  0.1288E-18  0.1200E+02
 -13.620  0.4807E-19  0.1200E+02
 -13.610  0.1776E-19  0.1200E+02
 -13.600  0.6490E-20  0.1200E+02
 -13.590  0.2347E-20  0.1200E+02
 -13.580  0.8400E-21  0.1200E+02
 -13.570  0.2975E-21  0.1200E+02
 -13.560  0.1042E-21  0.1200E+02
 -13.550  0.3615E-22  0.1200E+02
 -13.540  0.1240E-22  0.1200E+02
 -13.530  0.4211E-23  0.1200E+02
 -13.520  0.1415E-23  0.1200E+02
 -13.510  0.4704E-24  0.1200E+02
 -13.500  0.1547E-24  0.1200E+02
 -13.490  0.5036E-25  0.1200E+02
 -13.480  0.1622E-25  0.1200E+02
 -13.470  0.5170E-26  0.1200E+02
 -13.460  0.1630E-26  0.1200E+02
 -13.450  0.5087E-27  0.1200E+02
 -13.440  0.1571E-27  0.1200E+02
 -13.430  0.4798E-28  0.1200E+02
 -13.420  0.1450E-28  0.1200E+02
 -13.410  0.4338E-29  0.1200E+02
 -13.400  0.1284E-29  0.1200E+02
 -13.390  0.3760E-30  0.1200E+02
 -13.380  0.1089E-30  0.1200E+02
 -13.370  0.3123E-31  0.1200E+02
 -13.360  0.8859E-32  0.1200E+02
 -13.350  0.2487E-32  0.1200E+02
 -13.340  0.6905E-33  0.1200E+02
 -13.330  0.1898E-33  0.1200E+02
 -13.320  0.5159E-34  0.1200E+02
 -13.310  0.1388E-34  0.1200E+02
 -13.300  0.3694E-35  0.1200E+02
 -13.290  0.9729E-36  0.1200E+02
 -13.280  0.2535E-36  0.1200E+02
 -13.270  0.6536E-37  0.1200E+02
 -13.260  0.1667E-37  0.1200E+02
 -13.250  0.4208E-38  0.1200E+02
 -13.240  0.1051E-38  0.1200E+02
 -13.230  0.2597E-39  0.1200E+02
 -13.220  0.6349E-40  0.1200E+02
 -13.210  0.1536E-40  0.1200E+02
 -13.200  0.3675E-41  0.1200E+02
 -13.190  0.8702E-42  0.1200E+02
 -13.180  0.2039E-42  0.1200E+02
 -13.170  0.4726E-43  0.1200E+02
 -13.160  0.1084E-43  0.1200E+02
 -13.150  0.2459E-44  0.1200E+02
 -13.140  0.5522E-45  0.1200E+02
 -13.130  0.1227E-45  0.1200E+02
 -13.120  0.2696E-46  0.1200E+02
 -13.110  0.5861E-47  0.1200E+02
 -13.100  0.1261E-47  0.1200E+02
 -13.090  0.2684E-48  0.1200E+02
 -13.080  0.5652E-49  0.1200E+02
 -13.070  0.1178E-49  0.1200E+02
 -13.060  0.2428E-50  0.1200E+02
 -13.050  0.4951E-51  0.1200E+02
 -13.040  0.9992E-52  0.1200E+02
 -13.030  0.1995E-52  0.1200E+02
 -13.020  0.3940E-53  0.1200E+02
 -13.010  0.7700E-54  0.1200E+02
 -13.000  0.1489E-54  0.1200E+02
 -12.990  0.2848E-55  0.1200E+02
 -12.980  0.5391E-56  0.1200E+02
 -12.970  0.1009E-56  0.1200E+02
 -12.960  0.1870E-57  0.1200E+02
 -12.950  0.3427E-58  0.1200E+02
 -12.940  0.6215E-59  0.1200E+02
 -12.930  0.1115E-59  0.1200E+02
 -12.920  0.1979E-60  0.1200E+02
 -12.910  0.3476E-61  0.1200E+02
 -12.900  0.6039E-62  0.1200E+02
 -12.890  0.1038E-62  0.1200E+02
 -12.880  0.1766E-63  0.1200E+02
 -12.870  0.2971E-64  0.1200E+02
 -12.860  0.4945E-65  0.1200E+02
 -12.850  0.8144E-66  0.1200E+02
 -12.840  0.1327E-66  0.1200E+02
 -12.830  0.2139E-67  0.1200E+02
 -12.820  0.3412E-68  0.1200E+02
 -12.810  0.5383E-69  0.1200E+02
 -12.800  0.8403E-70  0.1200E+02
 -12.790  0.1298E-70  0.1200E+02
 -12.780  0.1983E-71  0.1200E+02
 -12.770  0.2998E-72  0.1200E+02
 -12.760  0.4483E-73  0.1200E+02
 -12.750  0.6633E-74  0.1200E+02
 -12.740  0.9710E-75  0.1200E+02
 -12.730  0.1406E-75  0.1200E+02
 -12.720  0.2015E-76  0.1200E+02
 -12.710  0.2856E-77  0.1200E+02
 -12.700  0.4005E-78  0.1200E+02
 -12.690  0.5557E-79  0.1200E+02
 -12.680  0.7628E-80  0.1200E+02
 -12.670  0.1036E-80  0.1200E+02
 -12.660  0.1394E-81  0.1200E+02
 -12.650  0.1876E-82  0.1200E+02
 -12.640  0.2700E-83  0.1200E+02
 -12.630  0.5877E-84  0.1200E+02
 -12.620  0.3140E-84  0.1200E+02
 -12.610  0.2794E-84  0.1200E+02
 -12.600  0.2758E-84  0.1200E+02
 -12.590  0.2755E-84  0.1200E+02
 -12.580  0.2755E-84  0.1200E+02
 -12.570  0.2755E-84  0.1200E+02
 -12.560  0.2755E-84  0.1200E+02
 -12.550  0.2755E-84  0.1200E+02
 -12.540  0.2755E-84  0.1200E+02
 -12.530  0.2755E-84  0.1200E+02
 -12.520  0.2755E-84  0.1200E+02
 -12.510  0.2755E-84  0.1200E+02
 -12.500  0.2755E-84  0.1200E+02
 -12.490  0.2755E-84  0.1200E+02
 -12.480  0.2755E-84  0.1200E+02
 -12.470  0.2755E-84  0.1200E+02
 -12.460  0.2755E-84  0.1200E+02
 -12.450  0.2755E-84  0.1200E+02
 -12.440  0.2755E-84  0.1200E+02
 -12.430  0.2755E-84  0.1200E+02
 -12.420  0.2755E-84  0.1200E+02
 -12.410  0.2755E-84  0.1200E+02
 -12.400  0.2755E-84  0.1200E+02
 -12.390  0.2755E-84  0.1200E+02
 -12.380  0.2755E-84  0.1200E+02
 -12.370  0.2755E-84  0.1200E+02
 -12.360  0.2755E-84  0.1200E+02
 -12.350  0.2755E-84  0.1200E+02
 -12.340  0.2755E-84  0.1200E+02
 -12.330  0.2755E-84  0.1200E+02
 -12.320  0.2755E-84  0.1200E+02
 -12.310  0.2755E-84  0.1200E+02
 -12.300  0.2755E-84  0.1200E+02
 -12.290  0.2755E-84  0.1200E+02
 -12.280  0.2755E-84  0.1200E+02
 -12.270  0.2755E-84  0.1200E+02
 -12.260  0.2755E-84  0.1200E+02
 -12.250  0.2755E-84  0.1200E+02
 -12.240  0.2755E-84  0.1200E+02
 -12.230  0.2755E-84  0.1200E+02
 -12.220  0.2755E-84  0.1200E+02
 -12.210  0.2755E-84  0.1200E+02
 -12.200  0.2755E-84  0.1200E+02
 -12.190  0.2755E-84  0.1200E+02
 -12.180  0.2755E-84  0.1200E+02
 -12.170  0.2755E-84  0.1200E+02
 -12.160  0.2755E-84  0.1200E+02
 -12.150  0.2755E-84  0.1200E+02
 -12.140  0.2755E-84  0.1200E+02
 -12.130  0.2755E-84  0.1200E+02
 -12.120  0.2755E-84  0.1200E+02
 -12.110  0.2755E-84  0.1200E+02
 -12.100  0.2755E-84  0.1200E+02
 -12.090  0.2755E-84  0.1200E+02
 -12.080  0.2755E-84  0.1200E+02
 -12.070  0.2755E-84  0.1200E+02
 -12.060  0.2755E-84  0.1200E+02
 -12.050  0.2755E-84  0.1200E+02
 -12.040  0.2755E-84  0.1200E+02
 -12.030  0.2755E-84  0.1200E+02
 -12.020  0.2755E-84  0.1200E+02
 -12.010  0.2755E-84  0.1200E+02
 -12.000  0.2755E-84  0.1200E+02
 -11.990  0.2755E-84  0.1200E+02
 -11.980  0.2755E-84  0.1200E+02
 -11.970  0.2755E-84  0.1200E+02
 -11.960  0.2755E-84  0.1200E+02
 -11.950  0.2755E-84  0.1200E+02
 -11.940  0.2755E-84  0.1200E+02
 -11.930  0.2755E-84  0.1200E+02
 -11.920  0.2755E-84  0.1200E+02
 -11.910  0.2755E-84  0.1200E+02
 -11.900  0.2755E-84  0.1200E+02
 -11.890  0.2755E-84  0.1200E+02
 -11.880  0.2755E-84  0.1200E+02
 -11.870  0.2755E-84  0.1200E+02
 -11.860  0.2755E-84  0.1200E+02
 -11.850  0.2755E-84  0.1200E+02
 -11.840  0.2755E-84  0.1200E+02
 -11.830  0.2755E-84  0.1200E+02
 -11.820  0.2755E-84  0.1200E+02
 -11.810  0.2755E-84  0.1200E+02
 -11.800  0.2755E-84  0.1200E+02
 -11.790  0.2755E-84  0.1200E+02
 -11.780  0.2755E-84  0.1200E+02
 -11.770  0.2755E-84  0.1200E+02
 -11.760  0.2755E-84  0.1200E+02
 -11.750  0.2755E-84  0.1200E+02
 -11.740  0.2755E-84  0.1200E+02
 -11.730  0.2755E-84  0.1200E+02
 -11.720  0.2755E-84  0.1200E+02
 -11.710  0.2755E-84  0.1200E+02
 -11.700  0.2755E-84  0.1200E+02
 -11.690  0.2755E-84  0.1200E+02
 -11.680  0.2755E-84  0.1200E+02
 -11.670  0.2755E-84  0.1200E+02
 -11.660  0.2755E-84  0.1200E+02
 -11.650  0.2755E-84  0.1200E+02
 -11.640  0.2755E-84  0.1200E+02
 -11.630  0.2755E-84  0.1200E+02
 -11.620  0.2755E-84  0.1200E+02
 -11.610  0.2755E-84  0.1200E+02
 -11.600  0.2755E-84  0.1200E+02
 -11.590  0.2755E-84  0.1200E+02
 -11.580  0.2755E-84  0.1200E+02
 -11.570  0.2755E-84  0.1200E+02
 -11.560  0.2755E-84  0.1200E+02
 -11.550  0.2755E-84  0.1200E+02
 -11.540  0.2755E-84  0.1200E+02
 -11.530  0.2755E-84  0.1200E+02
 -11.520  0.2755E-84  0.1200E+02
 -11.510  0.2755E-84  0.1200E+02
 -11.500  0.2755E-84  0.1200E+02
 -11.490  0.2755E-84  0.1200E+02
 -11.480  0.2755E-84  0.1200E+02
 -11.470  0.2755E-84  0.1200E+02
 -11.460  0.2755E-84  0.1200E+02
 -11.450  0.2755E-84  0.1200E+02
 -11.440  0.2755E-84  0.1200E+02
 -11.430  0.2755E-84  0.1200E+02
 -11.420  0.2755E-84  0.1200E+02
 -11.410  0.2755E-84  0.1200E+02
 -11.400  0.2755E-84  0.1200E+02
 -11.390  0.2755E-84  0.1200E+02
 -11.380  0.2755E-84  0.1200E+02
 -11.370  0.2755E-84  0.1200E+02
 -11.360  0.2755E-84  0.1200E+02
 -11.350  0.2755E-84  0.1200E+02
 -11.340  0.2755E-84  0.1200E+02
 -11.330  0.2755E-84  0.1200E+02
 -11.320  0.2755E-84  0.1200E+02
 -11.310  0.2755E-84  0.1200E+02
 -11.300  0.2755E-84  0.1200E+02
 -11.290  0.2755E-84  0.1200E+02
 -11.280  0.2755E-84  0.1200E+02
 -11.270  0.2755E-84  0.1200E+02
 -11.260  0.2755E-84  0.1200E+02
 -11.250  0.2755E-84  0.1200E+02
 -11.240  0.2755E-84  0.1200E+02
 -11.230  0.2755E-84  0.1200E+02
 -11.220  0.2755E-84  0.1200E+02
 -11.210  0.2755E-84  0.1200E+02
 -11.200  0.2755E-84  0.1200E+02
 -11.190  0.2755E-84  0.1200E+02
 -11.180  0.2755E-84  0.1200E+02
 -11.170  0.2755E-84  0.1200E+02
 -11.160  0.2755E-84  0.1200E+02
 -11.150  0.2755E-84  0.1200E+02
 -11.140  0.2755E-84  0.1200E+02
 -11.130  0.2755E-84  0.1200E+02
 -11.120  0.2755E-84  0.1200E+02
 -11.110  0.2755E-84  0.1200E+02
 -11.100  0.2755E-84  0.1200E+02
 -11.090  0.2755E-84  0.1200E+02
 -11.080  0.2755E-84  0.1200E+02
 -11.070  0.2755E-84  0.1200E+02
 -11.060  0.2755E-84  0.1200E+02
 -11.050  0.2755E-84  0.1200E+02
 -11.040  0.2755E-84  0.1200E+02
 -11.030  0.2755E-84  0.1200E+02
 -11.020  0.2755E-84  0.1200E+02
 -11.010  0.2755E-84  0.1200E+02
 -11.000  0.2755E-84  0.1200E+02
 -10.990  0.2755E-84  0.1200E+02
 -10.980  0.2755E-84  0.1200E+02
 -10.970  0.2755E-84  0.1200E+02
 -10.960  0.2755E-84  0.1200E+02
 -10.950  0.2755E-84  0.1200E+02
 -10.940  0.2755E-84  0.1200E+02
 -10.930  0.2755E-84  0.1200E+02
 -10.920  0.2755E-84  0.1200E+02
 -10.910  0.2755E-84  0.1200E+02
 -10.900  0.2755E-84  0.1200E+02
 -10.890  0.2755E-84  0.1200E+02
 -10.880  0.2755E-84  0.1200E+02
 -10.870  0.2755E-84  0.1200E+02
 -10.860  0.2755E-84  0.1200E+02
 -10.850  0.2755E-84  0.1200E+02
 -10.840  0.2755E-84  0.1200E+02
 -10.830  0.2755E-84  0.1200E+02
 -10.820  0.2755E-84  0.1200E+02
 -10.810  0.2755E-84  0.1200E+02
 -10.800  0.2755E-84  0.1200E+02
 -10.790  0.2755E-84  0.1200E+02
 -10.780  0.2755E-84  0.1200E+02
 -10.770  0.2755E-84  0.1200E+02
 -10.760  0.2755E-84  0.1200E+02
 -10.750  0.2755E-84  0.1200E+02
 -10.740  0.2755E-84  0.1200E+02
 -10.730  0.2755E-84  0.1200E+02
 -10.720  0.2755E-84  0.1200E+02
 -10.710  0.2755E-84  0.1200E+02
 -10.700  0.2755E-84  0.1200E+02
 -10.690  0.2755E-84  0.1200E+02
 -10.680  0.2755E-84  0.1200E+02
 -10.670  0.2755E-84  0.1200E+02
 -10.660  0.2755E-84  0.1200E+02
 -10.650  0.2755E-84  0.1200E+02
 -10.640  0.2755E-84  0.1200E+02
 -10.630  0.2755E-84  0.1200E+02
 -10.620  0.2755E-84  0.1200E+02
 -10.610  0.2755E-84  0.1200E+02
 -10.600  0.2755E-84  0.1200E+02
 -10.590  0.2755E-84  0.1200E+02
 -10.580  0.2755E-84  0.1200E+02
 -10.570  0.2755E-84  0.1200E+02
 -10.560  0.2755E-84  0.1200E+02
 -10.550  0.2755E-84  0.1200E+02
 -10.540  0.2755E-84  0.1200E+02
 -10.530  0.2755E-84  0.1200E+02
 -10.520  0.2755E-84  0.1200E+02
 -10.510  0.2755E-84  0.1200E+02
 -10.500  0.2755E-84  0.1200E+02
 -10.490  0.2755E-84  0.1200E+02
 -10.480  0.2755E-84  0.1200E+02
 -10.470  0.2755E-84  0.1200E+02
 -10.460  0.2755E-84  0.1200E+02
 -10.450  0.2755E-84  0.1200E+02
 -10.440  0.2755E-84  0.1200E+02
 -10.430  0.2755E-84  0.1200E+02
 -10.420  0.2755E-84  0.1200E+02
 -10.410  0.2755E-84  0.1200E+02
 -10.400  0.2755E-84  0.1200E+02
 -10.390  0.2755E-84  0.1200E+02
 -10.380  0.2755E-84  0.1200E+02
 -10.370  0.2755E-84  0.1200E+02
 -10.360  0.2755E-84  0.1200E+02
 -10.350  0.2755E-84  0.1200E+02
 -10.340  0.2755E-84  0.1200E+02
 -10.330  0.2755E-84  0.1200E+02
 -10.320  0.2755E-84  0.1200E+02
 -10.310  0.2755E-84  0.1200E+02
 -10.300  0.2755E-84  0.1200E+02
 -10.290  0.2755E-84  0.1200E+02
 -10.280  0.2755E-84  0.1200E+02
 -10.270  0.2755E-84  0.1200E+02
 -10.260  0.2755E-84  0.1200E+02
 -10.250  0.2755E-84  0.1200E+02
 -10.240  0.2755E-84  0.1200E+02
 -10.230  0.2755E-84  0.1200E+02
 -10.220  0.2755E-84  0.1200E+02
 -10.210  0.2755E-84  0.1200E+02
 -10.200  0.2755E-84  0.1200E+02
 -10.190  0.2755E-84  0.1200E+02
 -10.180  0.2755E-84  0.1200E+02
 -10.170  0.2755E-84  0.1200E+02
 -10.160  0.2755E-84  0.1200E+02
 -10.150  0.2755E-84  0.1200E+02
 -10.140  0.2755E-84  0.1200E+02
 -10.130  0.2755E-84  0.1200E+02
 -10.120  0.2755E-84  0.1200E+02
 -10.110  0.2755E-84  0.1200E+02
 -10.100  0.2755E-84  0.1200E+02
 -10.090  0.2755E-84  0.1200E+02
 -10.080  0.2755E-84  0.1200E+02
 -10.070  0.2755E-84  0.1200E+02
 -10.060  0.2755E-84  0.1200E+02
 -10.050  0.2755E-84  0.1200E+02
 -10.040  0.2755E-84  0.1200E+02
 -10.030  0.2755E-84  0.1200E+02
 -10.020  0.2755E-84  0.1200E+02
 -10.010  0.2755E-84  0.1200E+02
 -10.000  0.2755E-84  0.1200E+02
  -9.990  0.2755E-84  0.1200E+02
  -9.980  0.2755E-84  0.1200E+02
  -9.970  0.2755E-84  0.1200E+02
  -9.960  0.2755E-84  0.1200E+02
  -9.950  0.2755E-84  0.1200E+02
  -9.940  0.2755E-84  0.1200E+02
  -9.930  0.2755E-84  0.1200E+02
  -9.920  0.2755E-84  0.1200E+02
  -9.910  0.2755E-84  0.1200E+02
  -9.900  0.2755E-84  0.1200E+02
  -9.890  0.2755E-84  0.1200E+02
  -9.880  0.2755E-84  0.1200E+02
  -9.870  0.2755E-84  0.1200E+02
  -9.860  0.2755E-84  0.1200E+02
  -9.850  0.2755E-84  0.1200E+02
  -9.840  0.2755E-84  0.1200E+02
  -9.830  0.2755E-84  0.1200E+02
  -9.820  0.2755E-84  0.1200E+02
  -9.810  0.2755E-84  0.1200E+02
  -9.800  0.2755E-84  0.1200E+02
  -9.790  0.2755E-84  0.1200E+02
  -9.780  0.2755E-84  0.1200E+02
  -9.770  0.2755E-84  0.1200E+02
  -9.760  0.2755E-84  0.1200E+02
  -9.750  0.2755E-84  0.1200E+02
  -9.740  0.2755E-84  0.1200E+02
  -9.730  0.2755E-84  0.1200E+02
  -9.720  0.2755E-84  0.1200E+02
  -9.710  0.2755E-84  0.1200E+02
  -9.700  0.2755E-84  0.1200E+02
  -9.690  0.2755E-84  0.1200E+02
  -9.680  0.2755E-84  0.1200E+02
  -9.670  0.2755E-84  0.1200E+02
  -9.660  0.2755E-84  0.1200E+02
  -9.650  0.2755E-84  0.1200E+02
  -9.640  0.2755E-84  0.1200E+02
  -9.630  0.2755E-84  0.1200E+02
  -9.620  0.2755E-84  0.1200E+02
  -9.610  0.2755E-84  0.1200E+02
  -9.600  0.2755E-84  0.1200E+02
  -9.590  0.2755E-84  0.1200E+02
  -9.580  0.2755E-84  0.1200E+02
  -9.570  0.2755E-84  0.1200E+02
  -9.560  0.2755E-84  0.1200E+02
  -9.550  0.2755E-84  0.1200E+02
  -9.540  0.2755E-84  0.1200E+02
  -9.530  0.2755E-84  0.1200E+02
  -9.520  0.2755E-84  0.1200E+02
  -9.510  0.2755E-84  0.1200E+02
  -9.500  0.2755E-84  0.1200E+02
  -9.490  0.2755E-84  0.1200E+02
  -9.480  0.2755E-84  0.1200E+02
  -9.470  0.2755E-84  0.1200E+02
  -9.460  0.2755E-84  0.1200E+02
  -9.450  0.2755E-84  0.1200E+02
  -9.440  0.2755E-84  0.1200E+02
  -9.430  0.2755E-84  0.1200E+02
  -9.420  0.2755E-84  0.1200E+02
  -9.410  0.2755E-84  0.1200E+02
  -9.400  0.2755E-84  0.1200E+02
  -9.390  0.2755E-84  0.1200E+02
  -9.380  0.2755E-84  0.1200E+02
  -9.370  0.2755E-84  0.1200E+02
  -9.360  0.2755E-84  0.1200E+02
  -9.350  0.2755E-84  0.1200E+02
  -9.340  0.2755E-84  0.1200E+02
  -9.330  0.2755E-84  0.1200E+02
  -9.320  0.2755E-84  0.1200E+02
  -9.310  0.2755E-84  0.1200E+02
  -9.300  0.2755E-84  0.1200E+02
  -9.290  0.2755E-84  0.1200E+02
  -9.280  0.2755E-84  0.1200E+02
  -9.270  0.2755E-84  0.1200E+02
  -9.260  0.2755E-84  0.1200E+02
  -9.250  0.2755E-84  0.1200E+02
  -9.240  0.2755E-84  0.1200E+02
  -9.230  0.2755E-84  0.1200E+02
  -9.220  0.2755E-84  0.1200E+02
  -9.210  0.2755E-84  0.1200E+02
  -9.200  0.2755E-84  0.1200E+02
  -9.190  0.2755E-84  0.1200E+02
  -9.180  0.2755E-84  0.1200E+02
  -9.170  0.2755E-84  0.1200E+02
  -9.160  0.2755E-84  0.1200E+02
  -9.150  0.2755E-84  0.1200E+02
  -9.140  0.2755E-84  0.1200E+02
  -9.130  0.2755E-84  0.1200E+02
  -9.120  0.2755E-84  0.1200E+02
  -9.110  0.2755E-84  0.1200E+02
  -9.100  0.2755E-84  0.1200E+02
  -9.090  0.2755E-84  0.1200E+02
  -9.080  0.2755E-84  0.1200E+02
  -9.070  0.2755E-84  0.1200E+02
  -9.060  0.2755E-84  0.1200E+02
  -9.050  0.2755E-84  0.1200E+02
  -9.040  0.2755E-84  0.1200E+02
  -9.030  0.2755E-84  0.1200E+02
  -9.020  0.2755E-84  0.1200E+02
  -9.010  0.2755E-84  0.1200E+02
  -9.000  0.2755E-84  0.1200E+02
  -8.990  0.2755E-84  0.1200E+02
  -8.980  0.2755E-84  0.1200E+02
  -8.970  0.2755E-84  0.1200E+02
  -8.960  0.2755E-84  0.1200E+02
  -8.950  0.2755E-84  0.1200E+02
  -8.940  0.2755E-84  0.1200E+02
  -8.930  0.2755E-84  0.1200E+02
  -8.920  0.2755E-84  0.1200E+02
  -8.910  0.2755E-84  0.1200E+02
  -8.900  0.2755E-84  0.1200E+02
  -8.890  0.2755E-84  0.1200E+02
  -8.880  0.2755E-84  0.1200E+02
  -8.870  0.2755E-84  0.1200E+02
  -8.860  0.2755E-84  0.1200E+02
  -8.850  0.2755E-84  0.1200E+02
  -8.840  0.2755E-84  0.1200E+02
  -8.830  0.2755E-84  0.1200E+02
  -8.820  0.2755E-84  0.1200E+02
  -8.810  0.2755E-84  0.1200E+02
  -8.800  0.2755E-84  0.1200E+02
  -8.790  0.2755E-84  0.1200E+02
  -8.780  0.2755E-84  0.1200E+02
  -8.770  0.2755E-84  0.1200E+02
  -8.760  0.2755E-84  0.1200E+02
  -8.750  0.2755E-84  0.1200E+02
  -8.740  0.2755E-84  0.1200E+02
  -8.730  0.2755E-84  0.1200E+02
  -8.720  0.2755E-84  0.1200E+02
  -8.710  0.2755E-84  0.1200E+02
  -8.700  0.2756E-84  0.1200E+02
  -8.690  0.2766E-84  0.1200E+02
  -8.680  0.2851E-84  0.1200E+02
  -8.670  0.3504E-84  0.1200E+02
  -8.660  0.8493E-84  0.1200E+02
  -8.650  0.4621E-83  0.1200E+02
  -8.640  0.3283E-82  0.1200E+02
  -8.630  0.2416E-81  0.1200E+02
  -8.620  0.1769E-80  0.1200E+02
  -8.610  0.1283E-79  0.1200E+02
  -8.600  0.9207E-79  0.1200E+02
  -8.590  0.6535E-78  0.1200E+02
  -8.580  0.4588E-77  0.1200E+02
  -8.570  0.3187E-76  0.1200E+02
  -8.560  0.2190E-75  0.1200E+02
  -8.550  0.1489E-74  0.1200E+02
  -8.540  0.1001E-73  0.1200E+02
  -8.530  0.6659E-73  0.1200E+02
  -8.520  0.4382E-72  0.1200E+02
  -8.510  0.2853E-71  0.1200E+02
  -8.500  0.1837E-70  0.1200E+02
  -8.490  0.1171E-69  0.1200E+02
  -8.480  0.7378E-69  0.1200E+02
  -8.470  0.4600E-68  0.1200E+02
  -8.460  0.2837E-67  0.1200E+02
  -8.450  0.1731E-66  0.1200E+02
  -8.440  0.1045E-65  0.1200E+02
  -8.430  0.6239E-65  0.1200E+02
  -8.420  0.3685E-64  0.1200E+02
  -8.410  0.2153E-63  0.1200E+02
  -8.400  0.1245E-62  0.1200E+02
  -8.390  0.7118E-62  0.1200E+02
  -8.380  0.4027E-61  0.1200E+02
  -8.370  0.2253E-60  0.1200E+02
  -8.360  0.1248E-59  0.1200E+02
  -8.350  0.6832E-59  0.1200E+02
  -8.340  0.3702E-58  0.1200E+02
  -8.330  0.1984E-57  0.1200E+02
  -8.320  0.1052E-56  0.1200E+02
  -8.310  0.5517E-56  0.1200E+02
  -8.300  0.2863E-55  0.1200E+02
  -8.290  0.1469E-54  0.1200E+02
  -8.280  0.7461E-54  0.1200E+02
  -8.270  0.3748E-53  0.1200E+02
  -8.260  0.1862E-52  0.1200E+02
  -8.250  0.9155E-52  0.1200E+02
  -8.240  0.4452E-51  0.1200E+02
  -8.230  0.2142E-50  0.1200E+02
  -8.220  0.1019E-49  0.1200E+02
  -8.210  0.4798E-49  0.1200E+02
  -8.200  0.2235E-48  0.1200E+02
  -8.190  0.1030E-47  0.1200E+02
  -8.180  0.4692E-47  0.1200E+02
  -8.170  0.2116E-46  0.1200E+02
  -8.160  0.9437E-46  0.1200E+02
  -8.150  0.4164E-45  0.1200E+02
  -8.140  0.1817E-44  0.1200E+02
  -8.130  0.7848E-44  0.1200E+02
  -8.120  0.3352E-43  0.1200E+02
  -8.110  0.1417E-42  0.1200E+02
  -8.100  0.5922E-42  0.1200E+02
  -8.090  0.2449E-41  0.1200E+02
  -8.080  0.1002E-40  0.1200E+02
  -8.070  0.4054E-40  0.1200E+02
  -8.060  0.1623E-39  0.1200E+02
  -8.050  0.6429E-39  0.1200E+02
  -8.040  0.2519E-38  0.1200E+02
  -8.030  0.9762E-38  0.1200E+02
  -8.020  0.3743E-37  0.1200E+02
  -8.010  0.1420E-36  0.1200E+02
  -8.000  0.5327E-36  0.1200E+02
  -7.990  0.1977E-35  0.1200E+02
  -7.980  0.7261E-35  0.1200E+02
  -7.970  0.2637E-34  0.1200E+02
  -7.960  0.9478E-34  0.1200E+02
  -7.950  0.3369E-33  0.1200E+02
  -7.940  0.1185E-32  0.1200E+02
  -7.930  0.4122E-32  0.1200E+02
  -7.920  0.1419E-31  0.1200E+02
  -7.910  0.4830E-31  0.1200E+02
  -7.900  0.1627E-30  0.1200E+02
  -7.890  0.5419E-30  0.1200E+02
  -7.880  0.1786E-29  0.1200E+02
  -7.870  0.5824E-29  0.1200E+02
  -7.860  0.1879E-28  0.1200E+02
  -7.850  0.5994E-28  0.1200E+02
  -7.840  0.1892E-27  0.1200E+02
  -7.830  0.5908E-27  0.1200E+02
  -7.820  0.1825E-26  0.1200E+02
  -7.810  0.5577E-26  0.1200E+02
  -7.800  0.1686E-25  0.1200E+02
  -7.790  0.5042E-25  0.1200E+02
  -7.780  0.1492E-24  0.1200E+02
  -7.770  0.4366E-24  0.1200E+02
  -7.760  0.1264E-23  0.1200E+02
  -7.750  0.3620E-23  0.1200E+02
  -7.740  0.1026E-22  0.1200E+02
  -7.730  0.2875E-22  0.1200E+02
  -7.720  0.7971E-22  0.1200E+02
  -7.710  0.2186E-21  0.1200E+02
  -7.700  0.5933E-21  0.1200E+02
  -7.690  0.1592E-20  0.1200E+02
  -7.680  0.4229E-20  0.1200E+02
  -7.670  0.1111E-19  0.1200E+02
  -7.660  0.2887E-19  0.1200E+02
  -7.650  0.7421E-19  0.1200E+02
  -7.640  0.1887E-18  0.1200E+02
  -7.630  0.4748E-18  0.1200E+02
  -7.620  0.1182E-17  0.1200E+02
  -7.610  0.2909E-17  0.1200E+02
  -7.600  0.7086E-17  0.1200E+02
  -7.590  0.1707E-16  0.1200E+02
  -7.580  0.4069E-16  0.1200E+02
  -7.570  0.9595E-16  0.1200E+02
  -7.560  0.2238E-15  0.1200E+02
  -7.550  0.5164E-15  0.1200E+02
  -7.540  0.1179E-14  0.1200E+02
  -7.530  0.2662E-14  0.1200E+02
  -7.520  0.5947E-14  0.1200E+02
  -7.510  0.1314E-13  0.1200E+02
  -7.500  0.2873E-13  0.1200E+02
  -7.490  0.6214E-13  0.1200E+02
  -7.480  0.1329E-12  0.1200E+02
  -7.470  0.2813E-12  0.1200E+02
  -7.460  0.5891E-12  0.1200E+02
  -7.450  0.1220E-11  0.1200E+02
  -7.440  0.2500E-11  0.1200E+02
  -7.430  0.5067E-11  0.1200E+02
  -7.420  0.1016E-10  0.1200E+02
  -7.410  0.2015E-10  0.1200E+02
  -7.400  0.3955E-10  0.1200E+02
  -7.390  0.7677E-10  0.1200E+02
  -7.380  0.1474E-09  0.1200E+02
  -7.370  0.2801E-09  0.1200E+02
  -7.360  0.5263E-09  0.1200E+02
  -7.350  0.9785E-09  0.1200E+02
  -7.340  0.1800E-08  0.1200E+02
  -7.330  0.3274E-08  0.1200E+02
  -7.320  0.5893E-08  0.1200E+02
  -7.310  0.1049E-07  0.1200E+02
  -7.300  0.1848E-07  0.1200E+02
  -7.290  0.3220E-07  0.1200E+02
  -7.280  0.5551E-07  0.1200E+02
  -7.270  0.9466E-07  0.1200E+02
  -7.260  0.1597E-06  0.1200E+02
  -7.250  0.2665E-06  0.1200E+02
  -7.240  0.4400E-06  0.1200E+02
  -7.230  0.7186E-06  0.1200E+02
  -7.220  0.1161E-05  0.1200E+02
  -7.210  0.1856E-05  0.1200E+02
  -7.200  0.2935E-05  0.1200E+02
  -7.190  0.4591E-05  0.1200E+02
  -7.180  0.7105E-05  0.1200E+02
  -7.170  0.1088E-04  0.1200E+02
  -7.160  0.1648E-04  0.1200E+02
  -7.150  0.2469E-04  0.1200E+02
  -7.140  0.3661E-04  0.1200E+02
  -7.130  0.5369E-04  0.1200E+02
  -7.120  0.7791E-04  0.1200E+02
  -7.110  0.1119E-03  0.1200E+02
  -7.100  0.1589E-03  0.1200E+02
  -7.090  0.2233E-03  0.1200E+02
  -7.080  0.3106E-03  0.1200E+02
  -7.070  0.4273E-03  0.1200E+02
  -7.060  0.5819E-03  0.1200E+02
  -7.050  0.7840E-03  0.1200E+02
  -7.040  0.1045E-02  0.1200E+02
  -7.030  0.1380E-02  0.1200E+02
  -7.020  0.1802E-02  0.1200E+02
  -7.010  0.2330E-02  0.1200E+02
  -7.000  0.2982E-02  0.1200E+02
  -6.990  0.3778E-02  0.1200E+02
  -6.980  0.4740E-02  0.1200E+02
  -6.970  0.5891E-02  0.1200E+02
  -6.960  0.7251E-02  0.1200E+02
  -6.950  0.8842E-02  0.1200E+02
  -6.940  0.1069E-01  0.1200E+02
  -6.930  0.1280E-01  0.1200E+02
  -6.920  0.1521E-01  0.1200E+02
  -6.910  0.1792E-01  0.1200E+02
  -6.900  0.2096E-01  0.1200E+02
  -6.890  0.2434E-01  0.1200E+02
  -6.880  0.2807E-01  0.1200E+02
  -6.870  0.3219E-01  0.1200E+02
  -6.860  0.3670E-01  0.1200E+02
  -6.850  0.4164E-01  0.1200E+02
  -6.840  0.4705E-01  0.1200E+02
  -6.830  0.5298E-01  0.1200E+02
  -6.820  0.5947E-01  0.1200E+02
  -6.810  0.6660E-01  0.1201E+02
  -6.800  0.7445E-01  0.1201E+02
  -6.790  0.8309E-01  0.1201E+02
  -6.780  0.9262E-01  0.1201E+02
  -6.770  0.1031E+00  0.1201E+02
  -6.760  0.1147E+00  0.1201E+02
  -6.750  0.1275E+00  0.1201E+02
  -6.740  0.1415E+00  0.1201E+02
  -6.730  0.1569E+00  0.1201E+02
  -6.720  0.1735E+00  0.1202E+02
  -6.710  0.1916E+00  0.1202E+02
  -6.700  0.2110E+00  0.1202E+02
  -6.690  0.2318E+00  0.1202E+02
  -6.680  0.2537E+00  0.1202E+02
  -6.670  0.2769E+00  0.1203E+02
  -6.660  0.3010E+00  0.1203E+02
  -6.650  0.3260E+00  0.1203E+02
  -6.640  0.3516E+00  0.1204E+02
  -6.630  0.3776E+00  0.1204E+02
  -6.620  0.4039E+00  0.1205E+02
  -6.610  0.4300E+00  0.1205E+02
  -6.600  0.4558E+00  0.1205E+02
  -6.590  0.4810E+00  0.1206E+02
  -6.580  0.5052E+00  0.1206E+02
  -6.570  0.5280E+00  0.1207E+02
  -6.560  0.5492E+00  0.1207E+02
  -6.550  0.5684E+00  0.1208E+02
  -6.540  0.5853E+00  0.1209E+02
  -6.530  0.5995E+00  0.1209E+02
  -6.520  0.6107E+00  0.1210E+02
  -6.510  0.6187E+00  0.1210E+02
  -6.500  0.6233E+00  0.1211E+02
  -6.490  0.6243E+00  0.1212E+02
  -6.480  0.6218E+00  0.1212E+02
  -6.470  0.6158E+00  0.1213E+02
  -6.460  0.6066E+00  0.1214E+02
  -6.450  0.5945E+00  0.1214E+02
  -6.440  0.5800E+00  0.1215E+02
  -6.430  0.5637E+00  0.1215E+02
  -6.420  0.5463E+00  0.1216E+02
  -6.410  0.5288E+00  0.1216E+02
  -6.400  0.5120E+00  0.1217E+02
  -6.390  0.4969E+00  0.1217E+02
  -6.380  0.4845E+00  0.1218E+02
  -6.370  0.4757E+00  0.1218E+02
  -6.360  0.4714E+00  0.1219E+02
  -6.350  0.4726E+00  0.1219E+02
  -6.340  0.4799E+00  0.1220E+02
  -6.330  0.4940E+00  0.1220E+02
  -6.320  0.5152E+00  0.1221E+02
  -6.310  0.5438E+00  0.1221E+02
  -6.300  0.5799E+00  0.1222E+02
  -6.290  0.6233E+00  0.1222E+02
  -6.280  0.6737E+00  0.1223E+02
  -6.270  0.7306E+00  0.1224E+02
  -6.260  0.7932E+00  0.1225E+02
  -6.250  0.8608E+00  0.1226E+02
  -6.240  0.9322E+00  0.1226E+02
  -6.230  0.1006E+01  0.1227E+02
  -6.220  0.1082E+01  0.1229E+02
  -6.210  0.1159E+01  0.1230E+02
  -6.200  0.1234E+01  0.1231E+02
  -6.190  0.1308E+01  0.1232E+02
  -6.180  0.1378E+01  0.1234E+02
  -6.170  0.1445E+01  0.1235E+02
  -6.160  0.1507E+01  0.1237E+02
  -6.150  0.1563E+01  0.1238E+02
  -6.140  0.1615E+01  0.1240E+02
  -6.130  0.1660E+01  0.1241E+02
  -6.120  0.1701E+01  0.1243E+02
  -6.110  0.1736E+01  0.1245E+02
  -6.100  0.1768E+01  0.1247E+02
  -6.090  0.1796E+01  0.1248E+02
  -6.080  0.1821E+01  0.1250E+02
  -6.070  0.1846E+01  0.1252E+02
  -6.060  0.1872E+01  0.1254E+02
  -6.050  0.1899E+01  0.1256E+02
  -6.040  0.1929E+01  0.1258E+02
  -6.030  0.1963E+01  0.1260E+02
  -6.020  0.2004E+01  0.1262E+02
  -6.010  0.2051E+01  0.1264E+02
  -6.000  0.2106E+01  0.1266E+02
  -5.990  0.2170E+01  0.1268E+02
  -5.980  0.2243E+01  0.1270E+02
  -5.970  0.2325E+01  0.1273E+02
  -5.960  0.2417E+01  0.1275E+02
  -5.950  0.2517E+01  0.1278E+02
  -5.940  0.2627E+01  0.1280E+02
  -5.930  0.2743E+01  0.1283E+02
  -5.920  0.2866E+01  0.1286E+02
  -5.910  0.2994E+01  0.1289E+02
  -5.900  0.3124E+01  0.1292E+02
  -5.890  0.3255E+01  0.1295E+02
  -5.880  0.3384E+01  0.1299E+02
  -5.870  0.3509E+01  0.1302E+02
  -5.860  0.3628E+01  0.1306E+02
  -5.850  0.3738E+01  0.1309E+02
  -5.840  0.3837E+01  0.1313E+02
  -5.830  0.3922E+01  0.1317E+02
  -5.820  0.3991E+01  0.1321E+02
  -5.810  0.4043E+01  0.1325E+02
  -5.800  0.4076E+01  0.1329E+02
  -5.790  0.4088E+01  0.1333E+02
  -5.780  0.4079E+01  0.1338E+02
  -5.770  0.4048E+01  0.1342E+02
  -5.760  0.3995E+01  0.1346E+02
  -5.750  0.3922E+01  0.1349E+02
  -5.740  0.3828E+01  0.1353E+02
  -5.730  0.3715E+01  0.1357E+02
  -5.720  0.3585E+01  0.1361E+02
  -5.710  0.3440E+01  0.1364E+02
  -5.700  0.3281E+01  0.1367E+02
  -5.690  0.3113E+01  0.1370E+02
  -5.680  0.2936E+01  0.1373E+02
  -5.670  0.2754E+01  0.1376E+02
  -5.660  0.2571E+01  0.1379E+02
  -5.650  0.2387E+01  0.1381E+02
  -5.640  0.2207E+01  0.1383E+02
  -5.630  0.2031E+01  0.1385E+02
  -5.620  0.1863E+01  0.1387E+02
  -5.610  0.1703E+01  0.1389E+02
  -5.600  0.1553E+01  0.1390E+02
  -5.590  0.1413E+01  0.1392E+02
  -5.580  0.1285E+01  0.1393E+02
  -5.570  0.1167E+01  0.1394E+02
  -5.560  0.1060E+01  0.1395E+02
  -5.550  0.9639E+00  0.1396E+02
  -5.540  0.8769E+00  0.1397E+02
  -5.530  0.7985E+00  0.1398E+02
  -5.520  0.7278E+00  0.1399E+02
  -5.510  0.6639E+00  0.1399E+02
  -5.500  0.6057E+00  0.1400E+02
  -5.490  0.5526E+00  0.1401E+02
  -5.480  0.5037E+00  0.1401E+02
  -5.470  0.4585E+00  0.1402E+02
  -5.460  0.4167E+00  0.1402E+02
  -5.450  0.3778E+00  0.1402E+02
  -5.440  0.3419E+00  0.1403E+02
  -5.430  0.3088E+00  0.1403E+02
  -5.420  0.2787E+00  0.1403E+02
  -5.410  0.2516E+00  0.1403E+02
  -5.400  0.2279E+00  0.1404E+02
  -5.390  0.2078E+00  0.1404E+02
  -5.380  0.1914E+00  0.1404E+02
  -5.370  0.1790E+00  0.1404E+02
  -5.360  0.1709E+00  0.1404E+02
  -5.350  0.1671E+00  0.1405E+02
  -5.340  0.1677E+00  0.1405E+02
  -5.330  0.1728E+00  0.1405E+02
  -5.320  0.1824E+00  0.1405E+02
  -5.310  0.1965E+00  0.1405E+02
  -5.300  0.2147E+00  0.1406E+02
  -5.290  0.2371E+00  0.1406E+02
  -5.280  0.2633E+00  0.1406E+02
  -5.270  0.2931E+00  0.1406E+02
  -5.260  0.3261E+00  0.1407E+02
  -5.250  0.3619E+00  0.1407E+02
  -5.240  0.4001E+00  0.1407E+02
  -5.230  0.4405E+00  0.1408E+02
  -5.220  0.4826E+00  0.1408E+02
  -5.210  0.5260E+00  0.1409E+02
  -5.200  0.5704E+00  0.1409E+02
  -5.190  0.6157E+00  0.1410E+02
  -5.180  0.6615E+00  0.1411E+02
  -5.170  0.7078E+00  0.1411E+02
  -5.160  0.7544E+00  0.1412E+02
  -5.150  0.8014E+00  0.1413E+02
  -5.140  0.8487E+00  0.1414E+02
  -5.130  0.8965E+00  0.1415E+02
  -5.120  0.9447E+00  0.1416E+02
  -5.110  0.9935E+00  0.1417E+02
  -5.100  0.1043E+01  0.1418E+02
  -5.090  0.1093E+01  0.1419E+02
  -5.080  0.1143E+01  0.1420E+02
  -5.070  0.1194E+01  0.1421E+02
  -5.060  0.1245E+01  0.1422E+02
  -5.050  0.1296E+01  0.1424E+02
  -5.040  0.1346E+01  0.1425E+02
  -5.030  0.1395E+01  0.1426E+02
  -5.020  0.1443E+01  0.1428E+02
  -5.010  0.1489E+01  0.1429E+02
  -5.000  0.1533E+01  0.1431E+02
  -4.990  0.1575E+01  0.1432E+02
  -4.980  0.1614E+01  0.1434E+02
  -4.970  0.1652E+01  0.1436E+02
  -4.960  0.1687E+01  0.1437E+02
  -4.950  0.1722E+01  0.1439E+02
  -4.940  0.1757E+01  0.1441E+02
  -4.930  0.1793E+01  0.1443E+02
  -4.920  0.1831E+01  0.1445E+02
  -4.910  0.1874E+01  0.1446E+02
  -4.900  0.1922E+01  0.1448E+02
  -4.890  0.1977E+01  0.1450E+02
  -4.880  0.2041E+01  0.1452E+02
  -4.870  0.2115E+01  0.1454E+02
  -4.860  0.2199E+01  0.1457E+02
  -4.850  0.2294E+01  0.1459E+02
  -4.840  0.2400E+01  0.1461E+02
  -4.830  0.2515E+01  0.1464E+02
  -4.820  0.2640E+01  0.1467E+02
  -4.810  0.2770E+01  0.1469E+02
  -4.800  0.2905E+01  0.1472E+02
  -4.790  0.3040E+01  0.1475E+02
  -4.780  0.3172E+01  0.1478E+02
  -4.770  0.3298E+01  0.1482E+02
  -4.760  0.3413E+01  0.1485E+02
  -4.750  0.3514E+01  0.1489E+02
  -4.740  0.3598E+01  0.1492E+02
  -4.730  0.3661E+01  0.1496E+02
  -4.720  0.3701E+01  0.1500E+02
  -4.710  0.3717E+01  0.1503E+02
  -4.700  0.3708E+01  0.1507E+02
  -4.690  0.3674E+01  0.1511E+02
  -4.680  0.3617E+01  0.1514E+02
  -4.670  0.3537E+01  0.1518E+02
  -4.660  0.3438E+01  0.1521E+02
  -4.650  0.3322E+01  0.1525E+02
  -4.640  0.3193E+01  0.1528E+02
  -4.630  0.3054E+01  0.1531E+02
  -4.620  0.2909E+01  0.1534E+02
  -4.610  0.2761E+01  0.1537E+02
  -4.600  0.2614E+01  0.1539E+02
  -4.590  0.2470E+01  0.1542E+02
  -4.580  0.2333E+01  0.1544E+02
  -4.570  0.2203E+01  0.1546E+02
  -4.560  0.2083E+01  0.1548E+02
  -4.550  0.1974E+01  0.1550E+02
  -4.540  0.1876E+01  0.1552E+02
  -4.530  0.1790E+01  0.1554E+02
  -4.520  0.1714E+01  0.1556E+02
  -4.510  0.1649E+01  0.1557E+02
  -4.500  0.1593E+01  0.1559E+02
  -4.490  0.1546E+01  0.1560E+02
  -4.480  0.1507E+01  0.1562E+02
  -4.470  0.1473E+01  0.1563E+02
  -4.460  0.1443E+01  0.1565E+02
  -4.450  0.1417E+01  0.1566E+02
  -4.440  0.1393E+01  0.1568E+02
  -4.430  0.1369E+01  0.1569E+02
  -4.420  0.1345E+01  0.1570E+02
  -4.410  0.1320E+01  0.1572E+02
  -4.400  0.1293E+01  0.1573E+02
  -4.390  0.1263E+01  0.1574E+02
  -4.380  0.1231E+01  0.1575E+02
  -4.370  0.1196E+01  0.1577E+02
  -4.360  0.1158E+01  0.1578E+02
  -4.350  0.1118E+01  0.1579E+02
  -4.340  0.1076E+01  0.1580E+02
  -4.330  0.1033E+01  0.1581E+02
  -4.320  0.9891E+00  0.1582E+02
  -4.310  0.9455E+00  0.1583E+02
  -4.300  0.9027E+00  0.1584E+02
  -4.290  0.8613E+00  0.1585E+02
  -4.280  0.8219E+00  0.1586E+02
  -4.270  0.7849E+00  0.1586E+02
  -4.260  0.7508E+00  0.1587E+02
  -4.250  0.7199E+00  0.1588E+02
  -4.240  0.6923E+00  0.1588E+02
  -4.230  0.6683E+00  0.1589E+02
  -4.220  0.6480E+00  0.1590E+02
  -4.210  0.6313E+00  0.1590E+02
  -4.200  0.6185E+00  0.1591E+02
  -4.190  0.6096E+00  0.1592E+02
  -4.180  0.6046E+00  0.1592E+02
  -4.170  0.6039E+00  0.1593E+02
  -4.160  0.6075E+00  0.1593E+02
  -4.150  0.6159E+00  0.1594E+02
  -4.140  0.6292E+00  0.1595E+02
  -4.130  0.6478E+00  0.1595E+02
  -4.120  0.6720E+00  0.1596E+02
  -4.110  0.7023E+00  0.1597E+02
  -4.100  0.7389E+00  0.1597E+02
  -4.090  0.7822E+00  0.1598E+02
  -4.080  0.8324E+00  0.1599E+02
  -4.070  0.8896E+00  0.1600E+02
  -4.060  0.9540E+00  0.1601E+02
  -4.050  0.1025E+01  0.1602E+02
  -4.040  0.1104E+01  0.1603E+02
  -4.030  0.1189E+01  0.1604E+02
  -4.020  0.1280E+01  0.1606E+02
  -4.010  0.1376E+01  0.1607E+02
  -4.000  0.1477E+01  0.1608E+02
  -3.990  0.1581E+01  0.1610E+02
  -3.980  0.1688E+01  0.1612E+02
  -3.970  0.1796E+01  0.1613E+02
  -3.960  0.1904E+01  0.1615E+02
  -3.950  0.2010E+01  0.1617E+02
  -3.940  0.2114E+01  0.1619E+02
  -3.930  0.2213E+01  0.1622E+02
  -3.920  0.2306E+01  0.1624E+02
  -3.910  0.2393E+01  0.1626E+02
  -3.900  0.2472E+01  0.1629E+02
  -3.890  0.2544E+01  0.1631E+02
  -3.880  0.2606E+01  0.1634E+02
  -3.870  0.2660E+01  0.1637E+02
  -3.860  0.2707E+01  0.1639E+02
  -3.850  0.2745E+01  0.1642E+02
  -3.840  0.2777E+01  0.1645E+02
  -3.830  0.2803E+01  0.1648E+02
  -3.820  0.2824E+01  0.1651E+02
  -3.810  0.2841E+01  0.1653E+02
  -3.800  0.2855E+01  0.1656E+02
  -3.790  0.2868E+01  0.1659E+02
  -3.780  0.2879E+01  0.1662E+02
  -3.770  0.2889E+01  0.1665E+02
  -3.760  0.2898E+01  0.1668E+02
  -3.750  0.2906E+01  0.1671E+02
  -3.740  0.2912E+01  0.1674E+02
  -3.730  0.2915E+01  0.1676E+02
  -3.720  0.2914E+01  0.1679E+02
  -3.710  0.2909E+01  0.1682E+02
  -3.700  0.2898E+01  0.1685E+02
  -3.690  0.2880E+01  0.1688E+02
  -3.680  0.2855E+01  0.1691E+02
  -3.670  0.2822E+01  0.1694E+02
  -3.660  0.2782E+01  0.1697E+02
  -3.650  0.2733E+01  0.1699E+02
  -3.640  0.2677E+01  0.1702E+02
  -3.630  0.2615E+01  0.1705E+02
  -3.620  0.2547E+01  0.1707E+02
  -3.610  0.2476E+01  0.1710E+02
  -3.600  0.2403E+01  0.1712E+02
  -3.590  0.2329E+01  0.1714E+02
  -3.580  0.2256E+01  0.1717E+02
  -3.570  0.2185E+01  0.1719E+02
  -3.560  0.2119E+01  0.1721E+02
  -3.550  0.2058E+01  0.1723E+02
  -3.540  0.2003E+01  0.1725E+02
  -3.530  0.1955E+01  0.1727E+02
  -3.520  0.1913E+01  0.1729E+02
  -3.510  0.1878E+01  0.1731E+02
  -3.500  0.1850E+01  0.1733E+02
  -3.490  0.1827E+01  0.1734E+02
  -3.480  0.1809E+01  0.1736E+02
  -3.470  0.1794E+01  0.1738E+02
  -3.460  0.1782E+01  0.1740E+02
  -3.450  0.1771E+01  0.1742E+02
  -3.440  0.1760E+01  0.1743E+02
  -3.430  0.1747E+01  0.1745E+02
  -3.420  0.1732E+01  0.1747E+02
  -3.410  0.1714E+01  0.1748E+02
  -3.400  0.1693E+01  0.1750E+02
  -3.390  0.1667E+01  0.1752E+02
  -3.380  0.1637E+01  0.1753E+02
  -3.370  0.1604E+01  0.1755E+02
  -3.360  0.1567E+01  0.1757E+02
  -3.350  0.1529E+01  0.1758E+02
  -3.340  0.1489E+01  0.1760E+02
  -3.330  0.1449E+01  0.1761E+02
  -3.320  0.1410E+01  0.1763E+02
  -3.310  0.1374E+01  0.1764E+02
  -3.300  0.1341E+01  0.1765E+02
  -3.290  0.1313E+01  0.1767E+02
  -3.280  0.1290E+01  0.1768E+02
  -3.270  0.1273E+01  0.1769E+02
  -3.260  0.1262E+01  0.1770E+02
  -3.250  0.1257E+01  0.1772E+02
  -3.240  0.1258E+01  0.1773E+02
  -3.230  0.1265E+01  0.1774E+02
  -3.220  0.1277E+01  0.1775E+02
  -3.210  0.1295E+01  0.1777E+02
  -3.200  0.1319E+01  0.1778E+02
  -3.190  0.1348E+01  0.1779E+02
  -3.180  0.1384E+01  0.1781E+02
  -3.170  0.1427E+01  0.1782E+02
  -3.160  0.1478E+01  0.1784E+02
  -3.150  0.1540E+01  0.1785E+02
  -3.140  0.1615E+01  0.1787E+02
  -3.130  0.1705E+01  0.1789E+02
  -3.120  0.1814E+01  0.1790E+02
  -3.110  0.1944E+01  0.1792E+02
  -3.100  0.2098E+01  0.1794E+02
  -3.090  0.2280E+01  0.1797E+02
  -3.080  0.2492E+01  0.1799E+02
  -3.070  0.2736E+01  0.1802E+02
  -3.060  0.3014E+01  0.1805E+02
  -3.050  0.3326E+01  0.1808E+02
  -3.040  0.3671E+01  0.1812E+02
  -3.030  0.4048E+01  0.1816E+02
  -3.020  0.4455E+01  0.1820E+02
  -3.010  0.4887E+01  0.1825E+02
  -3.000  0.5339E+01  0.1831E+02
  -2.990  0.5806E+01  0.1836E+02
  -2.980  0.6279E+01  0.1843E+02
  -2.970  0.6752E+01  0.1849E+02
  -2.960  0.7215E+01  0.1857E+02
  -2.950  0.7662E+01  0.1864E+02
  -2.940  0.8083E+01  0.1872E+02
  -2.930  0.8472E+01  0.1881E+02
  -2.920  0.8820E+01  0.1890E+02
  -2.910  0.9123E+01  0.1899E+02
  -2.900  0.9376E+01  0.1908E+02
  -2.890  0.9575E+01  0.1918E+02
  -2.880  0.9719E+01  0.1928E+02
  -2.870  0.9809E+01  0.1937E+02
  -2.860  0.9844E+01  0.1947E+02
  -2.850  0.9830E+01  0.1957E+02
  -2.840  0.9768E+01  0.1967E+02
  -2.830  0.9666E+01  0.1976E+02
  -2.820  0.9527E+01  0.1986E+02
  -2.810  0.9360E+01  0.1995E+02
  -2.800  0.9169E+01  0.2005E+02
  -2.790  0.8963E+01  0.2013E+02
  -2.780  0.8745E+01  0.2022E+02
  -2.770  0.8522E+01  0.2031E+02
  -2.760  0.8299E+01  0.2039E+02
  -2.750  0.8079E+01  0.2047E+02
  -2.740  0.7866E+01  0.2055E+02
  -2.730  0.7661E+01  0.2063E+02
  -2.720  0.7466E+01  0.2070E+02
  -2.710  0.7282E+01  0.2077E+02
  -2.700  0.7110E+01  0.2084E+02
  -2.690  0.6948E+01  0.2091E+02
  -2.680  0.6797E+01  0.2098E+02
  -2.670  0.6657E+01  0.2105E+02
  -2.660  0.6527E+01  0.2111E+02
  -2.650  0.6406E+01  0.2118E+02
  -2.640  0.6295E+01  0.2124E+02
  -2.630  0.6193E+01  0.2130E+02
  -2.620  0.6100E+01  0.2136E+02
  -2.610  0.6017E+01  0.2142E+02
  -2.600  0.5945E+01  0.2148E+02
  -2.590  0.5883E+01  0.2154E+02
  -2.580  0.5832E+01  0.2160E+02
  -2.570  0.5792E+01  0.2166E+02
  -2.560  0.5764E+01  0.2172E+02
  -2.550  0.5748E+01  0.2177E+02
  -2.540  0.5743E+01  0.2183E+02
  -2.530  0.5749E+01  0.2189E+02
  -2.520  0.5765E+01  0.2195E+02
  -2.510  0.5789E+01  0.2200E+02
  -2.500  0.5820E+01  0.2206E+02
  -2.490  0.5856E+01  0.2212E+02
  -2.480  0.5895E+01  0.2218E+02
  -2.470  0.5935E+01  0.2224E+02
  -2.460  0.5973E+01  0.2230E+02
  -2.450  0.6006E+01  0.2236E+02
  -2.440  0.6032E+01  0.2242E+02
  -2.430  0.6048E+01  0.2248E+02
  -2.420  0.6053E+01  0.2254E+02
  -2.410  0.6044E+01  0.2260E+02
  -2.400  0.6020E+01  0.2266E+02
  -2.390  0.5979E+01  0.2272E+02
  -2.380  0.5922E+01  0.2278E+02
  -2.370  0.5849E+01  0.2284E+02
  -2.360  0.5759E+01  0.2290E+02
  -2.350  0.5654E+01  0.2295E+02
  -2.340  0.5535E+01  0.2301E+02
  -2.330  0.5404E+01  0.2306E+02
  -2.320  0.5262E+01  0.2311E+02
  -2.310  0.5113E+01  0.2317E+02
  -2.300  0.4956E+01  0.2322E+02
  -2.290  0.4796E+01  0.2326E+02
  -2.280  0.4632E+01  0.2331E+02
  -2.270  0.4468E+01  0.2335E+02
  -2.260  0.4302E+01  0.2340E+02
  -2.250  0.4138E+01  0.2344E+02
  -2.240  0.3974E+01  0.2348E+02
  -2.230  0.3812E+01  0.2352E+02
  -2.220  0.3651E+01  0.2355E+02
  -2.210  0.3491E+01  0.2359E+02
  -2.200  0.3332E+01  0.2362E+02
  -2.190  0.3174E+01  0.2365E+02
  -2.180  0.3015E+01  0.2368E+02
  -2.170  0.2857E+01  0.2371E+02
  -2.160  0.2698E+01  0.2374E+02
  -2.150  0.2540E+01  0.2376E+02
  -2.140  0.2381E+01  0.2379E+02
  -2.130  0.2223E+01  0.2381E+02
  -2.120  0.2067E+01  0.2383E+02
  -2.110  0.1912E+01  0.2385E+02
  -2.100  0.1760E+01  0.2387E+02
  -2.090  0.1611E+01  0.2388E+02
  -2.080  0.1467E+01  0.2390E+02
  -2.070  0.1328E+01  0.2391E+02
  -2.060  0.1195E+01  0.2392E+02
  -2.050  0.1068E+01  0.2393E+02
  -2.040  0.9497E+00  0.2394E+02
  -2.030  0.8389E+00  0.2395E+02
  -2.020  0.7362E+00  0.2396E+02
  -2.010  0.6420E+00  0.2397E+02
  -2.000  0.5561E+00  0.2397E+02
  -1.990  0.4786E+00  0.2398E+02
  -1.980  0.4091E+00  0.2398E+02
  -1.970  0.3474E+00  0.2398E+02
  -1.960  0.2930E+00  0.2399E+02
  -1.950  0.2455E+00  0.2399E+02
  -1.940  0.2043E+00  0.2399E+02
  -1.930  0.1689E+00  0.2399E+02
  -1.920  0.1386E+00  0.2399E+02
  -1.910  0.1131E+00  0.2400E+02
  -1.900  0.9156E-01  0.2400E+02
  -1.890  0.7364E-01  0.2400E+02
  -1.880  0.5882E-01  0.2400E+02
  -1.870  0.4665E-01  0.2400E+02
  -1.860  0.3674E-01  0.2400E+02
  -1.850  0.2873E-01  0.2400E+02
  -1.840  0.2231E-01  0.2400E+02
  -1.830  0.1719E-01  0.2400E+02
  -1.820  0.1315E-01  0.2400E+02
  -1.810  0.9985E-02  0.2400E+02
  -1.800  0.7523E-02  0.2400E+02
  -1.790  0.5624E-02  0.2400E+02
  -1.780  0.4171E-02  0.2400E+02
  -1.770  0.3069E-02  0.2400E+02
  -1.760  0.2239E-02  0.2400E+02
  -1.750  0.1620E-02  0.2400E+02
  -1.740  0.1163E-02  0.2400E+02
  -1.730  0.8269E-03  0.2400E+02
  -1.720  0.5830E-03  0.2400E+02
  -1.710  0.4074E-03  0.2400E+02
  -1.700  0.2821E-03  0.2400E+02
  -1.690  0.1936E-03  0.2400E+02
  -1.680  0.1316E-03  0.2400E+02
  -1.670  0.8863E-04  0.2400E+02
  -1.660  0.5912E-04  0.2400E+02
  -1.650  0.3906E-04  0.2400E+02
  -1.640  0.2555E-04  0.2400E+02
  -1.630  0.1656E-04  0.2400E+02
  -1.620  0.1062E-04  0.2400E+02
  -1.610  0.6746E-05  0.2400E+02
  -1.600  0.4242E-05  0.2400E+02
  -1.590  0.2640E-05  0.2400E+02
  -1.580  0.1627E-05  0.2400E+02
  -1.570  0.9921E-06  0.2400E+02
  -1.560  0.5989E-06  0.2400E+02
  -1.550  0.3578E-06  0.2400E+02
  -1.540  0.2116E-06  0.2400E+02
  -1.530  0.1238E-06  0.2400E+02
  -1.520  0.7168E-07  0.2400E+02
  -1.510  0.4108E-07  0.2400E+02
  -1.500  0.2329E-07  0.2400E+02
  -1.490  0.1307E-07  0.2400E+02
  -1.480  0.7255E-08  0.2400E+02
  -1.470  0.3986E-08  0.2400E+02
  -1.460  0.2166E-08  0.2400E+02
  -1.450  0.1165E-08  0.2400E+02
  -1.440  0.6200E-09  0.2400E+02
  -1.430  0.3264E-09  0.2400E+02
  -1.420  0.1700E-09  0.2400E+02
  -1.410  0.8766E-10  0.2400E+02
  -1.400  0.4478E-10  0.2400E+02
  -1.390  0.2277E-10  0.2400E+02
  -1.380  0.1175E-10  0.2400E+02
  -1.370  0.6630E-11  0.2400E+02
  -1.360  0.4989E-11  0.2400E+02
  -1.350  0.6072E-11  0.2400E+02
  -1.340  0.1048E-10  0.2400E+02
  -1.330  0.2050E-10  0.2400E+02
  -1.320  0.4113E-10  0.2400E+02
  -1.310  0.8239E-10  0.2400E+02
  -1.300  0.1637E-09  0.2400E+02
  -1.290  0.3223E-09  0.2400E+02
  -1.280  0.6281E-09  0.2400E+02
  -1.270  0.1212E-08  0.2400E+02
  -1.260  0.2315E-08  0.2400E+02
  -1.250  0.4380E-08  0.2400E+02
  -1.240  0.8203E-08  0.2400E+02
  -1.230  0.1521E-07  0.2400E+02
  -1.220  0.2794E-07  0.2400E+02
  -1.210  0.5080E-07  0.2400E+02
  -1.200  0.9146E-07  0.2400E+02
  -1.190  0.1631E-06  0.2400E+02
  -1.180  0.2879E-06  0.2400E+02
  -1.170  0.5034E-06  0.2400E+02
  -1.160  0.8716E-06  0.2400E+02
  -1.150  0.1494E-05  0.2400E+02
  -1.140  0.2538E-05  0.2400E+02
  -1.130  0.4268E-05  0.2400E+02
  -1.120  0.7108E-05  0.2400E+02
  -1.110  0.1172E-04  0.2400E+02
  -1.100  0.1915E-04  0.2400E+02
  -1.090  0.3099E-04  0.2400E+02
  -1.080  0.4966E-04  0.2400E+02
  -1.070  0.7882E-04  0.2400E+02
  -1.060  0.1239E-03  0.2400E+02
  -1.050  0.1929E-03  0.2400E+02
  -1.040  0.2975E-03  0.2400E+02
  -1.030  0.4544E-03  0.2400E+02
  -1.020  0.6876E-03  0.2400E+02
  -1.010  0.1030E-02  0.2400E+02
  -1.000  0.1530E-02  0.2400E+02
  -0.990  0.2249E-02  0.2400E+02
  -0.980  0.3276E-02  0.2400E+02
  -0.970  0.4726E-02  0.2400E+02
  -0.960  0.6755E-02  0.2400E+02
  -0.950  0.9563E-02  0.2400E+02
  -0.940  0.1341E-01  0.2400E+02
  -0.930  0.1863E-01  0.2400E+02
  -0.920  0.2565E-01  0.2400E+02
  -0.910  0.3497E-01  0.2400E+02
  -0.900  0.4725E-01  0.2400E+02
  -0.890  0.6324E-01  0.2400E+02
  -0.880  0.8386E-01  0.2400E+02
  -0.870  0.1102E+00  0.2400E+02
  -0.860  0.1434E+00  0.2401E+02
  -0.850  0.1851E+00  0.2401E+02
  -0.840  0.2366E+00  0.2401E+02
  -0.830  0.2997E+00  0.2401E+02
  -0.820  0.3762E+00  0.2402E+02
  -0.810  0.4682E+00  0.2402E+02
  -0.800  0.5774E+00  0.2403E+02
  -0.790  0.7058E+00  0.2403E+02
  -0.780  0.8553E+00  0.2404E+02
  -0.770  0.1027E+01  0.2405E+02
  -0.760  0.1224E+01  0.2407E+02
  -0.750  0.1445E+01  0.2408E+02
  -0.740  0.1692E+01  0.2410E+02
  -0.730  0.1965E+01  0.2412E+02
  -0.720  0.2264E+01  0.2414E+02
  -0.710  0.2586E+01  0.2416E+02
  -0.700  0.2931E+01  0.2419E+02
  -0.690  0.3295E+01  0.2423E+02
  -0.680  0.3676E+01  0.2426E+02
  -0.670  0.4070E+01  0.2430E+02
  -0.660  0.4472E+01  0.2435E+02
  -0.650  0.4877E+01  0.2440E+02
  -0.640  0.5281E+01  0.2445E+02
  -0.630  0.5677E+01  0.2451E+02
  -0.620  0.6060E+01  0.2457E+02
  -0.610  0.6425E+01  0.2463E+02
  -0.600  0.6767E+01  0.2470E+02
  -0.590  0.7081E+01  0.2477E+02
  -0.580  0.7362E+01  0.2484E+02
  -0.570  0.7607E+01  0.2492E+02
  -0.560  0.7814E+01  0.2500E+02
  -0.550  0.7981E+01  0.2508E+02
  -0.540  0.8106E+01  0.2516E+02
  -0.530  0.8190E+01  0.2524E+02
  -0.520  0.8235E+01  0.2532E+02
  -0.510  0.8241E+01  0.2541E+02
  -0.500  0.8212E+01  0.2549E+02
  -0.490  0.8151E+01  0.2557E+02
  -0.480  0.8063E+01  0.2565E+02
  -0.470  0.7952E+01  0.2573E+02
  -0.460  0.7824E+01  0.2581E+02
  -0.450  0.7684E+01  0.2589E+02
  -0.440  0.7538E+01  0.2596E+02
  -0.430  0.7390E+01  0.2603E+02
  -0.420  0.7246E+01  0.2611E+02
  -0.410  0.7110E+01  0.2618E+02
  -0.400  0.6986E+01  0.2625E+02
  -0.390  0.6877E+01  0.2632E+02
  -0.380  0.6785E+01  0.2638E+02
  -0.370  0.6712E+01  0.2645E+02
  -0.360  0.6658E+01  0.2652E+02
  -0.350  0.6624E+01  0.2658E+02
  -0.340  0.6608E+01  0.2665E+02
  -0.330  0.6608E+01  0.2672E+02
  -0.320  0.6622E+01  0.2678E+02
  -0.310  0.6648E+01  0.2685E+02
  -0.300  0.6683E+01  0.2692E+02
  -0.290  0.6725E+01  0.2698E+02
  -0.280  0.6769E+01  0.2705E+02
  -0.270  0.6815E+01  0.2712E+02
  -0.260  0.6859E+01  0.2719E+02
  -0.250  0.6900E+01  0.2726E+02
  -0.240  0.6937E+01  0.2733E+02
  -0.230  0.6969E+01  0.2740E+02
  -0.220  0.6996E+01  0.2747E+02
  -0.210  0.7019E+01  0.2754E+02
  -0.200  0.7037E+01  0.2761E+02
  -0.190  0.7051E+01  0.2768E+02
  -0.180  0.7064E+01  0.2775E+02
  -0.170  0.7075E+01  0.2782E+02
  -0.160  0.7087E+01  0.2789E+02
  -0.150  0.7100E+01  0.2796E+02
  -0.140  0.7115E+01  0.2803E+02
  -0.130  0.7131E+01  0.2810E+02
  -0.120  0.7150E+01  0.2817E+02
  -0.110  0.7171E+01  0.2825E+02
  -0.100  0.7192E+01  0.2832E+02
  -0.090  0.7212E+01  0.2839E+02
  -0.080  0.7229E+01  0.2846E+02
  -0.070  0.7241E+01  0.2853E+02
  -0.060  0.7246E+01  0.2861E+02
  -0.050  0.7241E+01  0.2868E+02
  -0.040  0.7224E+01  0.2875E+02
  -0.030  0.7192E+01  0.2882E+02
  -0.020  0.7145E+01  0.2889E+02
  -0.010  0.7081E+01  0.2897E+02
  -0.000  0.6998E+01  0.2904E+02
   0.010  0.6898E+01  0.2910E+02
   0.020  0.6781E+01  0.2917E+02
   0.030  0.6650E+01  0.2924E+02
   0.040  0.6505E+01  0.2930E+02
   0.050  0.6350E+01  0.2937E+02
   0.060  0.6190E+01  0.2943E+02
   0.070  0.6027E+01  0.2949E+02
   0.080  0.5867E+01  0.2955E+02
   0.090  0.5714E+01  0.2961E+02
   0.100  0.5571E+01  0.2966E+02
   0.110  0.5444E+01  0.2972E+02
   0.120  0.5336E+01  0.2977E+02
   0.130  0.5250E+01  0.2982E+02
   0.140  0.5189E+01  0.2987E+02
   0.150  0.5154E+01  0.2993E+02
   0.160  0.5148E+01  0.2998E+02
   0.170  0.5169E+01  0.3003E+02
   0.180  0.5218E+01  0.3008E+02
   0.190  0.5292E+01  0.3013E+02
   0.200  0.5391E+01  0.3019E+02
   0.210  0.5511E+01  0.3024E+02
   0.220  0.5648E+01  0.3030E+02
   0.230  0.5798E+01  0.3036E+02
   0.240  0.5958E+01  0.3042E+02
   0.250  0.6122E+01  0.3048E+02
   0.260  0.6287E+01  0.3054E+02
   0.270  0.6448E+01  0.3060E+02
   0.280  0.6600E+01  0.3067E+02
   0.290  0.6740E+01  0.3074E+02
   0.300  0.6866E+01  0.3081E+02
   0.310  0.6975E+01  0.3088E+02
   0.320  0.7065E+01  0.3095E+02
   0.330  0.7137E+01  0.3102E+02
   0.340  0.7190E+01  0.3109E+02
   0.350  0.7227E+01  0.3116E+02
   0.360  0.7249E+01  0.3124E+02
   0.370  0.7260E+01  0.3131E+02
   0.380  0.7263E+01  0.3138E+02
   0.390  0.7263E+01  0.3145E+02
   0.400  0.7263E+01  0.3153E+02
   0.410  0.7267E+01  0.3160E+02
   0.420  0.7279E+01  0.3167E+02
   0.430  0.7304E+01  0.3174E+02
   0.440  0.7342E+01  0.3182E+02
   0.450  0.7395E+01  0.3189E+02
   0.460  0.7464E+01  0.3197E+02
   0.470  0.7549E+01  0.3204E+02
   0.480  0.7646E+01  0.3212E+02
   0.490  0.7754E+01  0.3220E+02
   0.500  0.7868E+01  0.3227E+02
   0.510  0.7983E+01  0.3235E+02
   0.520  0.8093E+01  0.3244E+02
   0.530  0.8193E+01  0.3252E+02
   0.540  0.8277E+01  0.3260E+02
   0.550  0.8339E+01  0.3268E+02
   0.560  0.8373E+01  0.3277E+02
   0.570  0.8377E+01  0.3285E+02
   0.580  0.8346E+01  0.3293E+02
   0.590  0.8279E+01  0.3302E+02
   0.600  0.8175E+01  0.3310E+02
   0.610  0.8036E+01  0.3318E+02
   0.620  0.7864E+01  0.3326E+02
   0.630  0.7663E+01  0.3333E+02
   0.640  0.7438E+01  0.3341E+02
   0.650  0.7196E+01  0.3348E+02
   0.660  0.6942E+01  0.3355E+02
   0.670  0.6685E+01  0.3362E+02
   0.680  0.6430E+01  0.3368E+02
   0.690  0.6186E+01  0.3374E+02
   0.700  0.5959E+01  0.3380E+02
   0.710  0.5754E+01  0.3386E+02
   0.720  0.5575E+01  0.3392E+02
   0.730  0.5428E+01  0.3397E+02
   0.740  0.5315E+01  0.3402E+02
   0.750  0.5237E+01  0.3408E+02
   0.760  0.5194E+01  0.3413E+02
   0.770  0.5187E+01  0.3418E+02
   0.780  0.5214E+01  0.3423E+02
   0.790  0.5273E+01  0.3428E+02
   0.800  0.5362E+01  0.3434E+02
   0.810  0.5478E+01  0.3439E+02
   0.820  0.5618E+01  0.3445E+02
   0.830  0.5778E+01  0.3451E+02
   0.840  0.5957E+01  0.3457E+02
   0.850  0.6151E+01  0.3463E+02
   0.860  0.6356E+01  0.3469E+02
   0.870  0.6571E+01  0.3476E+02
   0.880  0.6794E+01  0.3483E+02
   0.890  0.7020E+01  0.3490E+02
   0.900  0.7249E+01  0.3497E+02
   0.910  0.7479E+01  0.3504E+02
   0.920  0.7705E+01  0.3512E+02
   0.930  0.7928E+01  0.3520E+02
   0.940  0.8144E+01  0.3528E+02
   0.950  0.8351E+01  0.3536E+02
   0.960  0.8546E+01  0.3545E+02
   0.970  0.8728E+01  0.3554E+02
   0.980  0.8894E+01  0.3563E+02
   0.990  0.9042E+01  0.3572E+02
   1.000  0.9169E+01  0.3581E+02
   1.010  0.9275E+01  0.3590E+02
   1.020  0.9356E+01  0.3599E+02
   1.030  0.9413E+01  0.3609E+02
   1.040  0.9444E+01  0.3618E+02
   1.050  0.9448E+01  0.3628E+02
   1.060  0.9426E+01  0.3637E+02
   1.070  0.9378E+01  0.3647E+02
   1.080  0.9305E+01  0.3656E+02
   1.090  0.9209E+01  0.3665E+02
   1.100  0.9091E+01  0.3674E+02
   1.110  0.8956E+01  0.3683E+02
   1.120  0.8806E+01  0.3692E+02
   1.130  0.8645E+01  0.3701E+02
   1.140  0.8477E+01  0.3709E+02
   1.150  0.8306E+01  0.3717E+02
   1.160  0.8139E+01  0.3725E+02
   1.170  0.7978E+01  0.3733E+02
   1.180  0.7828E+01  0.3741E+02
   1.190  0.7694E+01  0.3749E+02
   1.200  0.7578E+01  0.3757E+02
   1.210  0.7485E+01  0.3764E+02
   1.220  0.7416E+01  0.3771E+02
   1.230  0.7372E+01  0.3779E+02
   1.240  0.7354E+01  0.3786E+02
   1.250  0.7361E+01  0.3794E+02
   1.260  0.7392E+01  0.3801E+02
   1.270  0.7445E+01  0.3808E+02
   1.280  0.7517E+01  0.3816E+02
   1.290  0.7606E+01  0.3823E+02
   1.300  0.7706E+01  0.3831E+02
   1.310  0.7816E+01  0.3839E+02
   1.320  0.7930E+01  0.3847E+02
   1.330  0.8046E+01  0.3855E+02
   1.340  0.8160E+01  0.3863E+02
   1.350  0.8269E+01  0.3871E+02
   1.360  0.8371E+01  0.3880E+02
   1.370  0.8465E+01  0.3888E+02
   1.380  0.8548E+01  0.3897E+02
   1.390  0.8621E+01  0.3905E+02
   1.400  0.8684E+01  0.3914E+02
   1.410  0.8736E+01  0.3923E+02
   1.420  0.8780E+01  0.3932E+02
   1.430  0.8815E+01  0.3940E+02
   1.440  0.8844E+01  0.3949E+02
   1.450  0.8867E+01  0.3958E+02
   1.460  0.8886E+01  0.3967E+02
   1.470  0.8903E+01  0.3976E+02
   1.480  0.8918E+01  0.3985E+02
   1.490  0.8932E+01  0.3994E+02
   1.500  0.8946E+01  0.4003E+02
   1.510  0.8958E+01  0.4012E+02
   1.520  0.8970E+01  0.4021E+02
   1.530  0.8980E+01  0.4030E+02
   1.540  0.8988E+01  0.4039E+02
   1.550  0.8990E+01  0.4048E+02
   1.560  0.8987E+01  0.4057E+02
   1.570  0.8976E+01  0.4066E+02
   1.580  0.8955E+01  0.4075E+02
   1.590  0.8924E+01  0.4083E+02
   1.600  0.8881E+01  0.4092E+02
   1.610  0.8825E+01  0.4101E+02
   1.620  0.8755E+01  0.4110E+02
   1.630  0.8673E+01  0.4119E+02
   1.640  0.8579E+01  0.4127E+02
   1.650  0.8473E+01  0.4136E+02
   1.660  0.8359E+01  0.4144E+02
   1.670  0.8239E+01  0.4152E+02
   1.680  0.8114E+01  0.4160E+02
   1.690  0.7989E+01  0.4168E+02
   1.700  0.7867E+01  0.4176E+02
   1.710  0.7749E+01  0.4184E+02
   1.720  0.7639E+01  0.4192E+02
   1.730  0.7538E+01  0.4199E+02
   1.740  0.7449E+01  0.4207E+02
   1.750  0.7372E+01  0.4214E+02
   1.760  0.7307E+01  0.4221E+02
   1.770  0.7253E+01  0.4229E+02
   1.780  0.7210E+01  0.4236E+02
   1.790  0.7176E+01  0.4243E+02
   1.800  0.7148E+01  0.4250E+02
   1.810  0.7124E+01  0.4257E+02
   1.820  0.7102E+01  0.4264E+02
   1.830  0.7078E+01  0.4271E+02
   1.840  0.7051E+01  0.4278E+02
   1.850  0.7019E+01  0.4285E+02
   1.860  0.6979E+01  0.4292E+02
   1.870  0.6931E+01  0.4299E+02
   1.880  0.6875E+01  0.4306E+02
   1.890  0.6810E+01  0.4313E+02
   1.900  0.6737E+01  0.4320E+02
   1.910  0.6656E+01  0.4326E+02
   1.920  0.6569E+01  0.4333E+02
   1.930  0.6477E+01  0.4339E+02
   1.940  0.6382E+01  0.4346E+02
   1.950  0.6285E+01  0.4352E+02
   1.960  0.6188E+01  0.4358E+02
   1.970  0.6093E+01  0.4364E+02
   1.980  0.6000E+01  0.4370E+02
   1.990  0.5912E+01  0.4376E+02
   2.000  0.5831E+01  0.4382E+02
   2.010  0.5756E+01  0.4388E+02
   2.020  0.5690E+01  0.4394E+02
   2.030  0.5635E+01  0.4399E+02
   2.040  0.5591E+01  0.4405E+02
   2.050  0.5560E+01  0.4410E+02
   2.060  0.5543E+01  0.4416E+02
   2.070  0.5542E+01  0.4421E+02
   2.080  0.5558E+01  0.4427E+02
   2.090  0.5592E+01  0.4433E+02
   2.100  0.5644E+01  0.4438E+02
   2.110  0.5715E+01  0.4444E+02
   2.120  0.5804E+01  0.4450E+02
   2.130  0.5912E+01  0.4456E+02
   2.140  0.6035E+01  0.4462E+02
   2.150  0.6174E+01  0.4468E+02
   2.160  0.6326E+01  0.4474E+02
   2.170  0.6487E+01  0.4481E+02
   2.180  0.6654E+01  0.4487E+02
   2.190  0.6825E+01  0.4494E+02
   2.200  0.6995E+01  0.4501E+02
   2.210  0.7161E+01  0.4508E+02
   2.220  0.7319E+01  0.4516E+02
   2.230  0.7466E+01  0.4523E+02
   2.240  0.7599E+01  0.4531E+02
   2.250  0.7716E+01  0.4538E+02
   2.260  0.7815E+01  0.4546E+02
   2.270  0.7896E+01  0.4554E+02
   2.280  0.7958E+01  0.4562E+02
   2.290  0.8002E+01  0.4570E+02
   2.300  0.8029E+01  0.4578E+02
   2.310  0.8040E+01  0.4586E+02
   2.320  0.8038E+01  0.4594E+02
   2.330  0.8025E+01  0.4602E+02
   2.340  0.8003E+01  0.4610E+02
   2.350  0.7974E+01  0.4618E+02
   2.360  0.7941E+01  0.4626E+02
   2.370  0.7904E+01  0.4634E+02
   2.380  0.7863E+01  0.4642E+02
   2.390  0.7820E+01  0.4650E+02
   2.400  0.7774E+01  0.4658E+02
