#  E (eV)   dos(E)     Int dos(E) EFermi =   2.556 eV
 -17.180  0.1606E-04  0.1606E-06
 -17.170  0.2485E-04  0.4091E-06
 -17.160  0.3803E-04  0.7894E-06
 -17.150  0.5758E-04  0.1365E-05
 -17.140  0.8626E-04  0.2228E-05
 -17.130  0.1279E-03  0.3506E-05
 -17.120  0.1875E-03  0.5381E-05
 -17.110  0.2721E-03  0.8102E-05
 -17.100  0.3907E-03  0.1201E-04
 -17.090  0.5550E-03  0.1756E-04
 -17.080  0.7803E-03  0.2536E-04
 -17.070  0.1086E-02  0.3622E-04
 -17.060  0.1495E-02  0.5117E-04
 -17.050  0.2037E-02  0.7154E-04
 -17.040  0.2748E-02  0.9902E-04
 -17.030  0.3670E-02  0.1357E-03
 -17.020  0.4851E-02  0.1842E-03
 -17.010  0.6349E-02  0.2477E-03
 -17.000  0.8228E-02  0.3300E-03
 -16.990  0.1056E-01  0.4356E-03
 -16.980  0.1343E-01  0.5699E-03
 -16.970  0.1692E-01  0.7391E-03
 -16.960  0.2112E-01  0.9502E-03
 -16.950  0.2613E-01  0.1212E-02
 -16.940  0.3206E-01  0.1532E-02
 -16.930  0.3901E-01  0.1922E-02
 -16.920  0.4709E-01  0.2393E-02
 -16.910  0.5643E-01  0.2957E-02
 -16.900  0.6714E-01  0.3629E-02
 -16.890  0.7936E-01  0.4422E-02
 -16.880  0.9322E-01  0.5354E-02
 -16.870  0.1089E+00  0.6443E-02
 -16.860  0.1265E+00  0.7709E-02
 -16.850  0.1464E+00  0.9172E-02
 -16.840  0.1686E+00  0.1086E-01
 -16.830  0.1934E+00  0.1279E-01
 -16.820  0.2212E+00  0.1500E-01
 -16.810  0.2521E+00  0.1752E-01
 -16.800  0.2866E+00  0.2039E-01
 -16.790  0.3249E+00  0.2364E-01
 -16.780  0.3674E+00  0.2731E-01
 -16.770  0.4145E+00  0.3146E-01
 -16.760  0.4663E+00  0.3612E-01
 -16.750  0.5232E+00  0.4135E-01
 -16.740  0.5853E+00  0.4721E-01
 -16.730  0.6528E+00  0.5374E-01
 -16.720  0.7257E+00  0.6099E-01
 -16.710  0.8038E+00  0.6903E-01
 -16.700  0.8868E+00  0.7790E-01
 -16.690  0.9745E+00  0.8764E-01
 -16.680  0.1066E+01  0.9831E-01
 -16.670  0.1162E+01  0.1099E+00
 -16.660  0.1259E+01  0.1225E+00
 -16.650  0.1359E+01  0.1361E+00
 -16.640  0.1459E+01  0.1507E+00
 -16.630  0.1559E+01  0.1663E+00
 -16.620  0.1657E+01  0.1829E+00
 -16.610  0.1753E+01  0.2004E+00
 -16.600  0.1844E+01  0.2188E+00
 -16.590  0.1930E+01  0.2381E+00
 -16.580  0.2009E+01  0.2582E+00
 -16.570  0.2082E+01  0.2790E+00
 -16.560  0.2146E+01  0.3005E+00
 -16.550  0.2201E+01  0.3225E+00
 -16.540  0.2248E+01  0.3450E+00
 -16.530  0.2287E+01  0.3679E+00
 -16.520  0.2318E+01  0.3910E+00
 -16.510  0.2342E+01  0.4145E+00
 -16.500  0.2362E+01  0.4381E+00
 -16.490  0.2379E+01  0.4619E+00
 -16.480  0.2397E+01  0.4858E+00
 -16.470  0.2418E+01  0.5100E+00
 -16.460  0.2447E+01  0.5345E+00
 -16.450  0.2485E+01  0.5594E+00
 -16.440  0.2538E+01  0.5847E+00
 -16.430  0.2609E+01  0.6108E+00
 -16.420  0.2700E+01  0.6378E+00
 -16.410  0.2813E+01  0.6659E+00
 -16.400  0.2951E+01  0.6955E+00
 -16.390  0.3113E+01  0.7266E+00
 -16.380  0.3300E+01  0.7596E+00
 -16.370  0.3508E+01  0.7947E+00
 -16.360  0.3736E+01  0.8320E+00
 -16.350  0.3978E+01  0.8718E+00
 -16.340  0.4230E+01  0.9141E+00
 -16.330  0.4484E+01  0.9590E+00
 -16.320  0.4735E+01  0.1006E+01
 -16.310  0.4975E+01  0.1056E+01
 -16.300  0.5197E+01  0.1108E+01
 -16.290  0.5393E+01  0.1162E+01
 -16.280  0.5557E+01  0.1218E+01
 -16.270  0.5684E+01  0.1274E+01
 -16.260  0.5770E+01  0.1332E+01
 -16.250  0.5811E+01  0.1390E+01
 -16.240  0.5806E+01  0.1448E+01
 -16.230  0.5754E+01  0.1506E+01
 -16.220  0.5656E+01  0.1562E+01
 -16.210  0.5516E+01  0.1618E+01
 -16.200  0.5337E+01  0.1671E+01
 -16.190  0.5123E+01  0.1722E+01
 -16.180  0.4880E+01  0.1771E+01
 -16.170  0.4613E+01  0.1817E+01
 -16.160  0.4329E+01  0.1860E+01
 -16.150  0.4033E+01  0.1901E+01
 -16.140  0.3732E+01  0.1938E+01
 -16.130  0.3431E+01  0.1972E+01
 -16.120  0.3134E+01  0.2004E+01
 -16.110  0.2847E+01  0.2032E+01
 -16.100  0.2573E+01  0.2058E+01
 -16.090  0.2316E+01  0.2081E+01
 -16.080  0.2079E+01  0.2102E+01
 -16.070  0.1863E+01  0.2120E+01
 -16.060  0.1672E+01  0.2137E+01
 -16.050  0.1507E+01  0.2152E+01
 -16.040  0.1371E+01  0.2166E+01
 -16.030  0.1264E+01  0.2179E+01
 -16.020  0.1190E+01  0.2190E+01
 -16.010  0.1148E+01  0.2202E+01
 -16.000  0.1141E+01  0.2213E+01
 -15.990  0.1171E+01  0.2225E+01
 -15.980  0.1239E+01  0.2237E+01
 -15.970  0.1345E+01  0.2251E+01
 -15.960  0.1492E+01  0.2266E+01
 -15.950  0.1678E+01  0.2283E+01
 -15.940  0.1903E+01  0.2302E+01
 -15.930  0.2165E+01  0.2323E+01
 -15.920  0.2463E+01  0.2348E+01
 -15.910  0.2791E+01  0.2376E+01
 -15.900  0.3145E+01  0.2407E+01
 -15.890  0.3519E+01  0.2442E+01
 -15.880  0.3905E+01  0.2482E+01
 -15.870  0.4295E+01  0.2524E+01
 -15.860  0.4679E+01  0.2571E+01
 -15.850  0.5047E+01  0.2622E+01
 -15.840  0.5390E+01  0.2676E+01
 -15.830  0.5697E+01  0.2733E+01
 -15.820  0.5960E+01  0.2792E+01
 -15.810  0.6170E+01  0.2854E+01
 -15.800  0.6321E+01  0.2917E+01
 -15.790  0.6407E+01  0.2981E+01
 -15.780  0.6427E+01  0.3045E+01
 -15.770  0.6379E+01  0.3109E+01
 -15.760  0.6265E+01  0.3172E+01
 -15.750  0.6089E+01  0.3233E+01
 -15.740  0.5856E+01  0.3291E+01
 -15.730  0.5573E+01  0.3347E+01
 -15.720  0.5248E+01  0.3400E+01
 -15.710  0.4892E+01  0.3448E+01
 -15.700  0.4514E+01  0.3494E+01
 -15.690  0.4124E+01  0.3535E+01
 -15.680  0.3730E+01  0.3572E+01
 -15.670  0.3344E+01  0.3606E+01
 -15.660  0.2971E+01  0.3635E+01
 -15.650  0.2619E+01  0.3661E+01
 -15.640  0.2293E+01  0.3684E+01
 -15.630  0.1997E+01  0.3704E+01
 -15.620  0.1734E+01  0.3722E+01
 -15.610  0.1505E+01  0.3737E+01
 -15.600  0.1312E+01  0.3750E+01
 -15.590  0.1153E+01  0.3761E+01
 -15.580  0.1027E+01  0.3772E+01
 -15.570  0.9314E+00  0.3781E+01
 -15.560  0.8651E+00  0.3790E+01
 -15.550  0.8250E+00  0.3798E+01
 -15.540  0.8085E+00  0.3806E+01
 -15.530  0.8129E+00  0.3814E+01
 -15.520  0.8360E+00  0.3822E+01
 -15.510  0.8755E+00  0.3831E+01
 -15.500  0.9296E+00  0.3841E+01
 -15.490  0.9972E+00  0.3850E+01
 -15.480  0.1077E+01  0.3861E+01
 -15.470  0.1169E+01  0.3873E+01
 -15.460  0.1273E+01  0.3886E+01
 -15.450  0.1389E+01  0.3900E+01
 -15.440  0.1518E+01  0.3915E+01
 -15.430  0.1661E+01  0.3931E+01
 -15.420  0.1819E+01  0.3950E+01
 -15.410  0.1993E+01  0.3969E+01
 -15.400  0.2183E+01  0.3991E+01
 -15.390  0.2389E+01  0.4015E+01
 -15.380  0.2612E+01  0.4041E+01
 -15.370  0.2850E+01  0.4070E+01
 -15.360  0.3101E+01  0.4101E+01
 -15.350  0.3363E+01  0.4134E+01
 -15.340  0.3632E+01  0.4171E+01
 -15.330  0.3904E+01  0.4210E+01
 -15.320  0.4174E+01  0.4252E+01
 -15.310  0.4435E+01  0.4296E+01
 -15.300  0.4681E+01  0.4343E+01
 -15.290  0.4907E+01  0.4392E+01
 -15.280  0.5106E+01  0.4443E+01
 -15.270  0.5272E+01  0.4496E+01
 -15.260  0.5400E+01  0.4550E+01
 -15.250  0.5486E+01  0.4604E+01
 -15.240  0.5528E+01  0.4660E+01
 -15.230  0.5525E+01  0.4715E+01
 -15.220  0.5476E+01  0.4770E+01
 -15.210  0.5383E+01  0.4824E+01
 -15.200  0.5250E+01  0.4876E+01
 -15.190  0.5081E+01  0.4927E+01
 -15.180  0.4883E+01  0.4976E+01
 -15.170  0.4660E+01  0.5022E+01
 -15.160  0.4421E+01  0.5067E+01
 -15.150  0.4172E+01  0.5108E+01
 -15.140  0.3922E+01  0.5147E+01
 -15.130  0.3676E+01  0.5184E+01
 -15.120  0.3440E+01  0.5219E+01
 -15.110  0.3221E+01  0.5251E+01
 -15.100  0.3021E+01  0.5281E+01
 -15.090  0.2844E+01  0.5309E+01
 -15.080  0.2691E+01  0.5336E+01
 -15.070  0.2563E+01  0.5362E+01
 -15.060  0.2459E+01  0.5387E+01
 -15.050  0.2377E+01  0.5410E+01
 -15.040  0.2316E+01  0.5434E+01
 -15.030  0.2273E+01  0.5456E+01
 -15.020  0.2243E+01  0.5479E+01
 -15.010  0.2225E+01  0.5501E+01
 -15.000  0.2214E+01  0.5523E+01
 -14.990  0.2209E+01  0.5545E+01
 -14.980  0.2206E+01  0.5567E+01
 -14.970  0.2204E+01  0.5589E+01
 -14.960  0.2201E+01  0.5611E+01
 -14.950  0.2198E+01  0.5633E+01
 -14.940  0.2194E+01  0.5655E+01
 -14.930  0.2192E+01  0.5677E+01
 -14.920  0.2193E+01  0.5699E+01
 -14.910  0.2200E+01  0.5721E+01
 -14.900  0.2219E+01  0.5743E+01
 -14.890  0.2253E+01  0.5766E+01
 -14.880  0.2309E+01  0.5789E+01
 -14.870  0.2393E+01  0.5813E+01
 -14.860  0.2513E+01  0.5838E+01
 -14.850  0.2677E+01  0.5865E+01
 -14.840  0.2894E+01  0.5894E+01
 -14.830  0.3172E+01  0.5925E+01
 -14.820  0.3521E+01  0.5961E+01
 -14.810  0.3948E+01  0.6000E+01
 -14.800  0.4462E+01  0.6045E+01
 -14.790  0.5069E+01  0.6095E+01
 -14.780  0.5775E+01  0.6153E+01
 -14.770  0.6582E+01  0.6219E+01
 -14.760  0.7491E+01  0.6294E+01
 -14.750  0.8498E+01  0.6379E+01
 -14.740  0.9597E+01  0.6475E+01
 -14.730  0.1078E+02  0.6583E+01
 -14.720  0.1203E+02  0.6703E+01
 -14.710  0.1333E+02  0.6836E+01
 -14.700  0.1465E+02  0.6983E+01
 -14.690  0.1598E+02  0.7142E+01
 -14.680  0.1729E+02  0.7315E+01
 -14.670  0.1855E+02  0.7501E+01
 -14.660  0.1972E+02  0.7698E+01
 -14.650  0.2078E+02  0.7906E+01
 -14.640  0.2170E+02  0.8123E+01
 -14.630  0.2245E+02  0.8347E+01
 -14.620  0.2302E+02  0.8578E+01
 -14.610  0.2339E+02  0.8812E+01
 -14.600  0.2354E+02  0.9047E+01
 -14.590  0.2347E+02  0.9282E+01
 -14.580  0.2319E+02  0.9514E+01
 -14.570  0.2269E+02  0.9740E+01
 -14.560  0.2199E+02  0.9960E+01
 -14.550  0.2112E+02  0.1017E+02
 -14.540  0.2008E+02  0.1037E+02
 -14.530  0.1892E+02  0.1056E+02
 -14.520  0.1765E+02  0.1074E+02
 -14.510  0.1632E+02  0.1090E+02
 -14.500  0.1494E+02  0.1105E+02
 -14.490  0.1354E+02  0.1119E+02
 -14.480  0.1216E+02  0.1131E+02
 -14.470  0.1081E+02  0.1142E+02
 -14.460  0.9524E+01  0.1151E+02
 -14.450  0.8307E+01  0.1159E+02
 -14.440  0.7175E+01  0.1167E+02
 -14.430  0.6138E+01  0.1173E+02
 -14.420  0.5199E+01  0.1178E+02
 -14.410  0.4361E+01  0.1182E+02
 -14.400  0.3623E+01  0.1186E+02
 -14.390  0.2980E+01  0.1189E+02
 -14.380  0.2427E+01  0.1191E+02
 -14.370  0.1957E+01  0.1193E+02
 -14.360  0.1563E+01  0.1195E+02
 -14.350  0.1236E+01  0.1196E+02
 -14.340  0.9676E+00  0.1197E+02
 -14.330  0.7500E+00  0.1198E+02
 -14.320  0.5756E+00  0.1198E+02
 -14.310  0.4374E+00  0.1199E+02
 -14.300  0.3291E+00  0.1199E+02
 -14.290  0.2451E+00  0.1199E+02
 -14.280  0.1808E+00  0.1200E+02
 -14.270  0.1320E+00  0.1200E+02
 -14.260  0.9538E-01  0.1200E+02
 -14.250  0.6825E-01  0.1200E+02
 -14.240  0.4835E-01  0.1200E+02
 -14.230  0.3391E-01  0.1200E+02
 -14.220  0.2354E-01  0.1200E+02
 -14.210  0.1618E-01  0.1200E+02
 -14.200  0.1101E-01  0.1200E+02
 -14.190  0.7415E-02  0.1200E+02
 -14.180  0.4944E-02  0.1200E+02
 -14.170  0.3263E-02  0.1200E+02
 -14.160  0.2132E-02  0.1200E+02
 -14.150  0.1379E-02  0.1200E+02
 -14.140  0.8830E-03  0.1200E+02
 -14.130  0.5596E-03  0.1200E+02
 -14.120  0.3511E-03  0.1200E+02
 -14.110  0.2181E-03  0.1200E+02
 -14.100  0.1341E-03  0.1200E+02
 -14.090  0.8158E-04  0.1200E+02
 -14.080  0.4914E-04  0.1200E+02
 -14.070  0.2930E-04  0.1200E+02
 -14.060  0.1729E-04  0.1200E+02
 -14.050  0.1010E-04  0.1200E+02
 -14.040  0.5842E-05  0.1200E+02
 -14.030  0.3344E-05  0.1200E+02
 -14.020  0.1895E-05  0.1200E+02
 -14.010  0.1063E-05  0.1200E+02
 -14.000  0.5898E-06  0.1200E+02
 -13.990  0.3241E-06  0.1200E+02
 -13.980  0.1763E-06  0.1200E+02
 -13.970  0.9488E-07  0.1200E+02
 -13.960  0.5055E-07  0.1200E+02
 -13.950  0.2666E-07  0.1200E+02
 -13.940  0.1392E-07  0.1200E+02
 -13.930  0.7191E-08  0.1200E+02
 -13.920  0.3678E-08  0.1200E+02
 -13.910  0.1861E-08  0.1200E+02
 -13.900  0.9326E-09  0.1200E+02
 -13.890  0.4625E-09  0.1200E+02
 -13.880  0.2270E-09  0.1200E+02
 -13.870  0.1103E-09  0.1200E+02
 -13.860  0.5301E-10  0.1200E+02
 -13.850  0.2523E-10  0.1200E+02
 -13.840  0.1188E-10  0.1200E+02
 -13.830  0.5539E-11  0.1200E+02
 -13.820  0.2556E-11  0.1200E+02
 -13.810  0.1167E-11  0.1200E+02
 -13.800  0.5274E-12  0.1200E+02
 -13.790  0.2359E-12  0.1200E+02
 -13.780  0.1044E-12  0.1200E+02
 -13.770  0.4576E-13  0.1200E+02
 -13.760  0.1984E-13  0.1200E+02
 -13.750  0.8515E-14  0.1200E+02
 -13.740  0.3617E-14  0.1200E+02
 -13.730  0.1520E-14  0.1200E+02
 -13.720  0.6325E-15  0.1200E+02
 -13.710  0.2604E-15  0.1200E+02
 -13.700  0.1061E-15  0.1200E+02
 -13.690  0.4279E-16  0.1200E+02
 -13.680  0.1708E-16  0.1200E+02
 -13.670  0.6744E-17  0.1200E+02
 -13.660  0.2636E-17  0.1200E+02
 -13.650  0.1020E-17  0.1200E+02
 -13.640  0.3903E-18  0.1200E+02
 -13.630  0.1478E-18  0.1200E+02
 -13.620  0.5542E-19  0.1200E+02
 -13.610  0.2056E-19  0.1200E+02
 -13.600  0.7549E-20  0.1200E+02
 -13.590  0.2743E-20  0.1200E+02
 -13.580  0.9860E-21  0.1200E+02
 -13.570  0.3508E-21  0.1200E+02
 -13.560  0.1235E-21  0.1200E+02
 -13.550  0.4303E-22  0.1200E+02
 -13.540  0.1484E-22  0.1200E+02
 -13.530  0.5062E-23  0.1200E+02
 -13.520  0.1709E-23  0.1200E+02
 -13.510  0.5709E-24  0.1200E+02
 -13.500  0.1887E-24  0.1200E+02
 -13.490  0.6174E-25  0.1200E+02
 -13.480  0.1999E-25  0.1200E+02
 -13.470  0.6401E-26  0.1200E+02
 -13.460  0.2029E-26  0.1200E+02
 -13.450  0.6363E-27  0.1200E+02
 -13.440  0.1975E-27  0.1200E+02
 -13.430  0.6064E-28  0.1200E+02
 -13.420  0.1843E-28  0.1200E+02
 -13.410  0.5540E-29  0.1200E+02
 -13.400  0.1648E-29  0.1200E+02
 -13.390  0.4852E-30  0.1200E+02
 -13.380  0.1413E-30  0.1200E+02
 -13.370  0.4073E-31  0.1200E+02
 -13.360  0.1161E-31  0.1200E+02
 -13.350  0.3277E-32  0.1200E+02
 -13.340  0.9149E-33  0.1200E+02
 -13.330  0.2527E-33  0.1200E+02
 -13.320  0.6908E-34  0.1200E+02
 -13.310  0.1868E-34  0.1200E+02
 -13.300  0.4999E-35  0.1200E+02
 -13.290  0.1323E-35  0.1200E+02
 -13.280  0.3467E-36  0.1200E+02
 -13.270  0.8986E-37  0.1200E+02
 -13.260  0.2304E-37  0.1200E+02
 -13.250  0.5847E-38  0.1200E+02
 -13.240  0.1468E-38  0.1200E+02
 -13.230  0.3646E-39  0.1200E+02
 -13.220  0.8960E-40  0.1200E+02
 -13.210  0.2179E-40  0.1200E+02
 -13.200  0.5241E-41  0.1200E+02
 -13.190  0.1248E-41  0.1200E+02
 -13.180  0.2938E-42  0.1200E+02
 -13.170  0.6845E-43  0.1200E+02
 -13.160  0.1578E-43  0.1200E+02
 -13.150  0.3599E-44  0.1200E+02
 -13.140  0.8121E-45  0.1200E+02
 -13.130  0.1813E-45  0.1200E+02
 -13.120  0.4005E-46  0.1200E+02
 -13.110  0.8752E-47  0.1200E+02
 -13.100  0.1892E-47  0.1200E+02
 -13.090  0.4048E-48  0.1200E+02
 -13.080  0.8567E-49  0.1200E+02
 -13.070  0.1794E-49  0.1200E+02
 -13.060  0.3716E-50  0.1200E+02
 -13.050  0.7615E-51  0.1200E+02
 -13.040  0.1544E-51  0.1200E+02
 -13.030  0.3098E-52  0.1200E+02
 -13.020  0.6148E-53  0.1200E+02
 -13.010  0.1207E-53  0.1200E+02
 -13.000  0.2345E-54  0.1200E+02
 -12.990  0.4507E-55  0.1200E+02
 -12.980  0.8570E-56  0.1200E+02
 -12.970  0.1612E-56  0.1200E+02
 -12.960  0.3000E-57  0.1200E+02
 -12.950  0.5525E-58  0.1200E+02
 -12.940  0.1006E-58  0.1200E+02
 -12.930  0.1814E-59  0.1200E+02
 -12.920  0.3234E-60  0.1200E+02
 -12.910  0.5704E-61  0.1200E+02
 -12.900  0.9953E-62  0.1200E+02
 -12.890  0.1718E-62  0.1200E+02
 -12.880  0.2935E-63  0.1200E+02
 -12.870  0.4959E-64  0.1200E+02
 -12.860  0.8290E-65  0.1200E+02
 -12.850  0.1371E-65  0.1200E+02
 -12.840  0.2243E-66  0.1200E+02
 -12.830  0.3631E-67  0.1200E+02
 -12.820  0.5815E-68  0.1200E+02
 -12.810  0.9213E-69  0.1200E+02
 -12.800  0.1444E-69  0.1200E+02
 -12.790  0.2239E-70  0.1200E+02
 -12.780  0.3434E-71  0.1200E+02
 -12.770  0.5212E-72  0.1200E+02
 -12.760  0.7825E-73  0.1200E+02
 -12.750  0.1162E-73  0.1200E+02
 -12.740  0.1708E-74  0.1200E+02
 -12.730  0.2483E-75  0.1200E+02
 -12.720  0.3570E-76  0.1200E+02
 -12.710  0.5080E-77  0.1200E+02
 -12.700  0.7150E-78  0.1200E+02
 -12.690  0.9956E-79  0.1200E+02
 -12.680  0.1372E-79  0.1200E+02
 -12.670  0.1869E-80  0.1200E+02
 -12.660  0.2523E-81  0.1200E+02
 -12.650  0.3387E-82  0.1200E+02
 -12.640  0.4703E-83  0.1200E+02
 -12.630  0.8500E-84  0.1200E+02
 -12.620  0.3479E-84  0.1200E+02
 -12.610  0.2842E-84  0.1200E+02
 -12.600  0.2761E-84  0.1200E+02
 -12.590  0.2755E-84  0.1200E+02
 -12.580  0.2755E-84  0.1200E+02
 -12.570  0.2755E-84  0.1200E+02
 -12.560  0.2755E-84  0.1200E+02
 -12.550  0.2755E-84  0.1200E+02
 -12.540  0.2755E-84  0.1200E+02
 -12.530  0.2755E-84  0.1200E+02
 -12.520  0.2755E-84  0.1200E+02
 -12.510  0.2755E-84  0.1200E+02
 -12.500  0.2755E-84  0.1200E+02
 -12.490  0.2755E-84  0.1200E+02
 -12.480  0.2755E-84  0.1200E+02
 -12.470  0.2755E-84  0.1200E+02
 -12.460  0.2755E-84  0.1200E+02
 -12.450  0.2755E-84  0.1200E+02
 -12.440  0.2755E-84  0.1200E+02
 -12.430  0.2755E-84  0.1200E+02
 -12.420  0.2755E-84  0.1200E+02
 -12.410  0.2755E-84  0.1200E+02
 -12.400  0.2755E-84  0.1200E+02
 -12.390  0.2755E-84  0.1200E+02
 -12.380  0.2755E-84  0.1200E+02
 -12.370  0.2755E-84  0.1200E+02
 -12.360  0.2755E-84  0.1200E+02
 -12.350  0.2755E-84  0.1200E+02
 -12.340  0.2755E-84  0.1200E+02
 -12.330  0.2755E-84  0.1200E+02
 -12.320  0.2755E-84  0.1200E+02
 -12.310  0.2755E-84  0.1200E+02
 -12.300  0.2755E-84  0.1200E+02
 -12.290  0.2755E-84  0.1200E+02
 -12.280  0.2755E-84  0.1200E+02
 -12.270  0.2755E-84  0.1200E+02
 -12.260  0.2755E-84  0.1200E+02
 -12.250  0.2755E-84  0.1200E+02
 -12.240  0.2755E-84  0.1200E+02
 -12.230  0.2755E-84  0.1200E+02
 -12.220  0.2755E-84  0.1200E+02
 -12.210  0.2755E-84  0.1200E+02
 -12.200  0.2755E-84  0.1200E+02
 -12.190  0.2755E-84  0.1200E+02
 -12.180  0.2755E-84  0.1200E+02
 -12.170  0.2755E-84  0.1200E+02
 -12.160  0.2755E-84  0.1200E+02
 -12.150  0.2755E-84  0.1200E+02
 -12.140  0.2755E-84  0.1200E+02
 -12.130  0.2755E-84  0.1200E+02
 -12.120  0.2755E-84  0.1200E+02
 -12.110  0.2755E-84  0.1200E+02
 -12.100  0.2755E-84  0.1200E+02
 -12.090  0.2755E-84  0.1200E+02
 -12.080  0.2755E-84  0.1200E+02
 -12.070  0.2755E-84  0.1200E+02
 -12.060  0.2755E-84  0.1200E+02
 -12.050  0.2755E-84  0.1200E+02
 -12.040  0.2755E-84  0.1200E+02
 -12.030  0.2755E-84  0.1200E+02
 -12.020  0.2755E-84  0.1200E+02
 -12.010  0.2755E-84  0.1200E+02
 -12.000  0.2755E-84  0.1200E+02
 -11.990  0.2755E-84  0.1200E+02
 -11.980  0.2755E-84  0.1200E+02
 -11.970  0.2755E-84  0.1200E+02
 -11.960  0.2755E-84  0.1200E+02
 -11.950  0.2755E-84  0.1200E+02
 -11.940  0.2755E-84  0.1200E+02
 -11.930  0.2755E-84  0.1200E+02
 -11.920  0.2755E-84  0.1200E+02
 -11.910  0.2755E-84  0.1200E+02
 -11.900  0.2755E-84  0.1200E+02
 -11.890  0.2755E-84  0.1200E+02
 -11.880  0.2755E-84  0.1200E+02
 -11.870  0.2755E-84  0.1200E+02
 -11.860  0.2755E-84  0.1200E+02
 -11.850  0.2755E-84  0.1200E+02
 -11.840  0.2755E-84  0.1200E+02
 -11.830  0.2755E-84  0.1200E+02
 -11.820  0.2755E-84  0.1200E+02
 -11.810  0.2755E-84  0.1200E+02
 -11.800  0.2755E-84  0.1200E+02
 -11.790  0.2755E-84  0.1200E+02
 -11.780  0.2755E-84  0.1200E+02
 -11.770  0.2755E-84  0.1200E+02
 -11.760  0.2755E-84  0.1200E+02
 -11.750  0.2755E-84  0.1200E+02
 -11.740  0.2755E-84  0.1200E+02
 -11.730  0.2755E-84  0.1200E+02
 -11.720  0.2755E-84  0.1200E+02
 -11.710  0.2755E-84  0.1200E+02
 -11.700  0.2755E-84  0.1200E+02
 -11.690  0.2755E-84  0.1200E+02
 -11.680  0.2755E-84  0.1200E+02
 -11.670  0.2755E-84  0.1200E+02
 -11.660  0.2755E-84  0.1200E+02
 -11.650  0.2755E-84  0.1200E+02
 -11.640  0.2755E-84  0.1200E+02
 -11.630  0.2755E-84  0.1200E+02
 -11.620  0.2755E-84  0.1200E+02
 -11.610  0.2755E-84  0.1200E+02
 -11.600  0.2755E-84  0.1200E+02
 -11.590  0.2755E-84  0.1200E+02
 -11.580  0.2755E-84  0.1200E+02
 -11.570  0.2755E-84  0.1200E+02
 -11.560  0.2755E-84  0.1200E+02
 -11.550  0.2755E-84  0.1200E+02
 -11.540  0.2755E-84  0.1200E+02
 -11.530  0.2755E-84  0.1200E+02
 -11.520  0.2755E-84  0.1200E+02
 -11.510  0.2755E-84  0.1200E+02
 -11.500  0.2755E-84  0.1200E+02
 -11.490  0.2755E-84  0.1200E+02
 -11.480  0.2755E-84  0.1200E+02
 -11.470  0.2755E-84  0.1200E+02
 -11.460  0.2755E-84  0.1200E+02
 -11.450  0.2755E-84  0.1200E+02
 -11.440  0.2755E-84  0.1200E+02
 -11.430  0.2755E-84  0.1200E+02
 -11.420  0.2755E-84  0.1200E+02
 -11.410  0.2755E-84  0.1200E+02
 -11.400  0.2755E-84  0.1200E+02
 -11.390  0.2755E-84  0.1200E+02
 -11.380  0.2755E-84  0.1200E+02
 -11.370  0.2755E-84  0.1200E+02
 -11.360  0.2755E-84  0.1200E+02
 -11.350  0.2755E-84  0.1200E+02
 -11.340  0.2755E-84  0.1200E+02
 -11.330  0.2755E-84  0.1200E+02
 -11.320  0.2755E-84  0.1200E+02
 -11.310  0.2755E-84  0.1200E+02
 -11.300  0.2755E-84  0.1200E+02
 -11.290  0.2755E-84  0.1200E+02
 -11.280  0.2755E-84  0.1200E+02
 -11.270  0.2755E-84  0.1200E+02
 -11.260  0.2755E-84  0.1200E+02
 -11.250  0.2755E-84  0.1200E+02
 -11.240  0.2755E-84  0.1200E+02
 -11.230  0.2755E-84  0.1200E+02
 -11.220  0.2755E-84  0.1200E+02
 -11.210  0.2755E-84  0.1200E+02
 -11.200  0.2755E-84  0.1200E+02
 -11.190  0.2755E-84  0.1200E+02
 -11.180  0.2755E-84  0.1200E+02
 -11.170  0.2755E-84  0.1200E+02
 -11.160  0.2755E-84  0.1200E+02
 -11.150  0.2755E-84  0.1200E+02
 -11.140  0.2755E-84  0.1200E+02
 -11.130  0.2755E-84  0.1200E+02
 -11.120  0.2755E-84  0.1200E+02
 -11.110  0.2755E-84  0.1200E+02
 -11.100  0.2755E-84  0.1200E+02
 -11.090  0.2755E-84  0.1200E+02
 -11.080  0.2755E-84  0.1200E+02
 -11.070  0.2755E-84  0.1200E+02
 -11.060  0.2755E-84  0.1200E+02
 -11.050  0.2755E-84  0.1200E+02
 -11.040  0.2755E-84  0.1200E+02
 -11.030  0.2755E-84  0.1200E+02
 -11.020  0.2755E-84  0.1200E+02
 -11.010  0.2755E-84  0.1200E+02
 -11.000  0.2755E-84  0.1200E+02
 -10.990  0.2755E-84  0.1200E+02
 -10.980  0.2755E-84  0.1200E+02
 -10.970  0.2755E-84  0.1200E+02
 -10.960  0.2755E-84  0.1200E+02
 -10.950  0.2755E-84  0.1200E+02
 -10.940  0.2755E-84  0.1200E+02
 -10.930  0.2755E-84  0.1200E+02
 -10.920  0.2755E-84  0.1200E+02
 -10.910  0.2755E-84  0.1200E+02
 -10.900  0.2755E-84  0.1200E+02
 -10.890  0.2755E-84  0.1200E+02
 -10.880  0.2755E-84  0.1200E+02
 -10.870  0.2755E-84  0.1200E+02
 -10.860  0.2755E-84  0.1200E+02
 -10.850  0.2755E-84  0.1200E+02
 -10.840  0.2755E-84  0.1200E+02
 -10.830  0.2755E-84  0.1200E+02
 -10.820  0.2755E-84  0.1200E+02
 -10.810  0.2755E-84  0.1200E+02
 -10.800  0.2755E-84  0.1200E+02
 -10.790  0.2755E-84  0.1200E+02
 -10.780  0.2755E-84  0.1200E+02
 -10.770  0.2755E-84  0.1200E+02
 -10.760  0.2755E-84  0.1200E+02
 -10.750  0.2755E-84  0.1200E+02
 -10.740  0.2755E-84  0.1200E+02
 -10.730  0.2755E-84  0.1200E+02
 -10.720  0.2755E-84  0.1200E+02
 -10.710  0.2755E-84  0.1200E+02
 -10.700  0.2755E-84  0.1200E+02
 -10.690  0.2755E-84  0.1200E+02
 -10.680  0.2755E-84  0.1200E+02
 -10.670  0.2755E-84  0.1200E+02
 -10.660  0.2755E-84  0.1200E+02
 -10.650  0.2755E-84  0.1200E+02
 -10.640  0.2755E-84  0.1200E+02
 -10.630  0.2755E-84  0.1200E+02
 -10.620  0.2755E-84  0.1200E+02
 -10.610  0.2755E-84  0.1200E+02
 -10.600  0.2755E-84  0.1200E+02
 -10.590  0.2755E-84  0.1200E+02
 -10.580  0.2755E-84  0.1200E+02
 -10.570  0.2755E-84  0.1200E+02
 -10.560  0.2755E-84  0.1200E+02
 -10.550  0.2755E-84  0.1200E+02
 -10.540  0.2755E-84  0.1200E+02
 -10.530  0.2755E-84  0.1200E+02
 -10.520  0.2755E-84  0.1200E+02
 -10.510  0.2755E-84  0.1200E+02
 -10.500  0.2755E-84  0.1200E+02
 -10.490  0.2755E-84  0.1200E+02
 -10.480  0.2755E-84  0.1200E+02
 -10.470  0.2755E-84  0.1200E+02
 -10.460  0.2755E-84  0.1200E+02
 -10.450  0.2755E-84  0.1200E+02
 -10.440  0.2755E-84  0.1200E+02
 -10.430  0.2755E-84  0.1200E+02
 -10.420  0.2755E-84  0.1200E+02
 -10.410  0.2755E-84  0.1200E+02
 -10.400  0.2755E-84  0.1200E+02
 -10.390  0.2755E-84  0.1200E+02
 -10.380  0.2755E-84  0.1200E+02
 -10.370  0.2755E-84  0.1200E+02
 -10.360  0.2755E-84  0.1200E+02
 -10.350  0.2755E-84  0.1200E+02
 -10.340  0.2755E-84  0.1200E+02
 -10.330  0.2755E-84  0.1200E+02
 -10.320  0.2755E-84  0.1200E+02
 -10.310  0.2755E-84  0.1200E+02
 -10.300  0.2755E-84  0.1200E+02
 -10.290  0.2755E-84  0.1200E+02
 -10.280  0.2755E-84  0.1200E+02
 -10.270  0.2755E-84  0.1200E+02
 -10.260  0.2755E-84  0.1200E+02
 -10.250  0.2755E-84  0.1200E+02
 -10.240  0.2755E-84  0.1200E+02
 -10.230  0.2755E-84  0.1200E+02
 -10.220  0.2755E-84  0.1200E+02
 -10.210  0.2755E-84  0.1200E+02
 -10.200  0.2755E-84  0.1200E+02
 -10.190  0.2755E-84  0.1200E+02
 -10.180  0.2755E-84  0.1200E+02
 -10.170  0.2755E-84  0.1200E+02
 -10.160  0.2755E-84  0.1200E+02
 -10.150  0.2755E-84  0.1200E+02
 -10.140  0.2755E-84  0.1200E+02
 -10.130  0.2755E-84  0.1200E+02
 -10.120  0.2755E-84  0.1200E+02
 -10.110  0.2755E-84  0.1200E+02
 -10.100  0.2755E-84  0.1200E+02
 -10.090  0.2755E-84  0.1200E+02
 -10.080  0.2755E-84  0.1200E+02
 -10.070  0.2755E-84  0.1200E+02
 -10.060  0.2755E-84  0.1200E+02
 -10.050  0.2755E-84  0.1200E+02
 -10.040  0.2755E-84  0.1200E+02
 -10.030  0.2755E-84  0.1200E+02
 -10.020  0.2755E-84  0.1200E+02
 -10.010  0.2755E-84  0.1200E+02
 -10.000  0.2755E-84  0.1200E+02
  -9.990  0.2755E-84  0.1200E+02
  -9.980  0.2755E-84  0.1200E+02
  -9.970  0.2755E-84  0.1200E+02
  -9.960  0.2755E-84  0.1200E+02
  -9.950  0.2755E-84  0.1200E+02
  -9.940  0.2755E-84  0.1200E+02
  -9.930  0.2755E-84  0.1200E+02
  -9.920  0.2755E-84  0.1200E+02
  -9.910  0.2755E-84  0.1200E+02
  -9.900  0.2755E-84  0.1200E+02
  -9.890  0.2755E-84  0.1200E+02
  -9.880  0.2755E-84  0.1200E+02
  -9.870  0.2755E-84  0.1200E+02
  -9.860  0.2755E-84  0.1200E+02
  -9.850  0.2755E-84  0.1200E+02
  -9.840  0.2755E-84  0.1200E+02
  -9.830  0.2755E-84  0.1200E+02
  -9.820  0.2755E-84  0.1200E+02
  -9.810  0.2755E-84  0.1200E+02
  -9.800  0.2755E-84  0.1200E+02
  -9.790  0.2755E-84  0.1200E+02
  -9.780  0.2755E-84  0.1200E+02
  -9.770  0.2755E-84  0.1200E+02
  -9.760  0.2755E-84  0.1200E+02
  -9.750  0.2755E-84  0.1200E+02
  -9.740  0.2755E-84  0.1200E+02
  -9.730  0.2755E-84  0.1200E+02
  -9.720  0.2755E-84  0.1200E+02
  -9.710  0.2755E-84  0.1200E+02
  -9.700  0.2755E-84  0.1200E+02
  -9.690  0.2755E-84  0.1200E+02
  -9.680  0.2755E-84  0.1200E+02
  -9.670  0.2755E-84  0.1200E+02
  -9.660  0.2755E-84  0.1200E+02
  -9.650  0.2755E-84  0.1200E+02
  -9.640  0.2755E-84  0.1200E+02
  -9.630  0.2755E-84  0.1200E+02
  -9.620  0.2755E-84  0.1200E+02
  -9.610  0.2755E-84  0.1200E+02
  -9.600  0.2755E-84  0.1200E+02
  -9.590  0.2755E-84  0.1200E+02
  -9.580  0.2755E-84  0.1200E+02
  -9.570  0.2755E-84  0.1200E+02
  -9.560  0.2755E-84  0.1200E+02
  -9.550  0.2755E-84  0.1200E+02
  -9.540  0.2755E-84  0.1200E+02
  -9.530  0.2755E-84  0.1200E+02
  -9.520  0.2755E-84  0.1200E+02
  -9.510  0.2755E-84  0.1200E+02
  -9.500  0.2755E-84  0.1200E+02
  -9.490  0.2755E-84  0.1200E+02
  -9.480  0.2755E-84  0.1200E+02
  -9.470  0.2755E-84  0.1200E+02
  -9.460  0.2755E-84  0.1200E+02
  -9.450  0.2755E-84  0.1200E+02
  -9.440  0.2755E-84  0.1200E+02
  -9.430  0.2755E-84  0.1200E+02
  -9.420  0.2755E-84  0.1200E+02
  -9.410  0.2755E-84  0.1200E+02
  -9.400  0.2755E-84  0.1200E+02
  -9.390  0.2755E-84  0.1200E+02
  -9.380  0.2755E-84  0.1200E+02
  -9.370  0.2755E-84  0.1200E+02
  -9.360  0.2755E-84  0.1200E+02
  -9.350  0.2755E-84  0.1200E+02
  -9.340  0.2755E-84  0.1200E+02
  -9.330  0.2755E-84  0.1200E+02
  -9.320  0.2755E-84  0.1200E+02
  -9.310  0.2755E-84  0.1200E+02
  -9.300  0.2755E-84  0.1200E+02
  -9.290  0.2755E-84  0.1200E+02
  -9.280  0.2755E-84  0.1200E+02
  -9.270  0.2755E-84  0.1200E+02
  -9.260  0.2755E-84  0.1200E+02
  -9.250  0.2755E-84  0.1200E+02
  -9.240  0.2755E-84  0.1200E+02
  -9.230  0.2755E-84  0.1200E+02
  -9.220  0.2755E-84  0.1200E+02
  -9.210  0.2755E-84  0.1200E+02
  -9.200  0.2755E-84  0.1200E+02
  -9.190  0.2755E-84  0.1200E+02
  -9.180  0.2755E-84  0.1200E+02
  -9.170  0.2755E-84  0.1200E+02
  -9.160  0.2755E-84  0.1200E+02
  -9.150  0.2755E-84  0.1200E+02
  -9.140  0.2755E-84  0.1200E+02
  -9.130  0.2755E-84  0.1200E+02
  -9.120  0.2755E-84  0.1200E+02
  -9.110  0.2755E-84  0.1200E+02
  -9.100  0.2755E-84  0.1200E+02
  -9.090  0.2755E-84  0.1200E+02
  -9.080  0.2755E-84  0.1200E+02
  -9.070  0.2755E-84  0.1200E+02
  -9.060  0.2755E-84  0.1200E+02
  -9.050  0.2755E-84  0.1200E+02
  -9.040  0.2755E-84  0.1200E+02
  -9.030  0.2755E-84  0.1200E+02
  -9.020  0.2755E-84  0.1200E+02
  -9.010  0.2755E-84  0.1200E+02
  -9.000  0.2755E-84  0.1200E+02
  -8.990  0.2755E-84  0.1200E+02
  -8.980  0.2755E-84  0.1200E+02
  -8.970  0.2755E-84  0.1200E+02
  -8.960  0.2755E-84  0.1200E+02
  -8.950  0.2755E-84  0.1200E+02
  -8.940  0.2755E-84  0.1200E+02
  -8.930  0.2755E-84  0.1200E+02
  -8.920  0.2755E-84  0.1200E+02
  -8.910  0.2755E-84  0.1200E+02
  -8.900  0.2755E-84  0.1200E+02
  -8.890  0.2755E-84  0.1200E+02
  -8.880  0.2755E-84  0.1200E+02
  -8.870  0.2755E-84  0.1200E+02
  -8.860  0.2755E-84  0.1200E+02
  -8.850  0.2755E-84  0.1200E+02
  -8.840  0.2755E-84  0.1200E+02
  -8.830  0.2755E-84  0.1200E+02
  -8.820  0.2755E-84  0.1200E+02
  -8.810  0.2755E-84  0.1200E+02
  -8.800  0.2755E-84  0.1200E+02
  -8.790  0.2755E-84  0.1200E+02
  -8.780  0.2755E-84  0.1200E+02
  -8.770  0.2755E-84  0.1200E+02
  -8.760  0.2755E-84  0.1200E+02
  -8.750  0.2755E-84  0.1200E+02
  -8.740  0.2755E-84  0.1200E+02
  -8.730  0.2755E-84  0.1200E+02
  -8.720  0.2755E-84  0.1200E+02
  -8.710  0.2755E-84  0.1200E+02
  -8.700  0.2758E-84  0.1200E+02
  -8.690  0.2795E-84  0.1200E+02
  -8.680  0.3080E-84  0.1200E+02
  -8.670  0.5283E-84  0.1200E+02
  -8.660  0.2212E-83  0.1200E+02
  -8.650  0.1494E-82  0.1200E+02
  -8.640  0.1102E-81  0.1200E+02
  -8.630  0.8147E-81  0.1200E+02
  -8.620  0.5971E-80  0.1200E+02
  -8.610  0.4331E-79  0.1200E+02
  -8.600  0.3107E-78  0.1200E+02
  -8.590  0.2205E-77  0.1200E+02
  -8.580  0.1549E-76  0.1200E+02
  -8.570  0.1076E-75  0.1200E+02
  -8.560  0.7391E-75  0.1200E+02
  -8.550  0.5024E-74  0.1200E+02
  -8.540  0.3379E-73  0.1200E+02
  -8.530  0.2248E-72  0.1200E+02
  -8.520  0.1479E-71  0.1200E+02
  -8.510  0.9629E-71  0.1200E+02
  -8.500  0.6201E-70  0.1200E+02
  -8.490  0.3951E-69  0.1200E+02
  -8.480  0.2490E-68  0.1200E+02
  -8.470  0.1552E-67  0.1200E+02
  -8.460  0.9575E-67  0.1200E+02
  -8.450  0.5842E-66  0.1200E+02
  -8.440  0.3526E-65  0.1200E+02
  -8.430  0.2106E-64  0.1200E+02
  -8.420  0.1244E-63  0.1200E+02
  -8.410  0.7268E-63  0.1200E+02
  -8.400  0.4201E-62  0.1200E+02
  -8.390  0.2402E-61  0.1200E+02
  -8.380  0.1359E-60  0.1200E+02
  -8.370  0.7606E-60  0.1200E+02
  -8.360  0.4211E-59  0.1200E+02
  -8.350  0.2306E-58  0.1200E+02
  -8.340  0.1249E-57  0.1200E+02
  -8.330  0.6696E-57  0.1200E+02
  -8.320  0.3550E-56  0.1200E+02
  -8.310  0.1862E-55  0.1200E+02
  -8.300  0.9661E-55  0.1200E+02
  -8.290  0.4959E-54  0.1200E+02
  -8.280  0.2518E-53  0.1200E+02
  -8.270  0.1265E-52  0.1200E+02
  -8.260  0.6285E-52  0.1200E+02
  -8.250  0.3090E-51  0.1200E+02
  -8.240  0.1502E-50  0.1200E+02
  -8.230  0.7228E-50  0.1200E+02
  -8.220  0.3440E-49  0.1200E+02
  -8.210  0.1619E-48  0.1200E+02
  -8.200  0.7542E-48  0.1200E+02
  -8.190  0.3475E-47  0.1200E+02
  -8.180  0.1584E-46  0.1200E+02
  -8.170  0.7140E-46  0.1200E+02
  -8.160  0.3185E-45  0.1200E+02
  -8.150  0.1405E-44  0.1200E+02
  -8.140  0.6134E-44  0.1200E+02
  -8.130  0.2649E-43  0.1200E+02
  -8.120  0.1131E-42  0.1200E+02
  -8.110  0.4781E-42  0.1200E+02
  -8.100  0.1999E-41  0.1200E+02
  -8.090  0.8265E-41  0.1200E+02
  -8.080  0.3381E-40  0.1200E+02
  -8.070  0.1368E-39  0.1200E+02
  -8.060  0.5478E-39  0.1200E+02
  -8.050  0.2170E-38  0.1200E+02
  -8.040  0.8500E-38  0.1200E+02
  -8.030  0.3295E-37  0.1200E+02
  -8.020  0.1263E-36  0.1200E+02
  -8.010  0.4791E-36  0.1200E+02
  -8.000  0.1798E-35  0.1200E+02
  -7.990  0.6673E-35  0.1200E+02
  -7.980  0.2450E-34  0.1200E+02
  -7.970  0.8901E-34  0.1200E+02
  -7.960  0.3199E-33  0.1200E+02
  -7.950  0.1137E-32  0.1200E+02
  -7.940  0.3999E-32  0.1200E+02
  -7.930  0.1391E-31  0.1200E+02
  -7.920  0.4788E-31  0.1200E+02
  -7.910  0.1630E-30  0.1200E+02
  -7.900  0.5490E-30  0.1200E+02
  -7.890  0.1829E-29  0.1200E+02
  -7.880  0.6028E-29  0.1200E+02
  -7.870  0.1966E-28  0.1200E+02
  -7.860  0.6340E-28  0.1200E+02
  -7.850  0.2023E-27  0.1200E+02
  -7.840  0.6386E-27  0.1200E+02
  -7.830  0.1994E-26  0.1200E+02
  -7.820  0.6160E-26  0.1200E+02
  -7.810  0.1882E-25  0.1200E+02
  -7.800  0.5690E-25  0.1200E+02
  -7.790  0.1702E-24  0.1200E+02
  -7.780  0.5034E-24  0.1200E+02
  -7.770  0.1473E-23  0.1200E+02
  -7.760  0.4266E-23  0.1200E+02
  -7.750  0.1222E-22  0.1200E+02
  -7.740  0.3462E-22  0.1200E+02
  -7.730  0.9702E-22  0.1200E+02
  -7.720  0.2690E-21  0.1200E+02
  -7.710  0.7379E-21  0.1200E+02
  -7.700  0.2002E-20  0.1200E+02
  -7.690  0.5375E-20  0.1200E+02
  -7.680  0.1427E-19  0.1200E+02
  -7.670  0.3749E-19  0.1200E+02
  -7.660  0.9743E-19  0.1200E+02
  -7.650  0.2505E-18  0.1200E+02
  -7.640  0.6370E-18  0.1200E+02
  -7.630  0.1602E-17  0.1200E+02
  -7.620  0.3988E-17  0.1200E+02
  -7.610  0.9819E-17  0.1200E+02
  -7.600  0.2392E-16  0.1200E+02
  -7.590  0.5762E-16  0.1200E+02
  -7.580  0.1373E-15  0.1200E+02
  -7.570  0.3238E-15  0.1200E+02
  -7.560  0.7554E-15  0.1200E+02
  -7.550  0.1743E-14  0.1200E+02
  -7.540  0.3979E-14  0.1200E+02
  -7.530  0.8985E-14  0.1200E+02
  -7.520  0.2007E-13  0.1200E+02
  -7.510  0.4435E-13  0.1200E+02
  -7.500  0.9697E-13  0.1200E+02
  -7.490  0.2097E-12  0.1200E+02
  -7.480  0.4486E-12  0.1200E+02
  -7.470  0.9495E-12  0.1200E+02
  -7.460  0.1988E-11  0.1200E+02
  -7.450  0.4117E-11  0.1200E+02
  -7.440  0.8436E-11  0.1200E+02
  -7.430  0.1710E-10  0.1200E+02
  -7.420  0.3429E-10  0.1200E+02
  -7.410  0.6801E-10  0.1200E+02
  -7.400  0.1335E-09  0.1200E+02
  -7.390  0.2591E-09  0.1200E+02
  -7.380  0.4975E-09  0.1200E+02
  -7.370  0.9451E-09  0.1200E+02
  -7.360  0.1776E-08  0.1200E+02
  -7.350  0.3302E-08  0.1200E+02
  -7.340  0.6072E-08  0.1200E+02
  -7.330  0.1105E-07  0.1200E+02
  -7.320  0.1988E-07  0.1200E+02
  -7.310  0.3540E-07  0.1200E+02
  -7.300  0.6235E-07  0.1200E+02
  -7.290  0.1086E-06  0.1200E+02
  -7.280  0.1873E-06  0.1200E+02
  -7.270  0.3193E-06  0.1200E+02
  -7.260  0.5386E-06  0.1200E+02
  -7.250  0.8988E-06  0.1200E+02
  -7.240  0.1484E-05  0.1200E+02
  -7.230  0.2423E-05  0.1200E+02
  -7.220  0.3914E-05  0.1200E+02
  -7.210  0.6255E-05  0.1200E+02
  -7.200  0.9889E-05  0.1200E+02
  -7.190  0.1547E-04  0.1200E+02
  -7.180  0.2393E-04  0.1200E+02
  -7.170  0.3662E-04  0.1200E+02
  -7.160  0.5545E-04  0.1200E+02
  -7.150  0.8305E-04  0.1200E+02
  -7.140  0.1231E-03  0.1200E+02
  -7.130  0.1804E-03  0.1200E+02
  -7.120  0.2615E-03  0.1200E+02
  -7.110  0.3752E-03  0.1200E+02
  -7.100  0.5324E-03  0.1200E+02
  -7.090  0.7473E-03  0.1200E+02
  -7.080  0.1038E-02  0.1200E+02
  -7.070  0.1426E-02  0.1200E+02
  -7.060  0.1938E-02  0.1200E+02
  -7.050  0.2605E-02  0.1200E+02
  -7.040  0.3464E-02  0.1200E+02
  -7.030  0.4558E-02  0.1200E+02
  -7.020  0.5933E-02  0.1200E+02
  -7.010  0.7639E-02  0.1200E+02
  -7.000  0.9729E-02  0.1200E+02
  -6.990  0.1226E-01  0.1200E+02
  -6.980  0.1528E-01  0.1200E+02
  -6.970  0.1884E-01  0.1200E+02
  -6.960  0.2299E-01  0.1200E+02
  -6.950  0.2774E-01  0.1200E+02
  -6.940  0.3311E-01  0.1200E+02
  -6.930  0.3911E-01  0.1200E+02
  -6.920  0.4569E-01  0.1200E+02
  -6.910  0.5280E-01  0.1200E+02
  -6.900  0.6038E-01  0.1200E+02
  -6.890  0.6829E-01  0.1200E+02
  -6.880  0.7642E-01  0.1201E+02
  -6.870  0.8460E-01  0.1201E+02
  -6.860  0.9267E-01  0.1201E+02
  -6.850  0.1004E+00  0.1201E+02
  -6.840  0.1077E+00  0.1201E+02
  -6.830  0.1142E+00  0.1201E+02
  -6.820  0.1199E+00  0.1201E+02
  -6.810  0.1246E+00  0.1201E+02
  -6.800  0.1282E+00  0.1201E+02
  -6.790  0.1305E+00  0.1202E+02
  -6.780  0.1317E+00  0.1202E+02
  -6.770  0.1316E+00  0.1202E+02
  -6.760  0.1305E+00  0.1202E+02
  -6.750  0.1283E+00  0.1202E+02
  -6.740  0.1254E+00  0.1202E+02
  -6.730  0.1219E+00  0.1202E+02
  -6.720  0.1182E+00  0.1202E+02
  -6.710  0.1145E+00  0.1203E+02
  -6.700  0.1112E+00  0.1203E+02
  -6.690  0.1085E+00  0.1203E+02
  -6.680  0.1070E+00  0.1203E+02
  -6.670  0.1068E+00  0.1203E+02
  -6.660  0.1082E+00  0.1203E+02
  -6.650  0.1116E+00  0.1203E+02
  -6.640  0.1173E+00  0.1203E+02
  -6.630  0.1253E+00  0.1203E+02
  -6.620  0.1359E+00  0.1204E+02
  -6.610  0.1491E+00  0.1204E+02
  -6.600  0.1651E+00  0.1204E+02
  -6.590  0.1838E+00  0.1204E+02
  -6.580  0.2053E+00  0.1204E+02
  -6.570  0.2295E+00  0.1204E+02
  -6.560  0.2563E+00  0.1205E+02
  -6.550  0.2856E+00  0.1205E+02
  -6.540  0.3172E+00  0.1205E+02
  -6.530  0.3511E+00  0.1206E+02
  -6.520  0.3871E+00  0.1206E+02
  -6.510  0.4250E+00  0.1207E+02
  -6.500  0.4645E+00  0.1207E+02
  -6.490  0.5055E+00  0.1207E+02
  -6.480  0.5476E+00  0.1208E+02
  -6.470  0.5906E+00  0.1209E+02
  -6.460  0.6342E+00  0.1209E+02
  -6.450  0.6779E+00  0.1210E+02
  -6.440  0.7214E+00  0.1211E+02
  -6.430  0.7643E+00  0.1211E+02
  -6.420  0.8061E+00  0.1212E+02
  -6.410  0.8464E+00  0.1213E+02
  -6.400  0.8850E+00  0.1214E+02
  -6.390  0.9216E+00  0.1215E+02
  -6.380  0.9561E+00  0.1216E+02
  -6.370  0.9884E+00  0.1217E+02
  -6.360  0.1019E+01  0.1218E+02
  -6.350  0.1048E+01  0.1219E+02
  -6.340  0.1075E+01  0.1220E+02
  -6.330  0.1103E+01  0.1221E+02
  -6.320  0.1130E+01  0.1222E+02
  -6.310  0.1159E+01  0.1223E+02
  -6.300  0.1189E+01  0.1225E+02
  -6.290  0.1222E+01  0.1226E+02
  -6.280  0.1258E+01  0.1227E+02
  -6.270  0.1296E+01  0.1228E+02
  -6.260  0.1338E+01  0.1230E+02
  -6.250  0.1382E+01  0.1231E+02
  -6.240  0.1428E+01  0.1232E+02
  -6.230  0.1474E+01  0.1234E+02
  -6.220  0.1520E+01  0.1235E+02
  -6.210  0.1563E+01  0.1237E+02
  -6.200  0.1602E+01  0.1239E+02
  -6.190  0.1634E+01  0.1240E+02
  -6.180  0.1659E+01  0.1242E+02
  -6.170  0.1673E+01  0.1244E+02
  -6.160  0.1677E+01  0.1245E+02
  -6.150  0.1670E+01  0.1247E+02
  -6.140  0.1650E+01  0.1249E+02
  -6.130  0.1618E+01  0.1250E+02
  -6.120  0.1574E+01  0.1252E+02
  -6.110  0.1521E+01  0.1253E+02
  -6.100  0.1460E+01  0.1255E+02
  -6.090  0.1393E+01  0.1256E+02
  -6.080  0.1322E+01  0.1257E+02
  -6.070  0.1252E+01  0.1259E+02
  -6.060  0.1184E+01  0.1260E+02
  -6.050  0.1123E+01  0.1261E+02
  -6.040  0.1071E+01  0.1262E+02
  -6.030  0.1031E+01  0.1263E+02
  -6.020  0.1006E+01  0.1264E+02
  -6.010  0.9990E+00  0.1265E+02
  -6.000  0.1012E+01  0.1266E+02
  -5.990  0.1046E+01  0.1267E+02
  -5.980  0.1103E+01  0.1268E+02
  -5.970  0.1183E+01  0.1269E+02
  -5.960  0.1288E+01  0.1271E+02
  -5.950  0.1416E+01  0.1272E+02
  -5.940  0.1568E+01  0.1274E+02
  -5.930  0.1741E+01  0.1275E+02
  -5.920  0.1935E+01  0.1277E+02
  -5.910  0.2146E+01  0.1280E+02
  -5.900  0.2372E+01  0.1282E+02
  -5.890  0.2610E+01  0.1285E+02
  -5.880  0.2856E+01  0.1287E+02
  -5.870  0.3105E+01  0.1291E+02
  -5.860  0.3354E+01  0.1294E+02
  -5.850  0.3598E+01  0.1297E+02
  -5.840  0.3831E+01  0.1301E+02
  -5.830  0.4049E+01  0.1305E+02
  -5.820  0.4248E+01  0.1310E+02
  -5.810  0.4422E+01  0.1314E+02
  -5.800  0.4569E+01  0.1319E+02
  -5.790  0.4686E+01  0.1323E+02
  -5.780  0.4768E+01  0.1328E+02
  -5.770  0.4815E+01  0.1333E+02
  -5.760  0.4825E+01  0.1338E+02
  -5.750  0.4799E+01  0.1342E+02
  -5.740  0.4736E+01  0.1347E+02
  -5.730  0.4639E+01  0.1352E+02
  -5.720  0.4509E+01  0.1356E+02
  -5.710  0.4349E+01  0.1361E+02
  -5.700  0.4164E+01  0.1365E+02
  -5.690  0.3956E+01  0.1369E+02
  -5.680  0.3730E+01  0.1373E+02
  -5.670  0.3490E+01  0.1376E+02
  -5.660  0.3240E+01  0.1379E+02
  -5.650  0.2986E+01  0.1382E+02
  -5.640  0.2731E+01  0.1385E+02
  -5.630  0.2479E+01  0.1387E+02
  -5.620  0.2233E+01  0.1390E+02
  -5.610  0.1996E+01  0.1392E+02
  -5.600  0.1771E+01  0.1393E+02
  -5.590  0.1561E+01  0.1395E+02
  -5.580  0.1366E+01  0.1396E+02
  -5.570  0.1189E+01  0.1398E+02
  -5.560  0.1029E+01  0.1399E+02
  -5.550  0.8875E+00  0.1400E+02
  -5.540  0.7644E+00  0.1400E+02
  -5.530  0.6594E+00  0.1401E+02
  -5.520  0.5721E+00  0.1402E+02
  -5.510  0.5017E+00  0.1402E+02
  -5.500  0.4476E+00  0.1402E+02
  -5.490  0.4086E+00  0.1403E+02
  -5.480  0.3838E+00  0.1403E+02
  -5.470  0.3720E+00  0.1404E+02
  -5.460  0.3718E+00  0.1404E+02
  -5.450  0.3821E+00  0.1404E+02
  -5.440  0.4013E+00  0.1405E+02
  -5.430  0.4281E+00  0.1405E+02
  -5.420  0.4608E+00  0.1406E+02
  -5.410  0.4981E+00  0.1406E+02
  -5.400  0.5381E+00  0.1407E+02
  -5.390  0.5793E+00  0.1407E+02
  -5.380  0.6201E+00  0.1408E+02
  -5.370  0.6589E+00  0.1409E+02
  -5.360  0.6942E+00  0.1409E+02
  -5.350  0.7247E+00  0.1410E+02
  -5.340  0.7491E+00  0.1411E+02
  -5.330  0.7667E+00  0.1412E+02
  -5.320  0.7766E+00  0.1412E+02
  -5.310  0.7784E+00  0.1413E+02
  -5.300  0.7720E+00  0.1414E+02
  -5.290  0.7575E+00  0.1415E+02
  -5.280  0.7354E+00  0.1415E+02
  -5.270  0.7063E+00  0.1416E+02
  -5.260  0.6712E+00  0.1417E+02
  -5.250  0.6309E+00  0.1417E+02
  -5.240  0.5867E+00  0.1418E+02
  -5.230  0.5397E+00  0.1418E+02
  -5.220  0.4912E+00  0.1419E+02
  -5.210  0.4423E+00  0.1419E+02
  -5.200  0.3941E+00  0.1420E+02
  -5.190  0.3474E+00  0.1420E+02
  -5.180  0.3030E+00  0.1420E+02
  -5.170  0.2617E+00  0.1421E+02
  -5.160  0.2237E+00  0.1421E+02
  -5.150  0.1896E+00  0.1421E+02
  -5.140  0.1595E+00  0.1421E+02
  -5.130  0.1334E+00  0.1421E+02
  -5.120  0.1113E+00  0.1422E+02
  -5.110  0.9328E-01  0.1422E+02
  -5.100  0.7917E-01  0.1422E+02
  -5.090  0.6892E-01  0.1422E+02
  -5.080  0.6251E-01  0.1422E+02
  -5.070  0.5997E-01  0.1422E+02
  -5.060  0.6141E-01  0.1422E+02
  -5.050  0.6705E-01  0.1422E+02
  -5.040  0.7725E-01  0.1422E+02
  -5.030  0.9248E-01  0.1422E+02
  -5.020  0.1134E+00  0.1422E+02
  -5.010  0.1407E+00  0.1422E+02
  -5.000  0.1754E+00  0.1423E+02
  -4.990  0.2185E+00  0.1423E+02
  -4.980  0.2713E+00  0.1423E+02
  -4.970  0.3351E+00  0.1423E+02
  -4.960  0.4113E+00  0.1424E+02
  -4.950  0.5013E+00  0.1424E+02
  -4.940  0.6068E+00  0.1425E+02
  -4.930  0.7292E+00  0.1426E+02
  -4.920  0.8698E+00  0.1427E+02
  -4.910  0.1030E+01  0.1428E+02
  -4.900  0.1211E+01  0.1429E+02
  -4.890  0.1412E+01  0.1430E+02
  -4.880  0.1636E+01  0.1432E+02
  -4.870  0.1880E+01  0.1434E+02
  -4.860  0.2144E+01  0.1436E+02
  -4.850  0.2428E+01  0.1438E+02
  -4.840  0.2727E+01  0.1441E+02
  -4.830  0.3040E+01  0.1444E+02
  -4.820  0.3362E+01  0.1447E+02
  -4.810  0.3689E+01  0.1451E+02
  -4.800  0.4015E+01  0.1455E+02
  -4.790  0.4335E+01  0.1459E+02
  -4.780  0.4641E+01  0.1464E+02
  -4.770  0.4928E+01  0.1469E+02
  -4.760  0.5189E+01  0.1474E+02
  -4.750  0.5418E+01  0.1480E+02
  -4.740  0.5607E+01  0.1485E+02
  -4.730  0.5753E+01  0.1491E+02
  -4.720  0.5850E+01  0.1497E+02
  -4.710  0.5897E+01  0.1503E+02
  -4.700  0.5890E+01  0.1509E+02
  -4.690  0.5830E+01  0.1514E+02
  -4.680  0.5717E+01  0.1520E+02
  -4.670  0.5556E+01  0.1526E+02
  -4.660  0.5348E+01  0.1531E+02
  -4.650  0.5100E+01  0.1536E+02
  -4.640  0.4818E+01  0.1541E+02
  -4.630  0.4508E+01  0.1546E+02
  -4.620  0.4177E+01  0.1550E+02
  -4.610  0.3834E+01  0.1554E+02
  -4.600  0.3485E+01  0.1557E+02
  -4.590  0.3137E+01  0.1560E+02
  -4.580  0.2796E+01  0.1563E+02
  -4.570  0.2467E+01  0.1565E+02
  -4.560  0.2156E+01  0.1568E+02
  -4.550  0.1865E+01  0.1569E+02
  -4.540  0.1598E+01  0.1571E+02
  -4.530  0.1355E+01  0.1572E+02
  -4.520  0.1138E+01  0.1574E+02
  -4.510  0.9457E+00  0.1574E+02
  -4.500  0.7783E+00  0.1575E+02
  -4.490  0.6343E+00  0.1576E+02
  -4.480  0.5121E+00  0.1576E+02
  -4.470  0.4097E+00  0.1577E+02
  -4.460  0.3251E+00  0.1577E+02
  -4.450  0.2562E+00  0.1577E+02
  -4.440  0.2012E+00  0.1578E+02
  -4.430  0.1581E+00  0.1578E+02
  -4.420  0.1252E+00  0.1578E+02
  -4.410  0.1012E+00  0.1578E+02
  -4.400  0.8484E-01  0.1578E+02
  -4.390  0.7505E-01  0.1578E+02
  -4.380  0.7108E-01  0.1578E+02
  -4.370  0.7236E-01  0.1578E+02
  -4.360  0.7849E-01  0.1578E+02
  -4.350  0.8922E-01  0.1578E+02
  -4.340  0.1044E+00  0.1579E+02
  -4.330  0.1240E+00  0.1579E+02
  -4.320  0.1479E+00  0.1579E+02
  -4.310  0.1762E+00  0.1579E+02
  -4.300  0.2088E+00  0.1579E+02
  -4.290  0.2455E+00  0.1579E+02
  -4.280  0.2861E+00  0.1580E+02
  -4.270  0.3303E+00  0.1580E+02
  -4.260  0.3777E+00  0.1580E+02
  -4.250  0.4276E+00  0.1581E+02
  -4.240  0.4794E+00  0.1581E+02
  -4.230  0.5322E+00  0.1582E+02
  -4.220  0.5852E+00  0.1582E+02
  -4.210  0.6375E+00  0.1583E+02
  -4.200  0.6881E+00  0.1584E+02
  -4.190  0.7364E+00  0.1585E+02
  -4.180  0.7815E+00  0.1585E+02
  -4.170  0.8230E+00  0.1586E+02
  -4.160  0.8605E+00  0.1587E+02
  -4.150  0.8940E+00  0.1588E+02
  -4.140  0.9236E+00  0.1589E+02
  -4.130  0.9498E+00  0.1590E+02
  -4.120  0.9732E+00  0.1591E+02
  -4.110  0.9948E+00  0.1592E+02
  -4.100  0.1016E+01  0.1593E+02
  -4.090  0.1037E+01  0.1594E+02
  -4.080  0.1061E+01  0.1595E+02
  -4.070  0.1087E+01  0.1596E+02
  -4.060  0.1119E+01  0.1597E+02
  -4.050  0.1157E+01  0.1598E+02
  -4.040  0.1201E+01  0.1599E+02
  -4.030  0.1254E+01  0.1601E+02
  -4.020  0.1316E+01  0.1602E+02
  -4.010  0.1388E+01  0.1603E+02
  -4.000  0.1469E+01  0.1605E+02
  -3.990  0.1561E+01  0.1606E+02
  -3.980  0.1662E+01  0.1608E+02
  -3.970  0.1773E+01  0.1610E+02
  -3.960  0.1892E+01  0.1612E+02
  -3.950  0.2019E+01  0.1614E+02
  -3.940  0.2151E+01  0.1616E+02
  -3.930  0.2288E+01  0.1618E+02
  -3.920  0.2428E+01  0.1621E+02
  -3.910  0.2567E+01  0.1623E+02
  -3.900  0.2704E+01  0.1626E+02
  -3.890  0.2836E+01  0.1629E+02
  -3.880  0.2961E+01  0.1632E+02
  -3.870  0.3075E+01  0.1635E+02
  -3.860  0.3178E+01  0.1638E+02
  -3.850  0.3267E+01  0.1641E+02
  -3.840  0.3340E+01  0.1645E+02
  -3.830  0.3396E+01  0.1648E+02
  -3.820  0.3434E+01  0.1651E+02
  -3.810  0.3455E+01  0.1655E+02
  -3.800  0.3458E+01  0.1658E+02
  -3.790  0.3445E+01  0.1662E+02
  -3.780  0.3417E+01  0.1665E+02
  -3.770  0.3376E+01  0.1669E+02
  -3.760  0.3323E+01  0.1672E+02
  -3.750  0.3260E+01  0.1675E+02
  -3.740  0.3189E+01  0.1678E+02
  -3.730  0.3112E+01  0.1681E+02
  -3.720  0.3030E+01  0.1684E+02
  -3.710  0.2946E+01  0.1687E+02
  -3.700  0.2859E+01  0.1690E+02
  -3.690  0.2771E+01  0.1693E+02
  -3.680  0.2682E+01  0.1696E+02
  -3.670  0.2592E+01  0.1698E+02
  -3.660  0.2503E+01  0.1701E+02
  -3.650  0.2415E+01  0.1703E+02
  -3.640  0.2329E+01  0.1706E+02
  -3.630  0.2244E+01  0.1708E+02
  -3.620  0.2162E+01  0.1710E+02
  -3.610  0.2085E+01  0.1712E+02
  -3.600  0.2013E+01  0.1714E+02
  -3.590  0.1948E+01  0.1716E+02
  -3.580  0.1892E+01  0.1718E+02
  -3.570  0.1844E+01  0.1720E+02
  -3.560  0.1807E+01  0.1722E+02
  -3.550  0.1782E+01  0.1723E+02
  -3.540  0.1767E+01  0.1725E+02
  -3.530  0.1764E+01  0.1727E+02
  -3.520  0.1772E+01  0.1729E+02
  -3.510  0.1788E+01  0.1730E+02
  -3.500  0.1813E+01  0.1732E+02
  -3.490  0.1842E+01  0.1734E+02
  -3.480  0.1875E+01  0.1736E+02
  -3.470  0.1907E+01  0.1738E+02
  -3.460  0.1937E+01  0.1740E+02
  -3.450  0.1961E+01  0.1742E+02
  -3.440  0.1977E+01  0.1744E+02
  -3.430  0.1983E+01  0.1746E+02
  -3.420  0.1977E+01  0.1748E+02
  -3.410  0.1957E+01  0.1750E+02
  -3.400  0.1924E+01  0.1752E+02
  -3.390  0.1877E+01  0.1753E+02
  -3.380  0.1817E+01  0.1755E+02
  -3.370  0.1745E+01  0.1757E+02
  -3.360  0.1662E+01  0.1759E+02
  -3.350  0.1571E+01  0.1760E+02
  -3.340  0.1475E+01  0.1762E+02
  -3.330  0.1374E+01  0.1763E+02
  -3.320  0.1273E+01  0.1764E+02
  -3.310  0.1174E+01  0.1766E+02
  -3.300  0.1079E+01  0.1767E+02
  -3.290  0.9908E+00  0.1768E+02
  -3.280  0.9111E+00  0.1768E+02
  -3.270  0.8420E+00  0.1769E+02
  -3.260  0.7850E+00  0.1770E+02
  -3.250  0.7414E+00  0.1771E+02
  -3.240  0.7124E+00  0.1772E+02
  -3.230  0.6988E+00  0.1772E+02
  -3.220  0.7013E+00  0.1773E+02
  -3.210  0.7206E+00  0.1774E+02
  -3.200  0.7573E+00  0.1774E+02
  -3.190  0.8120E+00  0.1775E+02
  -3.180  0.8853E+00  0.1776E+02
  -3.170  0.9779E+00  0.1777E+02
  -3.160  0.1091E+01  0.1778E+02
  -3.150  0.1225E+01  0.1779E+02
  -3.140  0.1381E+01  0.1781E+02
  -3.130  0.1560E+01  0.1782E+02
  -3.120  0.1764E+01  0.1784E+02
  -3.110  0.1993E+01  0.1786E+02
  -3.100  0.2249E+01  0.1788E+02
  -3.090  0.2532E+01  0.1791E+02
  -3.080  0.2844E+01  0.1794E+02
  -3.070  0.3182E+01  0.1797E+02
  -3.060  0.3548E+01  0.1800E+02
  -3.050  0.3939E+01  0.1804E+02
  -3.040  0.4354E+01  0.1809E+02
  -3.030  0.4790E+01  0.1814E+02
  -3.020  0.5241E+01  0.1819E+02
  -3.010  0.5705E+01  0.1825E+02
  -3.000  0.6174E+01  0.1831E+02
  -2.990  0.6642E+01  0.1837E+02
  -2.980  0.7102E+01  0.1844E+02
  -2.970  0.7547E+01  0.1852E+02
  -2.960  0.7968E+01  0.1860E+02
  -2.950  0.8358E+01  0.1868E+02
  -2.940  0.8711E+01  0.1877E+02
  -2.930  0.9018E+01  0.1886E+02
  -2.920  0.9276E+01  0.1895E+02
  -2.910  0.9480E+01  0.1905E+02
  -2.900  0.9627E+01  0.1914E+02
  -2.890  0.9716E+01  0.1924E+02
  -2.880  0.9747E+01  0.1934E+02
  -2.870  0.9723E+01  0.1944E+02
  -2.860  0.9648E+01  0.1953E+02
  -2.850  0.9527E+01  0.1963E+02
  -2.840  0.9366E+01  0.1972E+02
  -2.830  0.9172E+01  0.1981E+02
  -2.820  0.8954E+01  0.1990E+02
  -2.810  0.8720E+01  0.1999E+02
  -2.800  0.8477E+01  0.2007E+02
  -2.790  0.8233E+01  0.2016E+02
  -2.780  0.7996E+01  0.2024E+02
  -2.770  0.7772E+01  0.2031E+02
  -2.760  0.7564E+01  0.2039E+02
  -2.750  0.7378E+01  0.2046E+02
  -2.740  0.7215E+01  0.2054E+02
  -2.730  0.7076E+01  0.2061E+02
  -2.720  0.6961E+01  0.2068E+02
  -2.710  0.6868E+01  0.2075E+02
  -2.700  0.6796E+01  0.2081E+02
  -2.690  0.6741E+01  0.2088E+02
  -2.680  0.6699E+01  0.2095E+02
  -2.670  0.6666E+01  0.2101E+02
  -2.660  0.6638E+01  0.2108E+02
  -2.650  0.6612E+01  0.2115E+02
  -2.640  0.6583E+01  0.2121E+02
  -2.630  0.6550E+01  0.2128E+02
  -2.620  0.6510E+01  0.2134E+02
  -2.610  0.6461E+01  0.2141E+02
  -2.600  0.6405E+01  0.2147E+02
  -2.590  0.6341E+01  0.2154E+02
  -2.580  0.6271E+01  0.2160E+02
  -2.570  0.6196E+01  0.2166E+02
  -2.560  0.6119E+01  0.2172E+02
  -2.550  0.6044E+01  0.2178E+02
  -2.540  0.5972E+01  0.2184E+02
  -2.530  0.5906E+01  0.2190E+02
  -2.520  0.5849E+01  0.2196E+02
  -2.510  0.5803E+01  0.2202E+02
  -2.500  0.5768E+01  0.2207E+02
  -2.490  0.5745E+01  0.2213E+02
  -2.480  0.5734E+01  0.2219E+02
  -2.470  0.5733E+01  0.2225E+02
  -2.460  0.5743E+01  0.2230E+02
  -2.450  0.5759E+01  0.2236E+02
  -2.440  0.5781E+01  0.2242E+02
  -2.430  0.5804E+01  0.2248E+02
  -2.420  0.5827E+01  0.2254E+02
  -2.410  0.5846E+01  0.2259E+02
  -2.400  0.5857E+01  0.2265E+02
  -2.390  0.5859E+01  0.2271E+02
  -2.380  0.5849E+01  0.2277E+02
  -2.370  0.5825E+01  0.2283E+02
  -2.360  0.5784E+01  0.2289E+02
  -2.350  0.5727E+01  0.2294E+02
  -2.340  0.5651E+01  0.2300E+02
  -2.330  0.5556E+01  0.2306E+02
  -2.320  0.5444E+01  0.2311E+02
  -2.310  0.5313E+01  0.2316E+02
  -2.300  0.5166E+01  0.2321E+02
  -2.290  0.5003E+01  0.2326E+02
  -2.280  0.4828E+01  0.2331E+02
  -2.270  0.4642E+01  0.2336E+02
  -2.260  0.4447E+01  0.2340E+02
  -2.250  0.4247E+01  0.2345E+02
  -2.240  0.4044E+01  0.2349E+02
  -2.230  0.3840E+01  0.2353E+02
  -2.220  0.3638E+01  0.2356E+02
  -2.210  0.3441E+01  0.2360E+02
  -2.200  0.3249E+01  0.2363E+02
  -2.190  0.3063E+01  0.2366E+02
  -2.180  0.2886E+01  0.2369E+02
  -2.170  0.2716E+01  0.2372E+02
  -2.160  0.2554E+01  0.2374E+02
  -2.150  0.2400E+01  0.2376E+02
  -2.140  0.2252E+01  0.2379E+02
  -2.130  0.2110E+01  0.2381E+02
  -2.120  0.1973E+01  0.2383E+02
  -2.110  0.1840E+01  0.2385E+02
  -2.100  0.1711E+01  0.2386E+02
  -2.090  0.1585E+01  0.2388E+02
  -2.080  0.1462E+01  0.2389E+02
  -2.070  0.1341E+01  0.2391E+02
  -2.060  0.1223E+01  0.2392E+02
  -2.050  0.1108E+01  0.2393E+02
  -2.040  0.9975E+00  0.2394E+02
  -2.030  0.8910E+00  0.2395E+02
  -2.020  0.7897E+00  0.2396E+02
  -2.010  0.6940E+00  0.2396E+02
  -2.000  0.6047E+00  0.2397E+02
  -1.990  0.5222E+00  0.2398E+02
  -1.980  0.4468E+00  0.2398E+02
  -1.970  0.3786E+00  0.2398E+02
  -1.960  0.3178E+00  0.2399E+02
  -1.950  0.2641E+00  0.2399E+02
  -1.940  0.2174E+00  0.2399E+02
  -1.930  0.1771E+00  0.2399E+02
  -1.920  0.1428E+00  0.2400E+02
  -1.910  0.1139E+00  0.2400E+02
  -1.900  0.8999E-01  0.2400E+02
  -1.890  0.7034E-01  0.2400E+02
  -1.880  0.5441E-01  0.2400E+02
  -1.870  0.4164E-01  0.2400E+02
  -1.860  0.3154E-01  0.2400E+02
  -1.850  0.2363E-01  0.2400E+02
  -1.840  0.1752E-01  0.2400E+02
  -1.830  0.1286E-01  0.2400E+02
  -1.820  0.9331E-02  0.2400E+02
  -1.810  0.6700E-02  0.2400E+02
  -1.800  0.4760E-02  0.2400E+02
  -1.790  0.3346E-02  0.2400E+02
  -1.780  0.2327E-02  0.2400E+02
  -1.770  0.1601E-02  0.2400E+02
  -1.760  0.1090E-02  0.2400E+02
  -1.750  0.7338E-03  0.2400E+02
  -1.740  0.4889E-03  0.2400E+02
  -1.730  0.3222E-03  0.2400E+02
  -1.720  0.2101E-03  0.2400E+02
  -1.710  0.1355E-03  0.2400E+02
  -1.700  0.8647E-04  0.2400E+02
  -1.690  0.5459E-04  0.2400E+02
  -1.680  0.3409E-04  0.2400E+02
  -1.670  0.2107E-04  0.2400E+02
  -1.660  0.1288E-04  0.2400E+02
  -1.650  0.7786E-05  0.2400E+02
  -1.640  0.4658E-05  0.2400E+02
  -1.630  0.2757E-05  0.2400E+02
  -1.620  0.1614E-05  0.2400E+02
  -1.610  0.9347E-06  0.2400E+02
  -1.600  0.5356E-06  0.2400E+02
  -1.590  0.3036E-06  0.2400E+02
  -1.580  0.1702E-06  0.2400E+02
  -1.570  0.9444E-07  0.2400E+02
  -1.560  0.5183E-07  0.2400E+02
  -1.550  0.2814E-07  0.2400E+02
  -1.540  0.1511E-07  0.2400E+02
  -1.530  0.8029E-08  0.2400E+02
  -1.520  0.4220E-08  0.2400E+02
  -1.510  0.2194E-08  0.2400E+02
  -1.500  0.1129E-08  0.2400E+02
  -1.490  0.5745E-09  0.2400E+02
  -1.480  0.2892E-09  0.2400E+02
  -1.470  0.1440E-09  0.2400E+02
  -1.460  0.7096E-10  0.2400E+02
  -1.450  0.3459E-10  0.2400E+02
  -1.440  0.1668E-10  0.2400E+02
  -1.430  0.7957E-11  0.2400E+02
  -1.420  0.3759E-11  0.2400E+02
  -1.410  0.1765E-11  0.2400E+02
  -1.400  0.8392E-12  0.2400E+02
  -1.390  0.4375E-12  0.2400E+02
  -1.380  0.3188E-12  0.2400E+02
  -1.370  0.4100E-12  0.2400E+02
  -1.360  0.7665E-12  0.2400E+02
  -1.350  0.1601E-11  0.2400E+02
  -1.340  0.3404E-11  0.2400E+02
  -1.330  0.7200E-11  0.2400E+02
  -1.320  0.1509E-10  0.2400E+02
  -1.310  0.3129E-10  0.2400E+02
  -1.300  0.6420E-10  0.2400E+02
  -1.290  0.1304E-09  0.2400E+02
  -1.280  0.2619E-09  0.2400E+02
  -1.270  0.5206E-09  0.2400E+02
  -1.260  0.1024E-08  0.2400E+02
  -1.250  0.1993E-08  0.2400E+02
  -1.240  0.3840E-08  0.2400E+02
  -1.230  0.7319E-08  0.2400E+02
  -1.220  0.1380E-07  0.2400E+02
  -1.210  0.2577E-07  0.2400E+02
  -1.200  0.4759E-07  0.2400E+02
  -1.190  0.8700E-07  0.2400E+02
  -1.180  0.1574E-06  0.2400E+02
  -1.170  0.2818E-06  0.2400E+02
  -1.160  0.4993E-06  0.2400E+02
  -1.150  0.8755E-06  0.2400E+02
  -1.140  0.1520E-05  0.2400E+02
  -1.130  0.2610E-05  0.2400E+02
  -1.120  0.4438E-05  0.2400E+02
  -1.110  0.7469E-05  0.2400E+02
  -1.100  0.1244E-04  0.2400E+02
  -1.090  0.2051E-04  0.2400E+02
  -1.080  0.3348E-04  0.2400E+02
  -1.070  0.5409E-04  0.2400E+02
  -1.060  0.8651E-04  0.2400E+02
  -1.050  0.1370E-03  0.2400E+02
  -1.040  0.2147E-03  0.2400E+02
  -1.030  0.3332E-03  0.2400E+02
  -1.020  0.5119E-03  0.2400E+02
  -1.010  0.7787E-03  0.2400E+02
  -1.000  0.1173E-02  0.2400E+02
  -0.990  0.1749E-02  0.2400E+02
  -0.980  0.2582E-02  0.2400E+02
  -0.970  0.3775E-02  0.2400E+02
  -0.960  0.5466E-02  0.2400E+02
  -0.950  0.7836E-02  0.2400E+02
  -0.940  0.1113E-01  0.2400E+02
  -0.930  0.1564E-01  0.2400E+02
  -0.920  0.2178E-01  0.2400E+02
  -0.910  0.3004E-01  0.2400E+02
  -0.900  0.4104E-01  0.2400E+02
  -0.890  0.5552E-01  0.2400E+02
  -0.880  0.7439E-01  0.2400E+02
  -0.870  0.9875E-01  0.2400E+02
  -0.860  0.1298E+00  0.2401E+02
  -0.850  0.1691E+00  0.2401E+02
  -0.840  0.2182E+00  0.2401E+02
  -0.830  0.2789E+00  0.2401E+02
  -0.820  0.3531E+00  0.2402E+02
  -0.810  0.4430E+00  0.2402E+02
  -0.800  0.5506E+00  0.2403E+02
  -0.790  0.6781E+00  0.2403E+02
  -0.780  0.8274E+00  0.2404E+02
  -0.770  0.1001E+01  0.2405E+02
  -0.760  0.1199E+01  0.2406E+02
  -0.750  0.1424E+01  0.2408E+02
  -0.740  0.1675E+01  0.2409E+02
  -0.730  0.1954E+01  0.2411E+02
  -0.720  0.2259E+01  0.2414E+02
  -0.710  0.2589E+01  0.2416E+02
  -0.700  0.2942E+01  0.2419E+02
  -0.690  0.3315E+01  0.2422E+02
  -0.680  0.3703E+01  0.2426E+02
  -0.670  0.4102E+01  0.2430E+02
  -0.660  0.4508E+01  0.2435E+02
  -0.650  0.4915E+01  0.2440E+02
  -0.640  0.5317E+01  0.2445E+02
  -0.630  0.5708E+01  0.2451E+02
  -0.620  0.6083E+01  0.2457E+02
  -0.610  0.6437E+01  0.2463E+02
  -0.600  0.6766E+01  0.2470E+02
  -0.590  0.7065E+01  0.2477E+02
  -0.580  0.7331E+01  0.2484E+02
  -0.570  0.7563E+01  0.2492E+02
  -0.560  0.7759E+01  0.2500E+02
  -0.550  0.7920E+01  0.2508E+02
  -0.540  0.8045E+01  0.2516E+02
  -0.530  0.8137E+01  0.2524E+02
  -0.520  0.8198E+01  0.2532E+02
  -0.510  0.8229E+01  0.2540E+02
  -0.500  0.8234E+01  0.2548E+02
  -0.490  0.8215E+01  0.2557E+02
  -0.480  0.8176E+01  0.2565E+02
  -0.470  0.8119E+01  0.2573E+02
  -0.460  0.8047E+01  0.2581E+02
  -0.450  0.7963E+01  0.2589E+02
  -0.440  0.7868E+01  0.2597E+02
  -0.430  0.7764E+01  0.2605E+02
  -0.420  0.7653E+01  0.2612E+02
  -0.410  0.7537E+01  0.2620E+02
  -0.400  0.7416E+01  0.2627E+02
  -0.390  0.7293E+01  0.2634E+02
  -0.380  0.7166E+01  0.2642E+02
  -0.370  0.7039E+01  0.2649E+02
  -0.360  0.6912E+01  0.2656E+02
  -0.350  0.6785E+01  0.2662E+02
  -0.340  0.6661E+01  0.2669E+02
  -0.330  0.6541E+01  0.2676E+02
  -0.320  0.6427E+01  0.2682E+02
  -0.310  0.6320E+01  0.2688E+02
  -0.300  0.6224E+01  0.2695E+02
  -0.290  0.6140E+01  0.2701E+02
  -0.280  0.6071E+01  0.2707E+02
  -0.270  0.6021E+01  0.2713E+02
  -0.260  0.5991E+01  0.2719E+02
  -0.250  0.5985E+01  0.2725E+02
  -0.240  0.6004E+01  0.2731E+02
  -0.230  0.6050E+01  0.2737E+02
  -0.220  0.6123E+01  0.2743E+02
  -0.210  0.6224E+01  0.2749E+02
  -0.200  0.6352E+01  0.2755E+02
  -0.190  0.6503E+01  0.2762E+02
  -0.180  0.6676E+01  0.2769E+02
  -0.170  0.6864E+01  0.2776E+02
  -0.160  0.7064E+01  0.2783E+02
  -0.150  0.7268E+01  0.2790E+02
  -0.140  0.7470E+01  0.2797E+02
  -0.130  0.7664E+01  0.2805E+02
  -0.120  0.7842E+01  0.2813E+02
  -0.110  0.7999E+01  0.2821E+02
  -0.100  0.8128E+01  0.2829E+02
  -0.090  0.8224E+01  0.2837E+02
  -0.080  0.8284E+01  0.2845E+02
  -0.070  0.8305E+01  0.2854E+02
  -0.060  0.8287E+01  0.2862E+02
  -0.050  0.8228E+01  0.2870E+02
  -0.040  0.8132E+01  0.2878E+02
  -0.030  0.8000E+01  0.2886E+02
  -0.020  0.7837E+01  0.2894E+02
  -0.010  0.7645E+01  0.2902E+02
  -0.000  0.7432E+01  0.2909E+02
   0.010  0.7201E+01  0.2917E+02
   0.020  0.6959E+01  0.2923E+02
   0.030  0.6710E+01  0.2930E+02
   0.040  0.6459E+01  0.2937E+02
   0.050  0.6212E+01  0.2943E+02
   0.060  0.5972E+01  0.2949E+02
   0.070  0.5744E+01  0.2955E+02
   0.080  0.5529E+01  0.2960E+02
   0.090  0.5331E+01  0.2965E+02
   0.100  0.5152E+01  0.2971E+02
   0.110  0.4994E+01  0.2976E+02
   0.120  0.4858E+01  0.2980E+02
   0.130  0.4745E+01  0.2985E+02
   0.140  0.4656E+01  0.2990E+02
   0.150  0.4591E+01  0.2994E+02
   0.160  0.4552E+01  0.2999E+02
   0.170  0.4539E+01  0.3004E+02
   0.180  0.4552E+01  0.3008E+02
   0.190  0.4592E+01  0.3013E+02
   0.200  0.4658E+01  0.3017E+02
   0.210  0.4749E+01  0.3022E+02
   0.220  0.4866E+01  0.3027E+02
   0.230  0.5006E+01  0.3032E+02
   0.240  0.5169E+01  0.3037E+02
   0.250  0.5353E+01  0.3042E+02
   0.260  0.5554E+01  0.3048E+02
   0.270  0.5770E+01  0.3054E+02
   0.280  0.5998E+01  0.3060E+02
   0.290  0.6234E+01  0.3066E+02
   0.300  0.6472E+01  0.3073E+02
   0.310  0.6711E+01  0.3079E+02
   0.320  0.6944E+01  0.3086E+02
   0.330  0.7169E+01  0.3093E+02
   0.340  0.7381E+01  0.3101E+02
   0.350  0.7577E+01  0.3108E+02
   0.360  0.7755E+01  0.3116E+02
   0.370  0.7912E+01  0.3124E+02
   0.380  0.8047E+01  0.3132E+02
   0.390  0.8160E+01  0.3140E+02
   0.400  0.8250E+01  0.3148E+02
   0.410  0.8320E+01  0.3157E+02
   0.420  0.8369E+01  0.3165E+02
   0.430  0.8401E+01  0.3174E+02
   0.440  0.8418E+01  0.3182E+02
   0.450  0.8422E+01  0.3190E+02
   0.460  0.8415E+01  0.3199E+02
   0.470  0.8400E+01  0.3207E+02
   0.480  0.8378E+01  0.3216E+02
   0.490  0.8351E+01  0.3224E+02
   0.500  0.8319E+01  0.3232E+02
   0.510  0.8283E+01  0.3241E+02
   0.520  0.8242E+01  0.3249E+02
   0.530  0.8194E+01  0.3257E+02
   0.540  0.8139E+01  0.3265E+02
   0.550  0.8074E+01  0.3273E+02
   0.560  0.7998E+01  0.3281E+02
   0.570  0.7909E+01  0.3289E+02
   0.580  0.7806E+01  0.3297E+02
   0.590  0.7687E+01  0.3305E+02
   0.600  0.7554E+01  0.3312E+02
   0.610  0.7407E+01  0.3320E+02
   0.620  0.7247E+01  0.3327E+02
   0.630  0.7078E+01  0.3334E+02
   0.640  0.6902E+01  0.3341E+02
   0.650  0.6725E+01  0.3347E+02
   0.660  0.6549E+01  0.3354E+02
   0.670  0.6381E+01  0.3360E+02
   0.680  0.6226E+01  0.3367E+02
   0.690  0.6086E+01  0.3373E+02
   0.700  0.5968E+01  0.3379E+02
   0.710  0.5872E+01  0.3385E+02
   0.720  0.5802E+01  0.3390E+02
   0.730  0.5759E+01  0.3396E+02
   0.740  0.5740E+01  0.3402E+02
   0.750  0.5746E+01  0.3408E+02
   0.760  0.5773E+01  0.3413E+02
   0.770  0.5819E+01  0.3419E+02
   0.780  0.5878E+01  0.3425E+02
   0.790  0.5947E+01  0.3431E+02
   0.800  0.6022E+01  0.3437E+02
   0.810  0.6098E+01  0.3443E+02
   0.820  0.6174E+01  0.3449E+02
   0.830  0.6246E+01  0.3456E+02
   0.840  0.6313E+01  0.3462E+02
   0.850  0.6376E+01  0.3468E+02
   0.860  0.6435E+01  0.3475E+02
   0.870  0.6493E+01  0.3481E+02
   0.880  0.6551E+01  0.3488E+02
   0.890  0.6614E+01  0.3494E+02
   0.900  0.6685E+01  0.3501E+02
   0.910  0.6767E+01  0.3508E+02
   0.920  0.6865E+01  0.3515E+02
   0.930  0.6980E+01  0.3522E+02
   0.940  0.7114E+01  0.3529E+02
   0.950  0.7269E+01  0.3536E+02
   0.960  0.7443E+01  0.3543E+02
   0.970  0.7636E+01  0.3551E+02
   0.980  0.7845E+01  0.3559E+02
   0.990  0.8066E+01  0.3567E+02
   1.000  0.8295E+01  0.3575E+02
   1.010  0.8525E+01  0.3584E+02
   1.020  0.8752E+01  0.3593E+02
   1.030  0.8968E+01  0.3602E+02
   1.040  0.9169E+01  0.3611E+02
   1.050  0.9348E+01  0.3620E+02
   1.060  0.9500E+01  0.3630E+02
   1.070  0.9622E+01  0.3639E+02
   1.080  0.9709E+01  0.3649E+02
   1.090  0.9760E+01  0.3659E+02
   1.100  0.9775E+01  0.3668E+02
   1.110  0.9752E+01  0.3678E+02
   1.120  0.9695E+01  0.3688E+02
   1.130  0.9606E+01  0.3697E+02
   1.140  0.9488E+01  0.3707E+02
   1.150  0.9346E+01  0.3716E+02
   1.160  0.9185E+01  0.3725E+02
   1.170  0.9009E+01  0.3735E+02
   1.180  0.8825E+01  0.3743E+02
   1.190  0.8638E+01  0.3752E+02
   1.200  0.8452E+01  0.3760E+02
   1.210  0.8272E+01  0.3769E+02
   1.220  0.8102E+01  0.3777E+02
   1.230  0.7945E+01  0.3785E+02
   1.240  0.7804E+01  0.3793E+02
   1.250  0.7680E+01  0.3800E+02
   1.260  0.7575E+01  0.3808E+02
   1.270  0.7490E+01  0.3815E+02
   1.280  0.7424E+01  0.3823E+02
   1.290  0.7378E+01  0.3830E+02
   1.300  0.7351E+01  0.3837E+02
   1.310  0.7342E+01  0.3845E+02
   1.320  0.7350E+01  0.3852E+02
   1.330  0.7375E+01  0.3860E+02
   1.340  0.7414E+01  0.3867E+02
   1.350  0.7469E+01  0.3874E+02
   1.360  0.7536E+01  0.3882E+02
   1.370  0.7616E+01  0.3890E+02
   1.380  0.7706E+01  0.3897E+02
   1.390  0.7807E+01  0.3905E+02
   1.400  0.7917E+01  0.3913E+02
   1.410  0.8035E+01  0.3921E+02
   1.420  0.8158E+01  0.3929E+02
   1.430  0.8286E+01  0.3937E+02
   1.440  0.8417E+01  0.3946E+02
   1.450  0.8548E+01  0.3954E+02
   1.460  0.8678E+01  0.3963E+02
   1.470  0.8804E+01  0.3972E+02
   1.480  0.8923E+01  0.3981E+02
   1.490  0.9034E+01  0.3990E+02
   1.500  0.9134E+01  0.3999E+02
   1.510  0.9221E+01  0.4008E+02
   1.520  0.9293E+01  0.4018E+02
   1.530  0.9347E+01  0.4027E+02
   1.540  0.9383E+01  0.4036E+02
   1.550  0.9400E+01  0.4046E+02
   1.560  0.9396E+01  0.4055E+02
   1.570  0.9372E+01  0.4064E+02
   1.580  0.9328E+01  0.4074E+02
   1.590  0.9264E+01  0.4083E+02
   1.600  0.9182E+01  0.4092E+02
   1.610  0.9084E+01  0.4101E+02
   1.620  0.8972E+01  0.4110E+02
   1.630  0.8847E+01  0.4119E+02
   1.640  0.8714E+01  0.4128E+02
   1.650  0.8574E+01  0.4136E+02
   1.660  0.8431E+01  0.4145E+02
   1.670  0.8288E+01  0.4153E+02
   1.680  0.8147E+01  0.4161E+02
   1.690  0.8012E+01  0.4169E+02
   1.700  0.7883E+01  0.4177E+02
   1.710  0.7764E+01  0.4185E+02
   1.720  0.7656E+01  0.4193E+02
   1.730  0.7560E+01  0.4200E+02
   1.740  0.7475E+01  0.4208E+02
   1.750  0.7403E+01  0.4215E+02
   1.760  0.7342E+01  0.4222E+02
   1.770  0.7291E+01  0.4230E+02
   1.780  0.7248E+01  0.4237E+02
   1.790  0.7211E+01  0.4244E+02
   1.800  0.7177E+01  0.4251E+02
   1.810  0.7145E+01  0.4258E+02
   1.820  0.7110E+01  0.4266E+02
   1.830  0.7070E+01  0.4273E+02
   1.840  0.7023E+01  0.4280E+02
   1.850  0.6966E+01  0.4287E+02
   1.860  0.6897E+01  0.4293E+02
   1.870  0.6815E+01  0.4300E+02
   1.880  0.6720E+01  0.4307E+02
   1.890  0.6611E+01  0.4314E+02
   1.900  0.6491E+01  0.4320E+02
   1.910  0.6360E+01  0.4326E+02
   1.920  0.6223E+01  0.4333E+02
   1.930  0.6081E+01  0.4339E+02
   1.940  0.5940E+01  0.4345E+02
   1.950  0.5803E+01  0.4351E+02
   1.960  0.5676E+01  0.4356E+02
   1.970  0.5563E+01  0.4362E+02
   1.980  0.5468E+01  0.4367E+02
   1.990  0.5397E+01  0.4373E+02
   2.000  0.5351E+01  0.4378E+02
   2.010  0.5334E+01  0.4383E+02
   2.020  0.5348E+01  0.4389E+02
   2.030  0.5393E+01  0.4394E+02
   2.040  0.5467E+01  0.4400E+02
   2.050  0.5571E+01  0.4405E+02
   2.060  0.5699E+01  0.4411E+02
   2.070  0.5850E+01  0.4417E+02
   2.080  0.6017E+01  0.4423E+02
   2.090  0.6196E+01  0.4429E+02
   2.100  0.6380E+01  0.4435E+02
   2.110  0.6563E+01  0.4442E+02
   2.120  0.6741E+01  0.4449E+02
   2.130  0.6907E+01  0.4455E+02
   2.140  0.7056E+01  0.4462E+02
   2.150  0.7186E+01  0.4470E+02
   2.160  0.7293E+01  0.4477E+02
   2.170  0.7375E+01  0.4484E+02
   2.180  0.7433E+01  0.4492E+02
   2.190  0.7467E+01  0.4499E+02
   2.200  0.7480E+01  0.4507E+02
   2.210  0.7473E+01  0.4514E+02
   2.220  0.7452E+01  0.4522E+02
   2.230  0.7420E+01  0.4529E+02
   2.240  0.7381E+01  0.4536E+02
   2.250  0.7341E+01  0.4544E+02
   2.260  0.7305E+01  0.4551E+02
   2.270  0.7275E+01  0.4558E+02
   2.280  0.7256E+01  0.4566E+02
   2.290  0.7250E+01  0.4573E+02
   2.300  0.7258E+01  0.4580E+02
   2.310  0.7283E+01  0.4587E+02
   2.320  0.7322E+01  0.4595E+02
   2.330  0.7375E+01  0.4602E+02
   2.340  0.7440E+01  0.4610E+02
   2.350  0.7513E+01  0.4617E+02
   2.360  0.7590E+01  0.4625E+02
   2.370  0.7666E+01  0.4632E+02
   2.380  0.7738E+01  0.4640E+02
   2.390  0.7799E+01  0.4648E+02
   2.400  0.7844E+01  0.4656E+02
   2.410  0.7870E+01  0.4664E+02
   2.420  0.7870E+01  0.4671E+02
   2.430  0.7843E+01  0.4679E+02
   2.440  0.7784E+01  0.4687E+02
   2.450  0.7691E+01  0.4695E+02
   2.460  0.7564E+01  0.4702E+02
   2.470  0.7402E+01  0.4710E+02
   2.480  0.7206E+01  0.4717E+02
   2.490  0.6976E+01  0.4724E+02
   2.500  0.6716E+01  0.4731E+02
   2.510  0.6429E+01  0.4737E+02
   2.520  0.6118E+01  0.4743E+02
   2.530  0.5787E+01  0.4749E+02
   2.540  0.5440E+01  0.4754E+02
   2.550  0.5082E+01  0.4759E+02
   2.560  0.4717E+01  0.4764E+02
   2.570  0.4350E+01  0.4769E+02
   2.580  0.3986E+01  0.4773E+02
   2.590  0.3627E+01  0.4776E+02
   2.600  0.3277E+01  0.4779E+02
