#  E (eV)   dos(E)     Int dos(E) EFermi =   2.576 eV
 -17.180  0.4986E-05  0.4986E-07
 -17.170  0.7956E-05  0.1294E-06
 -17.160  0.1257E-04  0.2551E-06
 -17.150  0.1967E-04  0.4518E-06
 -17.140  0.3047E-04  0.7565E-06
 -17.130  0.4673E-04  0.1224E-05
 -17.120  0.7099E-04  0.1934E-05
 -17.110  0.1068E-03  0.3001E-05
 -17.100  0.1590E-03  0.4592E-05
 -17.090  0.2346E-03  0.6938E-05
 -17.080  0.3427E-03  0.1037E-04
 -17.070  0.4958E-03  0.1532E-04
 -17.060  0.7104E-03  0.2243E-04
 -17.050  0.1008E-02  0.3251E-04
 -17.040  0.1417E-02  0.4668E-04
 -17.030  0.1972E-02  0.6640E-04
 -17.020  0.2720E-02  0.9360E-04
 -17.010  0.3715E-02  0.1307E-03
 -17.000  0.5026E-02  0.1810E-03
 -16.990  0.6738E-02  0.2484E-03
 -16.980  0.8947E-02  0.3379E-03
 -16.970  0.1177E-01  0.4556E-03
 -16.960  0.1535E-01  0.6091E-03
 -16.950  0.1983E-01  0.8073E-03
 -16.940  0.2538E-01  0.1061E-02
 -16.930  0.3220E-01  0.1383E-02
 -16.920  0.4050E-01  0.1788E-02
 -16.910  0.5049E-01  0.2293E-02
 -16.900  0.6241E-01  0.2917E-02
 -16.890  0.7648E-01  0.3682E-02
 -16.880  0.9295E-01  0.4612E-02
 -16.870  0.1120E+00  0.5732E-02
 -16.860  0.1340E+00  0.7071E-02
 -16.850  0.1589E+00  0.8660E-02
 -16.840  0.1870E+00  0.1053E-01
 -16.830  0.2185E+00  0.1272E-01
 -16.820  0.2534E+00  0.1525E-01
 -16.810  0.2917E+00  0.1817E-01
 -16.800  0.3335E+00  0.2150E-01
 -16.790  0.3787E+00  0.2529E-01
 -16.780  0.4272E+00  0.2956E-01
 -16.770  0.4788E+00  0.3435E-01
 -16.760  0.5334E+00  0.3968E-01
 -16.750  0.5908E+00  0.4559E-01
 -16.740  0.6507E+00  0.5210E-01
 -16.730  0.7127E+00  0.5922E-01
 -16.720  0.7766E+00  0.6699E-01
 -16.710  0.8420E+00  0.7541E-01
 -16.700  0.9087E+00  0.8450E-01
 -16.690  0.9763E+00  0.9426E-01
 -16.680  0.1045E+01  0.1047E+00
 -16.670  0.1113E+01  0.1158E+00
 -16.660  0.1183E+01  0.1277E+00
 -16.650  0.1252E+01  0.1402E+00
 -16.640  0.1321E+01  0.1534E+00
 -16.630  0.1390E+01  0.1673E+00
 -16.620  0.1460E+01  0.1819E+00
 -16.610  0.1530E+01  0.1972E+00
 -16.600  0.1600E+01  0.2132E+00
 -16.590  0.1671E+01  0.2299E+00
 -16.580  0.1743E+01  0.2473E+00
 -16.570  0.1816E+01  0.2655E+00
 -16.560  0.1890E+01  0.2844E+00
 -16.550  0.1967E+01  0.3041E+00
 -16.540  0.2046E+01  0.3245E+00
 -16.530  0.2127E+01  0.3458E+00
 -16.520  0.2211E+01  0.3679E+00
 -16.510  0.2298E+01  0.3909E+00
 -16.500  0.2389E+01  0.4148E+00
 -16.490  0.2483E+01  0.4396E+00
 -16.480  0.2582E+01  0.4654E+00
 -16.470  0.2685E+01  0.4923E+00
 -16.460  0.2793E+01  0.5202E+00
 -16.450  0.2906E+01  0.5493E+00
 -16.440  0.3025E+01  0.5795E+00
 -16.430  0.3150E+01  0.6110E+00
 -16.420  0.3280E+01  0.6438E+00
 -16.410  0.3416E+01  0.6780E+00
 -16.400  0.3558E+01  0.7135E+00
 -16.390  0.3704E+01  0.7506E+00
 -16.380  0.3854E+01  0.7891E+00
 -16.370  0.4007E+01  0.8292E+00
 -16.360  0.4160E+01  0.8708E+00
 -16.350  0.4313E+01  0.9139E+00
 -16.340  0.4461E+01  0.9585E+00
 -16.330  0.4602E+01  0.1005E+01
 -16.320  0.4734E+01  0.1052E+01
 -16.310  0.4852E+01  0.1100E+01
 -16.300  0.4954E+01  0.1150E+01
 -16.290  0.5036E+01  0.1200E+01
 -16.280  0.5095E+01  0.1251E+01
 -16.270  0.5130E+01  0.1303E+01
 -16.260  0.5137E+01  0.1354E+01
 -16.250  0.5116E+01  0.1405E+01
 -16.240  0.5066E+01  0.1456E+01
 -16.230  0.4988E+01  0.1506E+01
 -16.220  0.4882E+01  0.1554E+01
 -16.210  0.4750E+01  0.1602E+01
 -16.200  0.4596E+01  0.1648E+01
 -16.190  0.4422E+01  0.1692E+01
 -16.180  0.4232E+01  0.1734E+01
 -16.170  0.4029E+01  0.1775E+01
 -16.160  0.3820E+01  0.1813E+01
 -16.150  0.3607E+01  0.1849E+01
 -16.140  0.3396E+01  0.1883E+01
 -16.130  0.3191E+01  0.1915E+01
 -16.120  0.2994E+01  0.1945E+01
 -16.110  0.2810E+01  0.1973E+01
 -16.100  0.2642E+01  0.1999E+01
 -16.090  0.2492E+01  0.2024E+01
 -16.080  0.2361E+01  0.2048E+01
 -16.070  0.2251E+01  0.2070E+01
 -16.060  0.2163E+01  0.2092E+01
 -16.050  0.2098E+01  0.2113E+01
 -16.040  0.2054E+01  0.2134E+01
 -16.030  0.2032E+01  0.2154E+01
 -16.020  0.2032E+01  0.2174E+01
 -16.010  0.2054E+01  0.2195E+01
 -16.000  0.2095E+01  0.2216E+01
 -15.990  0.2157E+01  0.2237E+01
 -15.980  0.2238E+01  0.2260E+01
 -15.970  0.2338E+01  0.2283E+01
 -15.960  0.2455E+01  0.2308E+01
 -15.950  0.2590E+01  0.2333E+01
 -15.940  0.2741E+01  0.2361E+01
 -15.930  0.2906E+01  0.2390E+01
 -15.920  0.3085E+01  0.2421E+01
 -15.910  0.3275E+01  0.2454E+01
 -15.900  0.3474E+01  0.2488E+01
 -15.890  0.3678E+01  0.2525E+01
 -15.880  0.3884E+01  0.2564E+01
 -15.870  0.4089E+01  0.2605E+01
 -15.860  0.4287E+01  0.2648E+01
 -15.850  0.4474E+01  0.2692E+01
 -15.840  0.4647E+01  0.2739E+01
 -15.830  0.4799E+01  0.2787E+01
 -15.820  0.4927E+01  0.2836E+01
 -15.810  0.5027E+01  0.2886E+01
 -15.800  0.5096E+01  0.2937E+01
 -15.790  0.5133E+01  0.2989E+01
 -15.780  0.5135E+01  0.3040E+01
 -15.770  0.5102E+01  0.3091E+01
 -15.760  0.5036E+01  0.3141E+01
 -15.750  0.4938E+01  0.3191E+01
 -15.740  0.4812E+01  0.3239E+01
 -15.730  0.4659E+01  0.3285E+01
 -15.720  0.4486E+01  0.3330E+01
 -15.710  0.4296E+01  0.3373E+01
 -15.700  0.4094E+01  0.3414E+01
 -15.690  0.3885E+01  0.3453E+01
 -15.680  0.3673E+01  0.3490E+01
 -15.670  0.3462E+01  0.3524E+01
 -15.660  0.3256E+01  0.3557E+01
 -15.650  0.3057E+01  0.3588E+01
 -15.640  0.2868E+01  0.3616E+01
 -15.630  0.2691E+01  0.3643E+01
 -15.620  0.2525E+01  0.3668E+01
 -15.610  0.2373E+01  0.3692E+01
 -15.600  0.2234E+01  0.3715E+01
 -15.590  0.2107E+01  0.3736E+01
 -15.580  0.1992E+01  0.3755E+01
 -15.570  0.1889E+01  0.3774E+01
 -15.560  0.1797E+01  0.3792E+01
 -15.550  0.1715E+01  0.3809E+01
 -15.540  0.1643E+01  0.3826E+01
 -15.530  0.1580E+01  0.3842E+01
 -15.520  0.1527E+01  0.3857E+01
 -15.510  0.1484E+01  0.3872E+01
 -15.500  0.1451E+01  0.3886E+01
 -15.490  0.1429E+01  0.3901E+01
 -15.480  0.1418E+01  0.3915E+01
 -15.470  0.1421E+01  0.3929E+01
 -15.460  0.1437E+01  0.3943E+01
 -15.450  0.1468E+01  0.3958E+01
 -15.440  0.1516E+01  0.3973E+01
 -15.430  0.1580E+01  0.3989E+01
 -15.420  0.1663E+01  0.4006E+01
 -15.410  0.1764E+01  0.4023E+01
 -15.400  0.1884E+01  0.4042E+01
 -15.390  0.2023E+01  0.4062E+01
 -15.380  0.2180E+01  0.4084E+01
 -15.370  0.2355E+01  0.4108E+01
 -15.360  0.2546E+01  0.4133E+01
 -15.350  0.2750E+01  0.4161E+01
 -15.340  0.2967E+01  0.4190E+01
 -15.330  0.3192E+01  0.4222E+01
 -15.320  0.3422E+01  0.4256E+01
 -15.310  0.3653E+01  0.4293E+01
 -15.300  0.3881E+01  0.4332E+01
 -15.290  0.4103E+01  0.4373E+01
 -15.280  0.4313E+01  0.4416E+01
 -15.270  0.4508E+01  0.4461E+01
 -15.260  0.4683E+01  0.4508E+01
 -15.250  0.4836E+01  0.4556E+01
 -15.240  0.4963E+01  0.4606E+01
 -15.230  0.5062E+01  0.4656E+01
 -15.220  0.5131E+01  0.4708E+01
 -15.210  0.5170E+01  0.4759E+01
 -15.200  0.5177E+01  0.4811E+01
 -15.190  0.5155E+01  0.4863E+01
 -15.180  0.5103E+01  0.4914E+01
 -15.170  0.5025E+01  0.4964E+01
 -15.160  0.4921E+01  0.5013E+01
 -15.150  0.4796E+01  0.5061E+01
 -15.140  0.4652E+01  0.5108E+01
 -15.130  0.4492E+01  0.5153E+01
 -15.120  0.4320E+01  0.5196E+01
 -15.110  0.4139E+01  0.5237E+01
 -15.100  0.3952E+01  0.5277E+01
 -15.090  0.3762E+01  0.5314E+01
 -15.080  0.3572E+01  0.5350E+01
 -15.070  0.3383E+01  0.5384E+01
 -15.060  0.3199E+01  0.5416E+01
 -15.050  0.3021E+01  0.5446E+01
 -15.040  0.2850E+01  0.5475E+01
 -15.030  0.2688E+01  0.5502E+01
 -15.020  0.2536E+01  0.5527E+01
 -15.010  0.2393E+01  0.5551E+01
 -15.000  0.2262E+01  0.5573E+01
 -14.990  0.2143E+01  0.5595E+01
 -14.980  0.2036E+01  0.5615E+01
 -14.970  0.1941E+01  0.5635E+01
 -14.960  0.1859E+01  0.5653E+01
 -14.950  0.1792E+01  0.5671E+01
 -14.940  0.1739E+01  0.5689E+01
 -14.930  0.1702E+01  0.5706E+01
 -14.920  0.1684E+01  0.5722E+01
 -14.910  0.1685E+01  0.5739E+01
 -14.900  0.1709E+01  0.5756E+01
 -14.890  0.1760E+01  0.5774E+01
 -14.880  0.1841E+01  0.5792E+01
 -14.870  0.1958E+01  0.5812E+01
 -14.860  0.2116E+01  0.5833E+01
 -14.850  0.2323E+01  0.5856E+01
 -14.840  0.2585E+01  0.5882E+01
 -14.830  0.2910E+01  0.5911E+01
 -14.820  0.3306E+01  0.5944E+01
 -14.810  0.3780E+01  0.5982E+01
 -14.800  0.4339E+01  0.6026E+01
 -14.790  0.4990E+01  0.6075E+01
 -14.780  0.5736E+01  0.6133E+01
 -14.770  0.6581E+01  0.6199E+01
 -14.760  0.7524E+01  0.6274E+01
 -14.750  0.8562E+01  0.6359E+01
 -14.740  0.9688E+01  0.6456E+01
 -14.730  0.1089E+02  0.6565E+01
 -14.720  0.1216E+02  0.6687E+01
 -14.710  0.1347E+02  0.6822E+01
 -14.700  0.1481E+02  0.6970E+01
 -14.690  0.1615E+02  0.7131E+01
 -14.680  0.1746E+02  0.7306E+01
 -14.670  0.1872E+02  0.7493E+01
 -14.660  0.1988E+02  0.7692E+01
 -14.650  0.2094E+02  0.7901E+01
 -14.640  0.2185E+02  0.8120E+01
 -14.630  0.2259E+02  0.8346E+01
 -14.620  0.2315E+02  0.8577E+01
 -14.610  0.2350E+02  0.8812E+01
 -14.600  0.2364E+02  0.9049E+01
 -14.590  0.2355E+02  0.9284E+01
 -14.580  0.2325E+02  0.9517E+01
 -14.570  0.2274E+02  0.9744E+01
 -14.560  0.2203E+02  0.9964E+01
 -14.550  0.2114E+02  0.1018E+02
 -14.540  0.2009E+02  0.1038E+02
 -14.530  0.1892E+02  0.1057E+02
 -14.520  0.1764E+02  0.1074E+02
 -14.510  0.1630E+02  0.1091E+02
 -14.500  0.1491E+02  0.1105E+02
 -14.490  0.1352E+02  0.1119E+02
 -14.480  0.1213E+02  0.1131E+02
 -14.470  0.1078E+02  0.1142E+02
 -14.460  0.9494E+01  0.1151E+02
 -14.450  0.8278E+01  0.1160E+02
 -14.440  0.7147E+01  0.1167E+02
 -14.430  0.6112E+01  0.1173E+02
 -14.420  0.5175E+01  0.1178E+02
 -14.410  0.4340E+01  0.1182E+02
 -14.400  0.3603E+01  0.1186E+02
 -14.390  0.2963E+01  0.1189E+02
 -14.380  0.2412E+01  0.1191E+02
 -14.370  0.1945E+01  0.1193E+02
 -14.360  0.1553E+01  0.1195E+02
 -14.350  0.1227E+01  0.1196E+02
 -14.340  0.9604E+00  0.1197E+02
 -14.330  0.7441E+00  0.1198E+02
 -14.320  0.5709E+00  0.1198E+02
 -14.310  0.4336E+00  0.1199E+02
 -14.300  0.3261E+00  0.1199E+02
 -14.290  0.2428E+00  0.1199E+02
 -14.280  0.1790E+00  0.1200E+02
 -14.270  0.1306E+00  0.1200E+02
 -14.260  0.9437E-01  0.1200E+02
 -14.250  0.6750E-01  0.1200E+02
 -14.240  0.4779E-01  0.1200E+02
 -14.230  0.3350E-01  0.1200E+02
 -14.220  0.2325E-01  0.1200E+02
 -14.210  0.1597E-01  0.1200E+02
 -14.200  0.1086E-01  0.1200E+02
 -14.190  0.7310E-02  0.1200E+02
 -14.180  0.4871E-02  0.1200E+02
 -14.170  0.3213E-02  0.1200E+02
 -14.160  0.2098E-02  0.1200E+02
 -14.150  0.1356E-02  0.1200E+02
 -14.140  0.8676E-03  0.1200E+02
 -14.130  0.5495E-03  0.1200E+02
 -14.120  0.3445E-03  0.1200E+02
 -14.110  0.2137E-03  0.1200E+02
 -14.100  0.1313E-03  0.1200E+02
 -14.090  0.7981E-04  0.1200E+02
 -14.080  0.4803E-04  0.1200E+02
 -14.070  0.2860E-04  0.1200E+02
 -14.060  0.1686E-04  0.1200E+02
 -14.050  0.9840E-05  0.1200E+02
 -14.040  0.5683E-05  0.1200E+02
 -14.030  0.3249E-05  0.1200E+02
 -14.020  0.1838E-05  0.1200E+02
 -14.010  0.1029E-05  0.1200E+02
 -14.000  0.5706E-06  0.1200E+02
 -13.990  0.3130E-06  0.1200E+02
 -13.980  0.1700E-06  0.1200E+02
 -13.970  0.9134E-07  0.1200E+02
 -13.960  0.4858E-07  0.1200E+02
 -13.950  0.2557E-07  0.1200E+02
 -13.940  0.1332E-07  0.1200E+02
 -13.930  0.6870E-08  0.1200E+02
 -13.920  0.3506E-08  0.1200E+02
 -13.910  0.1771E-08  0.1200E+02
 -13.900  0.8851E-09  0.1200E+02
 -13.890  0.4378E-09  0.1200E+02
 -13.880  0.2144E-09  0.1200E+02
 -13.870  0.1039E-09  0.1200E+02
 -13.860  0.4981E-10  0.1200E+02
 -13.850  0.2364E-10  0.1200E+02
 -13.840  0.1110E-10  0.1200E+02
 -13.830  0.5160E-11  0.1200E+02
 -13.820  0.2374E-11  0.1200E+02
 -13.810  0.1081E-11  0.1200E+02
 -13.800  0.4868E-12  0.1200E+02
 -13.790  0.2170E-12  0.1200E+02
 -13.780  0.9575E-13  0.1200E+02
 -13.770  0.4181E-13  0.1200E+02
 -13.760  0.1806E-13  0.1200E+02
 -13.750  0.7724E-14  0.1200E+02
 -13.740  0.3269E-14  0.1200E+02
 -13.730  0.1369E-14  0.1200E+02
 -13.720  0.5672E-15  0.1200E+02
 -13.710  0.2326E-15  0.1200E+02
 -13.700  0.9438E-16  0.1200E+02
 -13.690  0.3790E-16  0.1200E+02
 -13.680  0.1506E-16  0.1200E+02
 -13.670  0.5922E-17  0.1200E+02
 -13.660  0.2305E-17  0.1200E+02
 -13.650  0.8874E-18  0.1200E+02
 -13.640  0.3381E-18  0.1200E+02
 -13.630  0.1275E-18  0.1200E+02
 -13.620  0.4757E-19  0.1200E+02
 -13.610  0.1756E-19  0.1200E+02
 -13.600  0.6416E-20  0.1200E+02
 -13.590  0.2319E-20  0.1200E+02
 -13.580  0.8297E-21  0.1200E+02
 -13.570  0.2937E-21  0.1200E+02
 -13.560  0.1029E-21  0.1200E+02
 -13.550  0.3565E-22  0.1200E+02
 -13.540  0.1223E-22  0.1200E+02
 -13.530  0.4149E-23  0.1200E+02
 -13.520  0.1393E-23  0.1200E+02
 -13.510  0.4629E-24  0.1200E+02
 -13.500  0.1522E-24  0.1200E+02
 -13.490  0.4951E-25  0.1200E+02
 -13.480  0.1593E-25  0.1200E+02
 -13.470  0.5075E-26  0.1200E+02
 -13.460  0.1599E-26  0.1200E+02
 -13.450  0.4987E-27  0.1200E+02
 -13.440  0.1539E-27  0.1200E+02
 -13.430  0.4697E-28  0.1200E+02
 -13.420  0.1419E-28  0.1200E+02
 -13.410  0.4241E-29  0.1200E+02
 -13.400  0.1254E-29  0.1200E+02
 -13.390  0.3669E-30  0.1200E+02
 -13.380  0.1062E-30  0.1200E+02
 -13.370  0.3043E-31  0.1200E+02
 -13.360  0.8625E-32  0.1200E+02
 -13.350  0.2419E-32  0.1200E+02
 -13.340  0.6711E-33  0.1200E+02
 -13.330  0.1843E-33  0.1200E+02
 -13.320  0.5005E-34  0.1200E+02
 -13.310  0.1345E-34  0.1200E+02
 -13.300  0.3577E-35  0.1200E+02
 -13.290  0.9411E-36  0.1200E+02
 -13.280  0.2450E-36  0.1200E+02
 -13.270  0.6310E-37  0.1200E+02
 -13.260  0.1608E-37  0.1200E+02
 -13.250  0.4054E-38  0.1200E+02
 -13.240  0.1011E-38  0.1200E+02
 -13.230  0.2496E-39  0.1200E+02
 -13.220  0.6095E-40  0.1200E+02
 -13.210  0.1473E-40  0.1200E+02
 -13.200  0.3520E-41  0.1200E+02
 -13.190  0.8326E-42  0.1200E+02
 -13.180  0.1948E-42  0.1200E+02
 -13.170  0.4511E-43  0.1200E+02
 -13.160  0.1033E-43  0.1200E+02
 -13.150  0.2342E-44  0.1200E+02
 -13.140  0.5250E-45  0.1200E+02
 -13.130  0.1165E-45  0.1200E+02
 -13.120  0.2556E-46  0.1200E+02
 -13.110  0.5551E-47  0.1200E+02
 -13.100  0.1193E-47  0.1200E+02
 -13.090  0.2535E-48  0.1200E+02
 -13.080  0.5331E-49  0.1200E+02
 -13.070  0.1109E-49  0.1200E+02
 -13.060  0.2283E-50  0.1200E+02
 -13.050  0.4650E-51  0.1200E+02
 -13.040  0.9370E-52  0.1200E+02
 -13.030  0.1868E-52  0.1200E+02
 -13.020  0.3684E-53  0.1200E+02
 -13.010  0.7189E-54  0.1200E+02
 -13.000  0.1388E-54  0.1200E+02
 -12.990  0.2651E-55  0.1200E+02
 -12.980  0.5009E-56  0.1200E+02
 -12.970  0.9364E-57  0.1200E+02
 -12.960  0.1732E-57  0.1200E+02
 -12.950  0.3169E-58  0.1200E+02
 -12.940  0.5738E-59  0.1200E+02
 -12.930  0.1028E-59  0.1200E+02
 -12.920  0.1821E-60  0.1200E+02
 -12.910  0.3193E-61  0.1200E+02
 -12.900  0.5538E-62  0.1200E+02
 -12.890  0.9503E-63  0.1200E+02
 -12.880  0.1613E-63  0.1200E+02
 -12.870  0.2710E-64  0.1200E+02
 -12.860  0.4503E-65  0.1200E+02
 -12.850  0.7403E-66  0.1200E+02
 -12.840  0.1204E-66  0.1200E+02
 -12.830  0.1937E-67  0.1200E+02
 -12.820  0.3084E-68  0.1200E+02
 -12.810  0.4857E-69  0.1200E+02
 -12.800  0.7569E-70  0.1200E+02
 -12.790  0.1167E-70  0.1200E+02
 -12.780  0.1779E-71  0.1200E+02
 -12.770  0.2685E-72  0.1200E+02
 -12.760  0.4007E-73  0.1200E+02
 -12.750  0.5918E-74  0.1200E+02
 -12.740  0.8646E-75  0.1200E+02
 -12.730  0.1250E-75  0.1200E+02
 -12.720  0.1787E-76  0.1200E+02
 -12.710  0.2528E-77  0.1200E+02
 -12.700  0.3539E-78  0.1200E+02
 -12.690  0.4900E-79  0.1200E+02
 -12.680  0.6713E-80  0.1200E+02
 -12.670  0.9100E-81  0.1200E+02
 -12.660  0.1222E-81  0.1200E+02
 -12.650  0.1644E-82  0.1200E+02
 -12.640  0.2391E-83  0.1200E+02
 -12.630  0.5470E-84  0.1200E+02
 -12.620  0.3085E-84  0.1200E+02
 -12.610  0.2789E-84  0.1200E+02
 -12.600  0.2756E-84  0.1200E+02
 -12.590  0.2755E-84  0.1200E+02
 -12.580  0.2755E-84  0.1200E+02
 -12.570  0.2755E-84  0.1200E+02
 -12.560  0.2755E-84  0.1200E+02
 -12.550  0.2755E-84  0.1200E+02
 -12.540  0.2755E-84  0.1200E+02
 -12.530  0.2755E-84  0.1200E+02
 -12.520  0.2755E-84  0.1200E+02
 -12.510  0.2755E-84  0.1200E+02
 -12.500  0.2755E-84  0.1200E+02
 -12.490  0.2755E-84  0.1200E+02
 -12.480  0.2755E-84  0.1200E+02
 -12.470  0.2755E-84  0.1200E+02
 -12.460  0.2755E-84  0.1200E+02
 -12.450  0.2755E-84  0.1200E+02
 -12.440  0.2755E-84  0.1200E+02
 -12.430  0.2755E-84  0.1200E+02
 -12.420  0.2755E-84  0.1200E+02
 -12.410  0.2755E-84  0.1200E+02
 -12.400  0.2755E-84  0.1200E+02
 -12.390  0.2755E-84  0.1200E+02
 -12.380  0.2755E-84  0.1200E+02
 -12.370  0.2755E-84  0.1200E+02
 -12.360  0.2755E-84  0.1200E+02
 -12.350  0.2755E-84  0.1200E+02
 -12.340  0.2755E-84  0.1200E+02
 -12.330  0.2755E-84  0.1200E+02
 -12.320  0.2755E-84  0.1200E+02
 -12.310  0.2755E-84  0.1200E+02
 -12.300  0.2755E-84  0.1200E+02
 -12.290  0.2755E-84  0.1200E+02
 -12.280  0.2755E-84  0.1200E+02
 -12.270  0.2755E-84  0.1200E+02
 -12.260  0.2755E-84  0.1200E+02
 -12.250  0.2755E-84  0.1200E+02
 -12.240  0.2755E-84  0.1200E+02
 -12.230  0.2755E-84  0.1200E+02
 -12.220  0.2755E-84  0.1200E+02
 -12.210  0.2755E-84  0.1200E+02
 -12.200  0.2755E-84  0.1200E+02
 -12.190  0.2755E-84  0.1200E+02
 -12.180  0.2755E-84  0.1200E+02
 -12.170  0.2755E-84  0.1200E+02
 -12.160  0.2755E-84  0.1200E+02
 -12.150  0.2755E-84  0.1200E+02
 -12.140  0.2755E-84  0.1200E+02
 -12.130  0.2755E-84  0.1200E+02
 -12.120  0.2755E-84  0.1200E+02
 -12.110  0.2755E-84  0.1200E+02
 -12.100  0.2755E-84  0.1200E+02
 -12.090  0.2755E-84  0.1200E+02
 -12.080  0.2755E-84  0.1200E+02
 -12.070  0.2755E-84  0.1200E+02
 -12.060  0.2755E-84  0.1200E+02
 -12.050  0.2755E-84  0.1200E+02
 -12.040  0.2755E-84  0.1200E+02
 -12.030  0.2755E-84  0.1200E+02
 -12.020  0.2755E-84  0.1200E+02
 -12.010  0.2755E-84  0.1200E+02
 -12.000  0.2755E-84  0.1200E+02
 -11.990  0.2755E-84  0.1200E+02
 -11.980  0.2755E-84  0.1200E+02
 -11.970  0.2755E-84  0.1200E+02
 -11.960  0.2755E-84  0.1200E+02
 -11.950  0.2755E-84  0.1200E+02
 -11.940  0.2755E-84  0.1200E+02
 -11.930  0.2755E-84  0.1200E+02
 -11.920  0.2755E-84  0.1200E+02
 -11.910  0.2755E-84  0.1200E+02
 -11.900  0.2755E-84  0.1200E+02
 -11.890  0.2755E-84  0.1200E+02
 -11.880  0.2755E-84  0.1200E+02
 -11.870  0.2755E-84  0.1200E+02
 -11.860  0.2755E-84  0.1200E+02
 -11.850  0.2755E-84  0.1200E+02
 -11.840  0.2755E-84  0.1200E+02
 -11.830  0.2755E-84  0.1200E+02
 -11.820  0.2755E-84  0.1200E+02
 -11.810  0.2755E-84  0.1200E+02
 -11.800  0.2755E-84  0.1200E+02
 -11.790  0.2755E-84  0.1200E+02
 -11.780  0.2755E-84  0.1200E+02
 -11.770  0.2755E-84  0.1200E+02
 -11.760  0.2755E-84  0.1200E+02
 -11.750  0.2755E-84  0.1200E+02
 -11.740  0.2755E-84  0.1200E+02
 -11.730  0.2755E-84  0.1200E+02
 -11.720  0.2755E-84  0.1200E+02
 -11.710  0.2755E-84  0.1200E+02
 -11.700  0.2755E-84  0.1200E+02
 -11.690  0.2755E-84  0.1200E+02
 -11.680  0.2755E-84  0.1200E+02
 -11.670  0.2755E-84  0.1200E+02
 -11.660  0.2755E-84  0.1200E+02
 -11.650  0.2755E-84  0.1200E+02
 -11.640  0.2755E-84  0.1200E+02
 -11.630  0.2755E-84  0.1200E+02
 -11.620  0.2755E-84  0.1200E+02
 -11.610  0.2755E-84  0.1200E+02
 -11.600  0.2755E-84  0.1200E+02
 -11.590  0.2755E-84  0.1200E+02
 -11.580  0.2755E-84  0.1200E+02
 -11.570  0.2755E-84  0.1200E+02
 -11.560  0.2755E-84  0.1200E+02
 -11.550  0.2755E-84  0.1200E+02
 -11.540  0.2755E-84  0.1200E+02
 -11.530  0.2755E-84  0.1200E+02
 -11.520  0.2755E-84  0.1200E+02
 -11.510  0.2755E-84  0.1200E+02
 -11.500  0.2755E-84  0.1200E+02
 -11.490  0.2755E-84  0.1200E+02
 -11.480  0.2755E-84  0.1200E+02
 -11.470  0.2755E-84  0.1200E+02
 -11.460  0.2755E-84  0.1200E+02
 -11.450  0.2755E-84  0.1200E+02
 -11.440  0.2755E-84  0.1200E+02
 -11.430  0.2755E-84  0.1200E+02
 -11.420  0.2755E-84  0.1200E+02
 -11.410  0.2755E-84  0.1200E+02
 -11.400  0.2755E-84  0.1200E+02
 -11.390  0.2755E-84  0.1200E+02
 -11.380  0.2755E-84  0.1200E+02
 -11.370  0.2755E-84  0.1200E+02
 -11.360  0.2755E-84  0.1200E+02
 -11.350  0.2755E-84  0.1200E+02
 -11.340  0.2755E-84  0.1200E+02
 -11.330  0.2755E-84  0.1200E+02
 -11.320  0.2755E-84  0.1200E+02
 -11.310  0.2755E-84  0.1200E+02
 -11.300  0.2755E-84  0.1200E+02
 -11.290  0.2755E-84  0.1200E+02
 -11.280  0.2755E-84  0.1200E+02
 -11.270  0.2755E-84  0.1200E+02
 -11.260  0.2755E-84  0.1200E+02
 -11.250  0.2755E-84  0.1200E+02
 -11.240  0.2755E-84  0.1200E+02
 -11.230  0.2755E-84  0.1200E+02
 -11.220  0.2755E-84  0.1200E+02
 -11.210  0.2755E-84  0.1200E+02
 -11.200  0.2755E-84  0.1200E+02
 -11.190  0.2755E-84  0.1200E+02
 -11.180  0.2755E-84  0.1200E+02
 -11.170  0.2755E-84  0.1200E+02
 -11.160  0.2755E-84  0.1200E+02
 -11.150  0.2755E-84  0.1200E+02
 -11.140  0.2755E-84  0.1200E+02
 -11.130  0.2755E-84  0.1200E+02
 -11.120  0.2755E-84  0.1200E+02
 -11.110  0.2755E-84  0.1200E+02
 -11.100  0.2755E-84  0.1200E+02
 -11.090  0.2755E-84  0.1200E+02
 -11.080  0.2755E-84  0.1200E+02
 -11.070  0.2755E-84  0.1200E+02
 -11.060  0.2755E-84  0.1200E+02
 -11.050  0.2755E-84  0.1200E+02
 -11.040  0.2755E-84  0.1200E+02
 -11.030  0.2755E-84  0.1200E+02
 -11.020  0.2755E-84  0.1200E+02
 -11.010  0.2755E-84  0.1200E+02
 -11.000  0.2755E-84  0.1200E+02
 -10.990  0.2755E-84  0.1200E+02
 -10.980  0.2755E-84  0.1200E+02
 -10.970  0.2755E-84  0.1200E+02
 -10.960  0.2755E-84  0.1200E+02
 -10.950  0.2755E-84  0.1200E+02
 -10.940  0.2755E-84  0.1200E+02
 -10.930  0.2755E-84  0.1200E+02
 -10.920  0.2755E-84  0.1200E+02
 -10.910  0.2755E-84  0.1200E+02
 -10.900  0.2755E-84  0.1200E+02
 -10.890  0.2755E-84  0.1200E+02
 -10.880  0.2755E-84  0.1200E+02
 -10.870  0.2755E-84  0.1200E+02
 -10.860  0.2755E-84  0.1200E+02
 -10.850  0.2755E-84  0.1200E+02
 -10.840  0.2755E-84  0.1200E+02
 -10.830  0.2755E-84  0.1200E+02
 -10.820  0.2755E-84  0.1200E+02
 -10.810  0.2755E-84  0.1200E+02
 -10.800  0.2755E-84  0.1200E+02
 -10.790  0.2755E-84  0.1200E+02
 -10.780  0.2755E-84  0.1200E+02
 -10.770  0.2755E-84  0.1200E+02
 -10.760  0.2755E-84  0.1200E+02
 -10.750  0.2755E-84  0.1200E+02
 -10.740  0.2755E-84  0.1200E+02
 -10.730  0.2755E-84  0.1200E+02
 -10.720  0.2755E-84  0.1200E+02
 -10.710  0.2755E-84  0.1200E+02
 -10.700  0.2755E-84  0.1200E+02
 -10.690  0.2755E-84  0.1200E+02
 -10.680  0.2755E-84  0.1200E+02
 -10.670  0.2755E-84  0.1200E+02
 -10.660  0.2755E-84  0.1200E+02
 -10.650  0.2755E-84  0.1200E+02
 -10.640  0.2755E-84  0.1200E+02
 -10.630  0.2755E-84  0.1200E+02
 -10.620  0.2755E-84  0.1200E+02
 -10.610  0.2755E-84  0.1200E+02
 -10.600  0.2755E-84  0.1200E+02
 -10.590  0.2755E-84  0.1200E+02
 -10.580  0.2755E-84  0.1200E+02
 -10.570  0.2755E-84  0.1200E+02
 -10.560  0.2755E-84  0.1200E+02
 -10.550  0.2755E-84  0.1200E+02
 -10.540  0.2755E-84  0.1200E+02
 -10.530  0.2755E-84  0.1200E+02
 -10.520  0.2755E-84  0.1200E+02
 -10.510  0.2755E-84  0.1200E+02
 -10.500  0.2755E-84  0.1200E+02
 -10.490  0.2755E-84  0.1200E+02
 -10.480  0.2755E-84  0.1200E+02
 -10.470  0.2755E-84  0.1200E+02
 -10.460  0.2755E-84  0.1200E+02
 -10.450  0.2755E-84  0.1200E+02
 -10.440  0.2755E-84  0.1200E+02
 -10.430  0.2755E-84  0.1200E+02
 -10.420  0.2755E-84  0.1200E+02
 -10.410  0.2755E-84  0.1200E+02
 -10.400  0.2755E-84  0.1200E+02
 -10.390  0.2755E-84  0.1200E+02
 -10.380  0.2755E-84  0.1200E+02
 -10.370  0.2755E-84  0.1200E+02
 -10.360  0.2755E-84  0.1200E+02
 -10.350  0.2755E-84  0.1200E+02
 -10.340  0.2755E-84  0.1200E+02
 -10.330  0.2755E-84  0.1200E+02
 -10.320  0.2755E-84  0.1200E+02
 -10.310  0.2755E-84  0.1200E+02
 -10.300  0.2755E-84  0.1200E+02
 -10.290  0.2755E-84  0.1200E+02
 -10.280  0.2755E-84  0.1200E+02
 -10.270  0.2755E-84  0.1200E+02
 -10.260  0.2755E-84  0.1200E+02
 -10.250  0.2755E-84  0.1200E+02
 -10.240  0.2755E-84  0.1200E+02
 -10.230  0.2755E-84  0.1200E+02
 -10.220  0.2755E-84  0.1200E+02
 -10.210  0.2755E-84  0.1200E+02
 -10.200  0.2755E-84  0.1200E+02
 -10.190  0.2755E-84  0.1200E+02
 -10.180  0.2755E-84  0.1200E+02
 -10.170  0.2755E-84  0.1200E+02
 -10.160  0.2755E-84  0.1200E+02
 -10.150  0.2755E-84  0.1200E+02
 -10.140  0.2755E-84  0.1200E+02
 -10.130  0.2755E-84  0.1200E+02
 -10.120  0.2755E-84  0.1200E+02
 -10.110  0.2755E-84  0.1200E+02
 -10.100  0.2755E-84  0.1200E+02
 -10.090  0.2755E-84  0.1200E+02
 -10.080  0.2755E-84  0.1200E+02
 -10.070  0.2755E-84  0.1200E+02
 -10.060  0.2755E-84  0.1200E+02
 -10.050  0.2755E-84  0.1200E+02
 -10.040  0.2755E-84  0.1200E+02
 -10.030  0.2755E-84  0.1200E+02
 -10.020  0.2755E-84  0.1200E+02
 -10.010  0.2755E-84  0.1200E+02
 -10.000  0.2755E-84  0.1200E+02
  -9.990  0.2755E-84  0.1200E+02
  -9.980  0.2755E-84  0.1200E+02
  -9.970  0.2755E-84  0.1200E+02
  -9.960  0.2755E-84  0.1200E+02
  -9.950  0.2755E-84  0.1200E+02
  -9.940  0.2755E-84  0.1200E+02
  -9.930  0.2755E-84  0.1200E+02
  -9.920  0.2755E-84  0.1200E+02
  -9.910  0.2755E-84  0.1200E+02
  -9.900  0.2755E-84  0.1200E+02
  -9.890  0.2755E-84  0.1200E+02
  -9.880  0.2755E-84  0.1200E+02
  -9.870  0.2755E-84  0.1200E+02
  -9.860  0.2755E-84  0.1200E+02
  -9.850  0.2755E-84  0.1200E+02
  -9.840  0.2755E-84  0.1200E+02
  -9.830  0.2755E-84  0.1200E+02
  -9.820  0.2755E-84  0.1200E+02
  -9.810  0.2755E-84  0.1200E+02
  -9.800  0.2755E-84  0.1200E+02
  -9.790  0.2755E-84  0.1200E+02
  -9.780  0.2755E-84  0.1200E+02
  -9.770  0.2755E-84  0.1200E+02
  -9.760  0.2755E-84  0.1200E+02
  -9.750  0.2755E-84  0.1200E+02
  -9.740  0.2755E-84  0.1200E+02
  -9.730  0.2755E-84  0.1200E+02
  -9.720  0.2755E-84  0.1200E+02
  -9.710  0.2755E-84  0.1200E+02
  -9.700  0.2755E-84  0.1200E+02
  -9.690  0.2755E-84  0.1200E+02
  -9.680  0.2755E-84  0.1200E+02
  -9.670  0.2755E-84  0.1200E+02
  -9.660  0.2755E-84  0.1200E+02
  -9.650  0.2755E-84  0.1200E+02
  -9.640  0.2755E-84  0.1200E+02
  -9.630  0.2755E-84  0.1200E+02
  -9.620  0.2755E-84  0.1200E+02
  -9.610  0.2755E-84  0.1200E+02
  -9.600  0.2755E-84  0.1200E+02
  -9.590  0.2755E-84  0.1200E+02
  -9.580  0.2755E-84  0.1200E+02
  -9.570  0.2755E-84  0.1200E+02
  -9.560  0.2755E-84  0.1200E+02
  -9.550  0.2755E-84  0.1200E+02
  -9.540  0.2755E-84  0.1200E+02
  -9.530  0.2755E-84  0.1200E+02
  -9.520  0.2755E-84  0.1200E+02
  -9.510  0.2755E-84  0.1200E+02
  -9.500  0.2755E-84  0.1200E+02
  -9.490  0.2755E-84  0.1200E+02
  -9.480  0.2755E-84  0.1200E+02
  -9.470  0.2755E-84  0.1200E+02
  -9.460  0.2755E-84  0.1200E+02
  -9.450  0.2755E-84  0.1200E+02
  -9.440  0.2755E-84  0.1200E+02
  -9.430  0.2755E-84  0.1200E+02
  -9.420  0.2755E-84  0.1200E+02
  -9.410  0.2755E-84  0.1200E+02
  -9.400  0.2755E-84  0.1200E+02
  -9.390  0.2755E-84  0.1200E+02
  -9.380  0.2755E-84  0.1200E+02
  -9.370  0.2755E-84  0.1200E+02
  -9.360  0.2755E-84  0.1200E+02
  -9.350  0.2755E-84  0.1200E+02
  -9.340  0.2755E-84  0.1200E+02
  -9.330  0.2755E-84  0.1200E+02
  -9.320  0.2755E-84  0.1200E+02
  -9.310  0.2755E-84  0.1200E+02
  -9.300  0.2755E-84  0.1200E+02
  -9.290  0.2755E-84  0.1200E+02
  -9.280  0.2755E-84  0.1200E+02
  -9.270  0.2755E-84  0.1200E+02
  -9.260  0.2755E-84  0.1200E+02
  -9.250  0.2755E-84  0.1200E+02
  -9.240  0.2755E-84  0.1200E+02
  -9.230  0.2755E-84  0.1200E+02
  -9.220  0.2755E-84  0.1200E+02
  -9.210  0.2755E-84  0.1200E+02
  -9.200  0.2755E-84  0.1200E+02
  -9.190  0.2755E-84  0.1200E+02
  -9.180  0.2755E-84  0.1200E+02
  -9.170  0.2755E-84  0.1200E+02
  -9.160  0.2755E-84  0.1200E+02
  -9.150  0.2755E-84  0.1200E+02
  -9.140  0.2755E-84  0.1200E+02
  -9.130  0.2755E-84  0.1200E+02
  -9.120  0.2755E-84  0.1200E+02
  -9.110  0.2755E-84  0.1200E+02
  -9.100  0.2755E-84  0.1200E+02
  -9.090  0.2755E-84  0.1200E+02
  -9.080  0.2755E-84  0.1200E+02
  -9.070  0.2755E-84  0.1200E+02
  -9.060  0.2755E-84  0.1200E+02
  -9.050  0.2755E-84  0.1200E+02
  -9.040  0.2755E-84  0.1200E+02
  -9.030  0.2755E-84  0.1200E+02
  -9.020  0.2755E-84  0.1200E+02
  -9.010  0.2755E-84  0.1200E+02
  -9.000  0.2755E-84  0.1200E+02
  -8.990  0.2755E-84  0.1200E+02
  -8.980  0.2755E-84  0.1200E+02
  -8.970  0.2755E-84  0.1200E+02
  -8.960  0.2755E-84  0.1200E+02
  -8.950  0.2755E-84  0.1200E+02
  -8.940  0.2755E-84  0.1200E+02
  -8.930  0.2755E-84  0.1200E+02
  -8.920  0.2755E-84  0.1200E+02
  -8.910  0.2755E-84  0.1200E+02
  -8.900  0.2755E-84  0.1200E+02
  -8.890  0.2755E-84  0.1200E+02
  -8.880  0.2755E-84  0.1200E+02
  -8.870  0.2755E-84  0.1200E+02
  -8.860  0.2755E-84  0.1200E+02
  -8.850  0.2755E-84  0.1200E+02
  -8.840  0.2755E-84  0.1200E+02
  -8.830  0.2755E-84  0.1200E+02
  -8.820  0.2755E-84  0.1200E+02
  -8.810  0.2755E-84  0.1200E+02
  -8.800  0.2755E-84  0.1200E+02
  -8.790  0.2755E-84  0.1200E+02
  -8.780  0.2755E-84  0.1200E+02
  -8.770  0.2755E-84  0.1200E+02
  -8.760  0.2755E-84  0.1200E+02
  -8.750  0.2755E-84  0.1200E+02
  -8.740  0.2755E-84  0.1200E+02
  -8.730  0.2755E-84  0.1200E+02
  -8.720  0.2755E-84  0.1200E+02
  -8.710  0.2755E-84  0.1200E+02
  -8.700  0.2755E-84  0.1200E+02
  -8.690  0.2760E-84  0.1200E+02
  -8.680  0.2795E-84  0.1200E+02
  -8.670  0.3071E-84  0.1200E+02
  -8.660  0.5175E-84  0.1200E+02
  -8.650  0.2109E-83  0.1200E+02
  -8.640  0.1401E-82  0.1200E+02
  -8.630  0.1021E-81  0.1200E+02
  -8.620  0.7466E-81  0.1200E+02
  -8.610  0.5414E-80  0.1200E+02
  -8.600  0.3884E-79  0.1200E+02
  -8.590  0.2757E-78  0.1200E+02
  -8.580  0.1936E-77  0.1200E+02
  -8.570  0.1345E-76  0.1200E+02
  -8.560  0.9239E-76  0.1200E+02
  -8.550  0.6280E-75  0.1200E+02
  -8.540  0.4223E-74  0.1200E+02
  -8.530  0.2809E-73  0.1200E+02
  -8.520  0.1849E-72  0.1200E+02
  -8.510  0.1204E-71  0.1200E+02
  -8.500  0.7751E-71  0.1200E+02
  -8.490  0.4938E-70  0.1200E+02
  -8.480  0.3112E-69  0.1200E+02
  -8.470  0.1941E-68  0.1200E+02
  -8.460  0.1197E-67  0.1200E+02
  -8.450  0.7303E-67  0.1200E+02
  -8.440  0.4408E-66  0.1200E+02
  -8.430  0.2632E-65  0.1200E+02
  -8.420  0.1555E-64  0.1200E+02
  -8.410  0.9084E-64  0.1200E+02
  -8.400  0.5251E-63  0.1200E+02
  -8.390  0.3003E-62  0.1200E+02
  -8.380  0.1699E-61  0.1200E+02
  -8.370  0.9507E-61  0.1200E+02
  -8.360  0.5263E-60  0.1200E+02
  -8.350  0.2882E-59  0.1200E+02
  -8.340  0.1562E-58  0.1200E+02
  -8.330  0.8370E-58  0.1200E+02
  -8.320  0.4438E-57  0.1200E+02
  -8.310  0.2328E-56  0.1200E+02
  -8.300  0.1208E-55  0.1200E+02
  -8.290  0.6199E-55  0.1200E+02
  -8.280  0.3148E-54  0.1200E+02
  -8.270  0.1581E-53  0.1200E+02
  -8.260  0.7857E-53  0.1200E+02
  -8.250  0.3862E-52  0.1200E+02
  -8.240  0.1878E-51  0.1200E+02
  -8.230  0.9035E-51  0.1200E+02
  -8.220  0.4300E-50  0.1200E+02
  -8.210  0.2024E-49  0.1200E+02
  -8.200  0.9428E-49  0.1200E+02
  -8.190  0.4344E-48  0.1200E+02
  -8.180  0.1980E-47  0.1200E+02
  -8.170  0.8926E-47  0.1200E+02
  -8.160  0.3981E-46  0.1200E+02
  -8.150  0.1757E-45  0.1200E+02
  -8.140  0.7667E-45  0.1200E+02
  -8.130  0.3311E-44  0.1200E+02
  -8.120  0.1414E-43  0.1200E+02
  -8.110  0.5976E-43  0.1200E+02
  -8.100  0.2498E-42  0.1200E+02
  -8.090  0.1033E-41  0.1200E+02
  -8.080  0.4227E-41  0.1200E+02
  -8.070  0.1711E-40  0.1200E+02
  -8.060  0.6848E-40  0.1200E+02
  -8.050  0.2712E-39  0.1200E+02
  -8.040  0.1063E-38  0.1200E+02
  -8.030  0.4118E-38  0.1200E+02
  -8.020  0.1579E-37  0.1200E+02
  -8.010  0.5990E-37  0.1200E+02
  -8.000  0.2247E-36  0.1200E+02
  -7.990  0.8342E-36  0.1200E+02
  -7.980  0.3063E-35  0.1200E+02
  -7.970  0.1113E-34  0.1200E+02
  -7.960  0.3999E-34  0.1200E+02
  -7.950  0.1422E-33  0.1200E+02
  -7.940  0.4999E-33  0.1200E+02
  -7.930  0.1739E-32  0.1200E+02
  -7.920  0.5985E-32  0.1200E+02
  -7.910  0.2038E-31  0.1200E+02
  -7.900  0.6863E-31  0.1200E+02
  -7.890  0.2287E-30  0.1200E+02
  -7.880  0.7537E-30  0.1200E+02
  -7.870  0.2457E-29  0.1200E+02
  -7.860  0.7927E-29  0.1200E+02
  -7.850  0.2529E-28  0.1200E+02
  -7.840  0.7984E-28  0.1200E+02
  -7.830  0.2493E-27  0.1200E+02
  -7.820  0.7702E-27  0.1200E+02
  -7.810  0.2354E-26  0.1200E+02
  -7.800  0.7115E-26  0.1200E+02
  -7.790  0.2128E-25  0.1200E+02
  -7.780  0.6295E-25  0.1200E+02
  -7.770  0.1842E-24  0.1200E+02
  -7.760  0.5335E-24  0.1200E+02
  -7.750  0.1528E-23  0.1200E+02
  -7.740  0.4329E-23  0.1200E+02
  -7.730  0.1213E-22  0.1200E+02
  -7.720  0.3365E-22  0.1200E+02
  -7.710  0.9230E-22  0.1200E+02
  -7.700  0.2505E-21  0.1200E+02
  -7.690  0.6724E-21  0.1200E+02
  -7.680  0.1786E-20  0.1200E+02
  -7.670  0.4691E-20  0.1200E+02
  -7.660  0.1219E-19  0.1200E+02
  -7.650  0.3134E-19  0.1200E+02
  -7.640  0.7972E-19  0.1200E+02
  -7.630  0.2006E-18  0.1200E+02
  -7.620  0.4992E-18  0.1200E+02
  -7.610  0.1229E-17  0.1200E+02
  -7.600  0.2994E-17  0.1200E+02
  -7.590  0.7216E-17  0.1200E+02
  -7.580  0.1720E-16  0.1200E+02
  -7.570  0.4057E-16  0.1200E+02
  -7.560  0.9464E-16  0.1200E+02
  -7.550  0.2184E-15  0.1200E+02
  -7.540  0.4987E-15  0.1200E+02
  -7.530  0.1127E-14  0.1200E+02
  -7.520  0.2517E-14  0.1200E+02
  -7.510  0.5565E-14  0.1200E+02
  -7.500  0.1217E-13  0.1200E+02
  -7.490  0.2633E-13  0.1200E+02
  -7.480  0.5635E-13  0.1200E+02
  -7.470  0.1193E-12  0.1200E+02
  -7.460  0.2499E-12  0.1200E+02
  -7.450  0.5178E-12  0.1200E+02
  -7.440  0.1062E-11  0.1200E+02
  -7.430  0.2153E-11  0.1200E+02
  -7.420  0.4320E-11  0.1200E+02
  -7.410  0.8575E-11  0.1200E+02
  -7.400  0.1684E-10  0.1200E+02
  -7.390  0.3272E-10  0.1200E+02
  -7.380  0.6289E-10  0.1200E+02
  -7.370  0.1196E-09  0.1200E+02
  -7.360  0.2250E-09  0.1200E+02
  -7.350  0.4188E-09  0.1200E+02
  -7.340  0.7713E-09  0.1200E+02
  -7.330  0.1405E-08  0.1200E+02
  -7.320  0.2533E-08  0.1200E+02
  -7.310  0.4519E-08  0.1200E+02
  -7.300  0.7975E-08  0.1200E+02
  -7.290  0.1392E-07  0.1200E+02
  -7.280  0.2406E-07  0.1200E+02
  -7.270  0.4113E-07  0.1200E+02
  -7.260  0.6957E-07  0.1200E+02
  -7.250  0.1165E-06  0.1200E+02
  -7.240  0.1929E-06  0.1200E+02
  -7.230  0.3162E-06  0.1200E+02
  -7.220  0.5129E-06  0.1200E+02
  -7.210  0.8233E-06  0.1200E+02
  -7.200  0.1308E-05  0.1200E+02
  -7.190  0.2057E-05  0.1200E+02
  -7.180  0.3201E-05  0.1200E+02
  -7.170  0.4932E-05  0.1200E+02
  -7.160  0.7521E-05  0.1200E+02
  -7.150  0.1135E-04  0.1200E+02
  -7.140  0.1697E-04  0.1200E+02
  -7.130  0.2511E-04  0.1200E+02
  -7.120  0.3679E-04  0.1200E+02
  -7.110  0.5338E-04  0.1200E+02
  -7.100  0.7671E-04  0.1200E+02
  -7.090  0.1092E-03  0.1200E+02
  -7.080  0.1539E-03  0.1200E+02
  -7.070  0.2150E-03  0.1200E+02
  -7.060  0.2975E-03  0.1200E+02
  -7.050  0.4079E-03  0.1200E+02
  -7.040  0.5544E-03  0.1200E+02
  -7.030  0.7468E-03  0.1200E+02
  -7.020  0.9974E-03  0.1200E+02
  -7.010  0.1321E-02  0.1200E+02
  -7.000  0.1735E-02  0.1200E+02
  -6.990  0.2260E-02  0.1200E+02
  -6.980  0.2920E-02  0.1200E+02
  -6.970  0.3745E-02  0.1200E+02
  -6.960  0.4765E-02  0.1200E+02
  -6.950  0.6020E-02  0.1200E+02
  -6.940  0.7549E-02  0.1200E+02
  -6.930  0.9400E-02  0.1200E+02
  -6.920  0.1162E-01  0.1200E+02
  -6.910  0.1428E-01  0.1200E+02
  -6.900  0.1742E-01  0.1200E+02
  -6.890  0.2112E-01  0.1200E+02
  -6.880  0.2543E-01  0.1200E+02
  -6.870  0.3044E-01  0.1200E+02
  -6.860  0.3620E-01  0.1200E+02
  -6.850  0.4278E-01  0.1200E+02
  -6.840  0.5024E-01  0.1200E+02
  -6.830  0.5863E-01  0.1200E+02
  -6.820  0.6801E-01  0.1200E+02
  -6.810  0.7838E-01  0.1200E+02
  -6.800  0.8978E-01  0.1201E+02
  -6.790  0.1022E+00  0.1201E+02
  -6.780  0.1156E+00  0.1201E+02
  -6.770  0.1298E+00  0.1201E+02
  -6.760  0.1450E+00  0.1201E+02
  -6.750  0.1608E+00  0.1201E+02
  -6.740  0.1772E+00  0.1201E+02
  -6.730  0.1939E+00  0.1202E+02
  -6.720  0.2109E+00  0.1202E+02
  -6.710  0.2279E+00  0.1202E+02
  -6.700  0.2447E+00  0.1202E+02
  -6.690  0.2611E+00  0.1203E+02
  -6.680  0.2769E+00  0.1203E+02
  -6.670  0.2918E+00  0.1203E+02
  -6.660  0.3059E+00  0.1203E+02
  -6.650  0.3190E+00  0.1204E+02
  -6.640  0.3311E+00  0.1204E+02
  -6.630  0.3422E+00  0.1204E+02
  -6.620  0.3524E+00  0.1205E+02
  -6.610  0.3619E+00  0.1205E+02
  -6.600  0.3709E+00  0.1206E+02
  -6.590  0.3797E+00  0.1206E+02
  -6.580  0.3887E+00  0.1206E+02
  -6.570  0.3982E+00  0.1207E+02
  -6.560  0.4085E+00  0.1207E+02
  -6.550  0.4201E+00  0.1208E+02
  -6.540  0.4332E+00  0.1208E+02
  -6.530  0.4481E+00  0.1208E+02
  -6.520  0.4649E+00  0.1209E+02
  -6.510  0.4838E+00  0.1209E+02
  -6.500  0.5048E+00  0.1210E+02
  -6.490  0.5276E+00  0.1210E+02
  -6.480  0.5521E+00  0.1211E+02
  -6.470  0.5780E+00  0.1211E+02
  -6.460  0.6047E+00  0.1212E+02
  -6.450  0.6317E+00  0.1213E+02
  -6.440  0.6586E+00  0.1213E+02
  -6.430  0.6847E+00  0.1214E+02
  -6.420  0.7095E+00  0.1215E+02
  -6.410  0.7325E+00  0.1216E+02
  -6.400  0.7532E+00  0.1216E+02
  -6.390  0.7712E+00  0.1217E+02
  -6.380  0.7863E+00  0.1218E+02
  -6.370  0.7984E+00  0.1219E+02
  -6.360  0.8075E+00  0.1219E+02
  -6.350  0.8136E+00  0.1220E+02
  -6.340  0.8171E+00  0.1221E+02
  -6.330  0.8183E+00  0.1222E+02
  -6.320  0.8176E+00  0.1223E+02
  -6.310  0.8156E+00  0.1224E+02
  -6.300  0.8129E+00  0.1224E+02
  -6.290  0.8102E+00  0.1225E+02
  -6.280  0.8080E+00  0.1226E+02
  -6.270  0.8071E+00  0.1227E+02
  -6.260  0.8081E+00  0.1228E+02
  -6.250  0.8117E+00  0.1228E+02
  -6.240  0.8183E+00  0.1229E+02
  -6.230  0.8285E+00  0.1230E+02
  -6.220  0.8429E+00  0.1231E+02
  -6.210  0.8617E+00  0.1232E+02
  -6.200  0.8852E+00  0.1233E+02
  -6.190  0.9137E+00  0.1234E+02
  -6.180  0.9474E+00  0.1234E+02
  -6.170  0.9863E+00  0.1235E+02
  -6.160  0.1031E+01  0.1236E+02
  -6.150  0.1080E+01  0.1238E+02
  -6.140  0.1134E+01  0.1239E+02
  -6.130  0.1194E+01  0.1240E+02
  -6.120  0.1258E+01  0.1241E+02
  -6.110  0.1327E+01  0.1242E+02
  -6.100  0.1400E+01  0.1244E+02
  -6.090  0.1477E+01  0.1245E+02
  -6.080  0.1559E+01  0.1247E+02
  -6.070  0.1645E+01  0.1249E+02
  -6.060  0.1734E+01  0.1250E+02
  -6.050  0.1828E+01  0.1252E+02
  -6.040  0.1926E+01  0.1254E+02
  -6.030  0.2027E+01  0.1256E+02
  -6.020  0.2133E+01  0.1258E+02
  -6.010  0.2243E+01  0.1260E+02
  -6.000  0.2356E+01  0.1263E+02
  -5.990  0.2473E+01  0.1265E+02
  -5.980  0.2594E+01  0.1268E+02
  -5.970  0.2718E+01  0.1271E+02
  -5.960  0.2844E+01  0.1273E+02
  -5.950  0.2971E+01  0.1276E+02
  -5.940  0.3098E+01  0.1280E+02
  -5.930  0.3225E+01  0.1283E+02
  -5.920  0.3349E+01  0.1286E+02
  -5.910  0.3469E+01  0.1290E+02
  -5.900  0.3584E+01  0.1293E+02
  -5.890  0.3691E+01  0.1297E+02
  -5.880  0.3789E+01  0.1301E+02
  -5.870  0.3875E+01  0.1304E+02
  -5.860  0.3949E+01  0.1308E+02
  -5.850  0.4009E+01  0.1312E+02
  -5.840  0.4054E+01  0.1317E+02
  -5.830  0.4083E+01  0.1321E+02
  -5.820  0.4094E+01  0.1325E+02
  -5.810  0.4087E+01  0.1329E+02
  -5.800  0.4063E+01  0.1333E+02
  -5.790  0.4021E+01  0.1337E+02
  -5.780  0.3962E+01  0.1341E+02
  -5.770  0.3886E+01  0.1345E+02
  -5.760  0.3793E+01  0.1348E+02
  -5.750  0.3686E+01  0.1352E+02
  -5.740  0.3565E+01  0.1356E+02
  -5.730  0.3431E+01  0.1359E+02
  -5.720  0.3287E+01  0.1362E+02
  -5.710  0.3133E+01  0.1366E+02
  -5.700  0.2972E+01  0.1369E+02
  -5.690  0.2806E+01  0.1371E+02
  -5.680  0.2636E+01  0.1374E+02
  -5.670  0.2463E+01  0.1376E+02
  -5.660  0.2292E+01  0.1379E+02
  -5.650  0.2122E+01  0.1381E+02
  -5.640  0.1955E+01  0.1383E+02
  -5.630  0.1795E+01  0.1385E+02
  -5.620  0.1641E+01  0.1386E+02
  -5.610  0.1495E+01  0.1388E+02
  -5.600  0.1359E+01  0.1389E+02
  -5.590  0.1232E+01  0.1390E+02
  -5.580  0.1117E+01  0.1391E+02
  -5.570  0.1012E+01  0.1392E+02
  -5.560  0.9176E+00  0.1393E+02
  -5.550  0.8344E+00  0.1394E+02
  -5.540  0.7616E+00  0.1395E+02
  -5.530  0.6986E+00  0.1396E+02
  -5.520  0.6447E+00  0.1396E+02
  -5.510  0.5992E+00  0.1397E+02
  -5.500  0.5612E+00  0.1398E+02
  -5.490  0.5299E+00  0.1398E+02
  -5.480  0.5043E+00  0.1399E+02
  -5.470  0.4837E+00  0.1399E+02
  -5.460  0.4672E+00  0.1399E+02
  -5.450  0.4541E+00  0.1400E+02
  -5.440  0.4438E+00  0.1400E+02
  -5.430  0.4357E+00  0.1401E+02
  -5.420  0.4293E+00  0.1401E+02
  -5.410  0.4242E+00  0.1402E+02
  -5.400  0.4201E+00  0.1402E+02
  -5.390  0.4169E+00  0.1403E+02
  -5.380  0.4144E+00  0.1403E+02
  -5.370  0.4126E+00  0.1403E+02
  -5.360  0.4115E+00  0.1404E+02
  -5.350  0.4113E+00  0.1404E+02
  -5.340  0.4121E+00  0.1405E+02
  -5.330  0.4142E+00  0.1405E+02
  -5.320  0.4179E+00  0.1405E+02
  -5.310  0.4235E+00  0.1406E+02
  -5.300  0.4312E+00  0.1406E+02
  -5.290  0.4413E+00  0.1407E+02
  -5.280  0.4542E+00  0.1407E+02
  -5.270  0.4699E+00  0.1408E+02
  -5.260  0.4886E+00  0.1408E+02
  -5.250  0.5103E+00  0.1409E+02
  -5.240  0.5350E+00  0.1409E+02
  -5.230  0.5624E+00  0.1410E+02
  -5.220  0.5924E+00  0.1410E+02
  -5.210  0.6246E+00  0.1411E+02
  -5.200  0.6585E+00  0.1412E+02
  -5.190  0.6938E+00  0.1412E+02
  -5.180  0.7299E+00  0.1413E+02
  -5.170  0.7664E+00  0.1414E+02
  -5.160  0.8026E+00  0.1415E+02
  -5.150  0.8383E+00  0.1415E+02
  -5.140  0.8729E+00  0.1416E+02
  -5.130  0.9062E+00  0.1417E+02
  -5.120  0.9378E+00  0.1418E+02
  -5.110  0.9677E+00  0.1419E+02
  -5.100  0.9957E+00  0.1420E+02
  -5.090  0.1022E+01  0.1421E+02
  -5.080  0.1046E+01  0.1422E+02
  -5.070  0.1069E+01  0.1423E+02
  -5.060  0.1090E+01  0.1424E+02
  -5.050  0.1110E+01  0.1425E+02
  -5.040  0.1128E+01  0.1427E+02
  -5.030  0.1147E+01  0.1428E+02
  -5.020  0.1165E+01  0.1429E+02
  -5.010  0.1183E+01  0.1430E+02
  -5.000  0.1203E+01  0.1431E+02
  -4.990  0.1224E+01  0.1432E+02
  -4.980  0.1247E+01  0.1434E+02
  -4.970  0.1274E+01  0.1435E+02
  -4.960  0.1306E+01  0.1436E+02
  -4.950  0.1343E+01  0.1438E+02
  -4.940  0.1388E+01  0.1439E+02
  -4.930  0.1441E+01  0.1440E+02
  -4.920  0.1505E+01  0.1442E+02
  -4.910  0.1579E+01  0.1444E+02
  -4.900  0.1666E+01  0.1445E+02
  -4.890  0.1766E+01  0.1447E+02
  -4.880  0.1880E+01  0.1449E+02
  -4.870  0.2008E+01  0.1451E+02
  -4.860  0.2149E+01  0.1453E+02
  -4.850  0.2302E+01  0.1455E+02
  -4.840  0.2466E+01  0.1458E+02
  -4.830  0.2639E+01  0.1460E+02
  -4.820  0.2817E+01  0.1463E+02
  -4.810  0.2996E+01  0.1466E+02
  -4.800  0.3174E+01  0.1469E+02
  -4.790  0.3346E+01  0.1473E+02
  -4.780  0.3508E+01  0.1476E+02
  -4.770  0.3655E+01  0.1480E+02
  -4.760  0.3784E+01  0.1484E+02
  -4.750  0.3890E+01  0.1488E+02
  -4.740  0.3972E+01  0.1492E+02
  -4.730  0.4025E+01  0.1496E+02
  -4.720  0.4050E+01  0.1500E+02
  -4.710  0.4045E+01  0.1504E+02
  -4.700  0.4010E+01  0.1508E+02
  -4.690  0.3947E+01  0.1512E+02
  -4.680  0.3858E+01  0.1516E+02
  -4.670  0.3746E+01  0.1519E+02
  -4.660  0.3613E+01  0.1523E+02
  -4.650  0.3464E+01  0.1526E+02
  -4.640  0.3303E+01  0.1530E+02
  -4.630  0.3134E+01  0.1533E+02
  -4.620  0.2961E+01  0.1536E+02
  -4.610  0.2788E+01  0.1539E+02
  -4.600  0.2618E+01  0.1541E+02
  -4.590  0.2455E+01  0.1544E+02
  -4.580  0.2301E+01  0.1546E+02
  -4.570  0.2158E+01  0.1548E+02
  -4.560  0.2027E+01  0.1550E+02
  -4.550  0.1908E+01  0.1552E+02
  -4.540  0.1803E+01  0.1554E+02
  -4.530  0.1710E+01  0.1556E+02
  -4.520  0.1629E+01  0.1557E+02
  -4.510  0.1560E+01  0.1559E+02
  -4.500  0.1500E+01  0.1560E+02
  -4.490  0.1448E+01  0.1562E+02
  -4.480  0.1404E+01  0.1563E+02
  -4.470  0.1365E+01  0.1564E+02
  -4.460  0.1331E+01  0.1566E+02
  -4.450  0.1300E+01  0.1567E+02
  -4.440  0.1272E+01  0.1568E+02
  -4.430  0.1245E+01  0.1570E+02
  -4.420  0.1219E+01  0.1571E+02
  -4.410  0.1193E+01  0.1572E+02
  -4.400  0.1167E+01  0.1573E+02
  -4.390  0.1140E+01  0.1574E+02
  -4.380  0.1112E+01  0.1575E+02
  -4.370  0.1083E+01  0.1576E+02
  -4.360  0.1054E+01  0.1578E+02
  -4.350  0.1023E+01  0.1579E+02
  -4.340  0.9919E+00  0.1580E+02
  -4.330  0.9598E+00  0.1581E+02
  -4.320  0.9273E+00  0.1581E+02
  -4.310  0.8944E+00  0.1582E+02
  -4.300  0.8615E+00  0.1583E+02
  -4.290  0.8288E+00  0.1584E+02
  -4.280  0.7967E+00  0.1585E+02
  -4.270  0.7653E+00  0.1586E+02
  -4.260  0.7352E+00  0.1586E+02
  -4.250  0.7065E+00  0.1587E+02
  -4.240  0.6796E+00  0.1588E+02
  -4.230  0.6548E+00  0.1588E+02
  -4.220  0.6326E+00  0.1589E+02
  -4.210  0.6132E+00  0.1590E+02
  -4.200  0.5972E+00  0.1590E+02
  -4.190  0.5849E+00  0.1591E+02
  -4.180  0.5768E+00  0.1591E+02
  -4.170  0.5734E+00  0.1592E+02
  -4.160  0.5752E+00  0.1593E+02
  -4.150  0.5828E+00  0.1593E+02
  -4.140  0.5968E+00  0.1594E+02
  -4.130  0.6175E+00  0.1594E+02
  -4.120  0.6455E+00  0.1595E+02
  -4.110  0.6813E+00  0.1596E+02
  -4.100  0.7252E+00  0.1596E+02
  -4.090  0.7773E+00  0.1597E+02
  -4.080  0.8379E+00  0.1598E+02
  -4.070  0.9068E+00  0.1599E+02
  -4.060  0.9839E+00  0.1600E+02
  -4.050  0.1069E+01  0.1601E+02
  -4.040  0.1161E+01  0.1602E+02
  -4.030  0.1259E+01  0.1603E+02
  -4.020  0.1364E+01  0.1605E+02
  -4.010  0.1472E+01  0.1606E+02
  -4.000  0.1585E+01  0.1608E+02
  -3.990  0.1699E+01  0.1609E+02
  -3.980  0.1814E+01  0.1611E+02
  -3.970  0.1929E+01  0.1613E+02
  -3.960  0.2042E+01  0.1615E+02
  -3.950  0.2152E+01  0.1617E+02
  -3.940  0.2258E+01  0.1620E+02
  -3.930  0.2359E+01  0.1622E+02
  -3.920  0.2453E+01  0.1625E+02
  -3.910  0.2539E+01  0.1627E+02
  -3.900  0.2618E+01  0.1630E+02
  -3.890  0.2688E+01  0.1632E+02
  -3.880  0.2749E+01  0.1635E+02
  -3.870  0.2800E+01  0.1638E+02
  -3.860  0.2842E+01  0.1641E+02
  -3.850  0.2874E+01  0.1644E+02
  -3.840  0.2897E+01  0.1647E+02
  -3.830  0.2911E+01  0.1649E+02
  -3.820  0.2917E+01  0.1652E+02
  -3.810  0.2915E+01  0.1655E+02
  -3.800  0.2905E+01  0.1658E+02
  -3.790  0.2890E+01  0.1661E+02
  -3.780  0.2868E+01  0.1664E+02
  -3.770  0.2843E+01  0.1667E+02
  -3.760  0.2814E+01  0.1670E+02
  -3.750  0.2782E+01  0.1672E+02
  -3.740  0.2749E+01  0.1675E+02
  -3.730  0.2715E+01  0.1678E+02
  -3.720  0.2681E+01  0.1680E+02
  -3.710  0.2647E+01  0.1683E+02
  -3.700  0.2615E+01  0.1686E+02
  -3.690  0.2584E+01  0.1688E+02
  -3.680  0.2554E+01  0.1691E+02
  -3.670  0.2526E+01  0.1693E+02
  -3.660  0.2499E+01  0.1696E+02
  -3.650  0.2473E+01  0.1698E+02
  -3.640  0.2446E+01  0.1701E+02
  -3.630  0.2420E+01  0.1703E+02
  -3.620  0.2393E+01  0.1706E+02
  -3.610  0.2365E+01  0.1708E+02
  -3.600  0.2336E+01  0.1710E+02
  -3.590  0.2305E+01  0.1713E+02
  -3.580  0.2272E+01  0.1715E+02
  -3.570  0.2237E+01  0.1717E+02
  -3.560  0.2201E+01  0.1719E+02
  -3.550  0.2164E+01  0.1722E+02
  -3.540  0.2127E+01  0.1724E+02
  -3.530  0.2089E+01  0.1726E+02
  -3.520  0.2052E+01  0.1728E+02
  -3.510  0.2016E+01  0.1730E+02
  -3.500  0.1981E+01  0.1732E+02
  -3.490  0.1948E+01  0.1734E+02
  -3.480  0.1917E+01  0.1736E+02
  -3.470  0.1888E+01  0.1738E+02
  -3.460  0.1861E+01  0.1739E+02
  -3.450  0.1836E+01  0.1741E+02
  -3.440  0.1812E+01  0.1743E+02
  -3.430  0.1789E+01  0.1745E+02
  -3.420  0.1766E+01  0.1747E+02
  -3.410  0.1743E+01  0.1748E+02
  -3.400  0.1720E+01  0.1750E+02
  -3.390  0.1696E+01  0.1752E+02
  -3.380  0.1672E+01  0.1753E+02
  -3.370  0.1646E+01  0.1755E+02
  -3.360  0.1618E+01  0.1757E+02
  -3.350  0.1590E+01  0.1758E+02
  -3.340  0.1561E+01  0.1760E+02
  -3.330  0.1531E+01  0.1761E+02
  -3.320  0.1500E+01  0.1763E+02
  -3.310  0.1470E+01  0.1764E+02
  -3.300  0.1440E+01  0.1766E+02
  -3.290  0.1410E+01  0.1767E+02
  -3.280  0.1381E+01  0.1769E+02
  -3.270  0.1354E+01  0.1770E+02
  -3.260  0.1328E+01  0.1771E+02
  -3.250  0.1305E+01  0.1773E+02
  -3.240  0.1284E+01  0.1774E+02
  -3.230  0.1267E+01  0.1775E+02
  -3.220  0.1254E+01  0.1776E+02
  -3.210  0.1247E+01  0.1778E+02
  -3.200  0.1246E+01  0.1779E+02
  -3.190  0.1254E+01  0.1780E+02
  -3.180  0.1271E+01  0.1781E+02
  -3.170  0.1299E+01  0.1783E+02
  -3.160  0.1341E+01  0.1784E+02
  -3.150  0.1400E+01  0.1785E+02
  -3.140  0.1476E+01  0.1787E+02
  -3.130  0.1573E+01  0.1788E+02
  -3.120  0.1693E+01  0.1790E+02
  -3.110  0.1839E+01  0.1792E+02
  -3.100  0.2013E+01  0.1794E+02
  -3.090  0.2216E+01  0.1796E+02
  -3.080  0.2450E+01  0.1799E+02
  -3.070  0.2715E+01  0.1801E+02
  -3.060  0.3013E+01  0.1804E+02
  -3.050  0.3342E+01  0.1808E+02
  -3.040  0.3702E+01  0.1811E+02
  -3.030  0.4090E+01  0.1816E+02
  -3.020  0.4503E+01  0.1820E+02
  -3.010  0.4937E+01  0.1825E+02
  -3.000  0.5387E+01  0.1830E+02
  -2.990  0.5848E+01  0.1836E+02
  -2.980  0.6313E+01  0.1843E+02
  -2.970  0.6775E+01  0.1849E+02
  -2.960  0.7227E+01  0.1857E+02
  -2.950  0.7662E+01  0.1864E+02
  -2.940  0.8073E+01  0.1872E+02
  -2.930  0.8452E+01  0.1881E+02
  -2.920  0.8795E+01  0.1890E+02
  -2.910  0.9095E+01  0.1899E+02
  -2.900  0.9348E+01  0.1908E+02
  -2.890  0.9552E+01  0.1918E+02
  -2.880  0.9705E+01  0.1927E+02
  -2.870  0.9806E+01  0.1937E+02
  -2.860  0.9857E+01  0.1947E+02
  -2.850  0.9858E+01  0.1957E+02
  -2.840  0.9814E+01  0.1967E+02
  -2.830  0.9727E+01  0.1976E+02
  -2.820  0.9604E+01  0.1986E+02
  -2.810  0.9447E+01  0.1995E+02
  -2.800  0.9264E+01  0.2005E+02
  -2.790  0.9059E+01  0.2014E+02
  -2.780  0.8838E+01  0.2023E+02
  -2.770  0.8606E+01  0.2031E+02
  -2.760  0.8368E+01  0.2039E+02
  -2.750  0.8129E+01  0.2048E+02
  -2.740  0.7892E+01  0.2056E+02
  -2.730  0.7662E+01  0.2063E+02
  -2.720  0.7440E+01  0.2071E+02
  -2.710  0.7231E+01  0.2078E+02
  -2.700  0.7034E+01  0.2085E+02
  -2.690  0.6853E+01  0.2092E+02
  -2.680  0.6688E+01  0.2098E+02
  -2.670  0.6539E+01  0.2105E+02
  -2.660  0.6407E+01  0.2111E+02
  -2.650  0.6292E+01  0.2118E+02
  -2.640  0.6192E+01  0.2124E+02
  -2.630  0.6107E+01  0.2130E+02
  -2.620  0.6037E+01  0.2136E+02
  -2.610  0.5979E+01  0.2142E+02
  -2.600  0.5934E+01  0.2148E+02
  -2.590  0.5899E+01  0.2154E+02
  -2.580  0.5874E+01  0.2160E+02
  -2.570  0.5858E+01  0.2166E+02
  -2.560  0.5849E+01  0.2171E+02
  -2.550  0.5847E+01  0.2177E+02
  -2.540  0.5851E+01  0.2183E+02
  -2.530  0.5859E+01  0.2189E+02
  -2.520  0.5872E+01  0.2195E+02
  -2.510  0.5887E+01  0.2201E+02
  -2.500  0.5904E+01  0.2207E+02
  -2.490  0.5922E+01  0.2213E+02
  -2.480  0.5939E+01  0.2218E+02
  -2.470  0.5955E+01  0.2224E+02
  -2.460  0.5968E+01  0.2230E+02
  -2.450  0.5977E+01  0.2236E+02
  -2.440  0.5981E+01  0.2242E+02
  -2.430  0.5977E+01  0.2248E+02
  -2.420  0.5966E+01  0.2254E+02
  -2.410  0.5946E+01  0.2260E+02
  -2.400  0.5917E+01  0.2266E+02
  -2.390  0.5876E+01  0.2272E+02
  -2.380  0.5824E+01  0.2278E+02
  -2.370  0.5761E+01  0.2284E+02
  -2.360  0.5686E+01  0.2289E+02
  -2.350  0.5599E+01  0.2295E+02
  -2.340  0.5500E+01  0.2300E+02
  -2.330  0.5391E+01  0.2306E+02
  -2.320  0.5271E+01  0.2311E+02
  -2.310  0.5141E+01  0.2316E+02
  -2.300  0.5003E+01  0.2321E+02
  -2.290  0.4857E+01  0.2326E+02
  -2.280  0.4703E+01  0.2331E+02
  -2.270  0.4544E+01  0.2335E+02
  -2.260  0.4381E+01  0.2340E+02
  -2.250  0.4213E+01  0.2344E+02
  -2.240  0.4043E+01  0.2348E+02
  -2.230  0.3872E+01  0.2352E+02
  -2.220  0.3699E+01  0.2356E+02
  -2.210  0.3526E+01  0.2359E+02
  -2.200  0.3353E+01  0.2362E+02
  -2.190  0.3181E+01  0.2366E+02
  -2.180  0.3010E+01  0.2369E+02
  -2.170  0.2841E+01  0.2371E+02
  -2.160  0.2674E+01  0.2374E+02
  -2.150  0.2509E+01  0.2377E+02
  -2.140  0.2347E+01  0.2379E+02
  -2.130  0.2188E+01  0.2381E+02
  -2.120  0.2032E+01  0.2383E+02
  -2.110  0.1879E+01  0.2385E+02
  -2.100  0.1730E+01  0.2387E+02
  -2.090  0.1586E+01  0.2388E+02
  -2.080  0.1447E+01  0.2390E+02
  -2.070  0.1313E+01  0.2391E+02
  -2.060  0.1185E+01  0.2392E+02
  -2.050  0.1064E+01  0.2393E+02
  -2.040  0.9490E+00  0.2394E+02
  -2.030  0.8414E+00  0.2395E+02
  -2.020  0.7413E+00  0.2396E+02
  -2.010  0.6488E+00  0.2397E+02
  -2.000  0.5640E+00  0.2397E+02
  -1.990  0.4869E+00  0.2398E+02
  -1.980  0.4173E+00  0.2398E+02
  -1.970  0.3552E+00  0.2398E+02
  -1.960  0.3001E+00  0.2399E+02
  -1.950  0.2516E+00  0.2399E+02
  -1.940  0.2094E+00  0.2399E+02
  -1.930  0.1729E+00  0.2399E+02
  -1.920  0.1417E+00  0.2399E+02
  -1.910  0.1152E+00  0.2400E+02
  -1.900  0.9296E-01  0.2400E+02
  -1.890  0.7439E-01  0.2400E+02
  -1.880  0.5905E-01  0.2400E+02
  -1.870  0.4650E-01  0.2400E+02
  -1.860  0.3631E-01  0.2400E+02
  -1.850  0.2812E-01  0.2400E+02
  -1.840  0.2160E-01  0.2400E+02
  -1.830  0.1645E-01  0.2400E+02
  -1.820  0.1242E-01  0.2400E+02
  -1.810  0.9299E-02  0.2400E+02
  -1.800  0.6902E-02  0.2400E+02
  -1.790  0.5078E-02  0.2400E+02
  -1.780  0.3703E-02  0.2400E+02
  -1.770  0.2676E-02  0.2400E+02
  -1.760  0.1917E-02  0.2400E+02
  -1.750  0.1361E-02  0.2400E+02
  -1.740  0.9573E-03  0.2400E+02
  -1.730  0.6672E-03  0.2400E+02
  -1.720  0.4607E-03  0.2400E+02
  -1.710  0.3152E-03  0.2400E+02
  -1.700  0.2136E-03  0.2400E+02
  -1.690  0.1434E-03  0.2400E+02
  -1.680  0.9534E-04  0.2400E+02
  -1.670  0.6278E-04  0.2400E+02
  -1.660  0.4095E-04  0.2400E+02
  -1.650  0.2645E-04  0.2400E+02
  -1.640  0.1691E-04  0.2400E+02
  -1.630  0.1071E-04  0.2400E+02
  -1.620  0.6716E-05  0.2400E+02
  -1.610  0.4169E-05  0.2400E+02
  -1.600  0.2563E-05  0.2400E+02
  -1.590  0.1559E-05  0.2400E+02
  -1.580  0.9391E-06  0.2400E+02
  -1.570  0.5600E-06  0.2400E+02
  -1.560  0.3305E-06  0.2400E+02
  -1.550  0.1931E-06  0.2400E+02
  -1.540  0.1116E-06  0.2400E+02
  -1.530  0.6389E-07  0.2400E+02
  -1.520  0.3619E-07  0.2400E+02
  -1.510  0.2029E-07  0.2400E+02
  -1.500  0.1125E-07  0.2400E+02
  -1.490  0.6178E-08  0.2400E+02
  -1.480  0.3357E-08  0.2400E+02
  -1.470  0.1805E-08  0.2400E+02
  -1.460  0.9602E-09  0.2400E+02
  -1.450  0.5055E-09  0.2400E+02
  -1.440  0.2634E-09  0.2400E+02
  -1.430  0.1358E-09  0.2400E+02
  -1.420  0.6927E-10  0.2400E+02
  -1.410  0.3499E-10  0.2400E+02
  -1.400  0.1755E-10  0.2400E+02
  -1.390  0.8828E-11  0.2400E+02
  -1.380  0.4659E-11  0.2400E+02
  -1.370  0.2993E-11  0.2400E+02
  -1.360  0.3006E-11  0.2400E+02
  -1.350  0.4741E-11  0.2400E+02
  -1.340  0.9144E-11  0.2400E+02
  -1.330  0.1853E-10  0.2400E+02
  -1.320  0.3771E-10  0.2400E+02
  -1.310  0.7620E-10  0.2400E+02
  -1.300  0.1525E-09  0.2400E+02
  -1.290  0.3022E-09  0.2400E+02
  -1.280  0.5927E-09  0.2400E+02
  -1.270  0.1151E-08  0.2400E+02
  -1.260  0.2211E-08  0.2400E+02
  -1.250  0.4205E-08  0.2400E+02
  -1.240  0.7917E-08  0.2400E+02
  -1.230  0.1475E-07  0.2400E+02
  -1.220  0.2722E-07  0.2400E+02
  -1.210  0.4971E-07  0.2400E+02
  -1.200  0.8987E-07  0.2400E+02
  -1.190  0.1608E-06  0.2400E+02
  -1.180  0.2850E-06  0.2400E+02
  -1.170  0.4999E-06  0.2400E+02
  -1.160  0.8680E-06  0.2400E+02
  -1.150  0.1492E-05  0.2400E+02
  -1.140  0.2540E-05  0.2400E+02
  -1.130  0.4281E-05  0.2400E+02
  -1.120  0.7143E-05  0.2400E+02
  -1.110  0.1180E-04  0.2400E+02
  -1.100  0.1930E-04  0.2400E+02
  -1.090  0.3127E-04  0.2400E+02
  -1.080  0.5014E-04  0.2400E+02
  -1.070  0.7964E-04  0.2400E+02
  -1.060  0.1252E-03  0.2400E+02
  -1.050  0.1950E-03  0.2400E+02
  -1.040  0.3008E-03  0.2400E+02
  -1.030  0.4594E-03  0.2400E+02
  -1.020  0.6949E-03  0.2400E+02
  -1.010  0.1041E-02  0.2400E+02
  -1.000  0.1545E-02  0.2400E+02
  -0.990  0.2270E-02  0.2400E+02
  -0.980  0.3304E-02  0.2400E+02
  -0.970  0.4763E-02  0.2400E+02
  -0.960  0.6802E-02  0.2400E+02
  -0.950  0.9621E-02  0.2400E+02
  -0.940  0.1348E-01  0.2400E+02
  -0.930  0.1872E-01  0.2400E+02
  -0.920  0.2574E-01  0.2400E+02
  -0.910  0.3507E-01  0.2400E+02
  -0.900  0.4734E-01  0.2400E+02
  -0.890  0.6332E-01  0.2400E+02
  -0.880  0.8392E-01  0.2400E+02
  -0.870  0.1102E+00  0.2400E+02
  -0.860  0.1434E+00  0.2401E+02
  -0.850  0.1849E+00  0.2401E+02
  -0.840  0.2363E+00  0.2401E+02
  -0.830  0.2993E+00  0.2401E+02
  -0.820  0.3757E+00  0.2402E+02
  -0.810  0.4675E+00  0.2402E+02
  -0.800  0.5766E+00  0.2403E+02
  -0.790  0.7050E+00  0.2403E+02
  -0.780  0.8545E+00  0.2404E+02
  -0.770  0.1027E+01  0.2405E+02
  -0.760  0.1223E+01  0.2407E+02
  -0.750  0.1445E+01  0.2408E+02
  -0.740  0.1693E+01  0.2410E+02
  -0.730  0.1967E+01  0.2412E+02
  -0.720  0.2266E+01  0.2414E+02
  -0.710  0.2590E+01  0.2416E+02
  -0.700  0.2936E+01  0.2419E+02
  -0.690  0.3302E+01  0.2423E+02
  -0.680  0.3685E+01  0.2426E+02
  -0.670  0.4080E+01  0.2430E+02
  -0.660  0.4483E+01  0.2435E+02
  -0.650  0.4889E+01  0.2440E+02
  -0.640  0.5292E+01  0.2445E+02
  -0.630  0.5686E+01  0.2451E+02
  -0.620  0.6067E+01  0.2457E+02
  -0.610  0.6429E+01  0.2463E+02
  -0.600  0.6765E+01  0.2470E+02
  -0.590  0.7073E+01  0.2477E+02
  -0.580  0.7347E+01  0.2485E+02
  -0.570  0.7585E+01  0.2492E+02
  -0.560  0.7784E+01  0.2500E+02
  -0.550  0.7944E+01  0.2508E+02
  -0.540  0.8063E+01  0.2516E+02
  -0.530  0.8142E+01  0.2524E+02
  -0.520  0.8184E+01  0.2532E+02
  -0.510  0.8190E+01  0.2540E+02
  -0.500  0.8163E+01  0.2549E+02
  -0.490  0.8109E+01  0.2557E+02
  -0.480  0.8030E+01  0.2565E+02
  -0.470  0.7933E+01  0.2573E+02
  -0.460  0.7820E+01  0.2580E+02
  -0.450  0.7698E+01  0.2588E+02
  -0.440  0.7571E+01  0.2596E+02
  -0.430  0.7442E+01  0.2603E+02
  -0.420  0.7316E+01  0.2610E+02
  -0.410  0.7197E+01  0.2618E+02
  -0.400  0.7086E+01  0.2625E+02
  -0.390  0.6986E+01  0.2632E+02
  -0.380  0.6899E+01  0.2639E+02
  -0.370  0.6824E+01  0.2645E+02
  -0.360  0.6764E+01  0.2652E+02
  -0.350  0.6717E+01  0.2659E+02
  -0.340  0.6683E+01  0.2666E+02
  -0.330  0.6661E+01  0.2672E+02
  -0.320  0.6650E+01  0.2679E+02
  -0.310  0.6649E+01  0.2686E+02
  -0.300  0.6656E+01  0.2692E+02
  -0.290  0.6669E+01  0.2699E+02
  -0.280  0.6688E+01  0.2706E+02
  -0.270  0.6712E+01  0.2712E+02
  -0.260  0.6738E+01  0.2719E+02
  -0.250  0.6766E+01  0.2726E+02
  -0.240  0.6796E+01  0.2733E+02
  -0.230  0.6826E+01  0.2739E+02
  -0.220  0.6857E+01  0.2746E+02
  -0.210  0.6889E+01  0.2753E+02
  -0.200  0.6921E+01  0.2760E+02
  -0.190  0.6955E+01  0.2767E+02
  -0.180  0.6989E+01  0.2774E+02
  -0.170  0.7025E+01  0.2781E+02
  -0.160  0.7062E+01  0.2788E+02
  -0.150  0.7100E+01  0.2795E+02
  -0.140  0.7139E+01  0.2802E+02
  -0.130  0.7178E+01  0.2810E+02
  -0.120  0.7217E+01  0.2817E+02
  -0.110  0.7254E+01  0.2824E+02
  -0.100  0.7287E+01  0.2831E+02
  -0.090  0.7315E+01  0.2839E+02
  -0.080  0.7335E+01  0.2846E+02
  -0.070  0.7347E+01  0.2853E+02
  -0.060  0.7346E+01  0.2861E+02
  -0.050  0.7332E+01  0.2868E+02
  -0.040  0.7303E+01  0.2875E+02
  -0.030  0.7257E+01  0.2883E+02
  -0.020  0.7194E+01  0.2890E+02
  -0.010  0.7113E+01  0.2897E+02
  -0.000  0.7014E+01  0.2904E+02
   0.010  0.6899E+01  0.2911E+02
   0.020  0.6768E+01  0.2918E+02
   0.030  0.6625E+01  0.2924E+02
   0.040  0.6472E+01  0.2931E+02
   0.050  0.6313E+01  0.2937E+02
   0.060  0.6150E+01  0.2943E+02
   0.070  0.5988E+01  0.2949E+02
   0.080  0.5832E+01  0.2955E+02
   0.090  0.5685E+01  0.2961E+02
   0.100  0.5551E+01  0.2966E+02
   0.110  0.5434E+01  0.2972E+02
   0.120  0.5337E+01  0.2977E+02
   0.130  0.5263E+01  0.2982E+02
   0.140  0.5214E+01  0.2987E+02
   0.150  0.5191E+01  0.2993E+02
   0.160  0.5196E+01  0.2998E+02
   0.170  0.5227E+01  0.3003E+02
   0.180  0.5284E+01  0.3008E+02
   0.190  0.5364E+01  0.3014E+02
   0.200  0.5466E+01  0.3019E+02
   0.210  0.5586E+01  0.3025E+02
   0.220  0.5721E+01  0.3030E+02
   0.230  0.5865E+01  0.3036E+02
   0.240  0.6015E+01  0.3042E+02
   0.250  0.6165E+01  0.3048E+02
   0.260  0.6313E+01  0.3055E+02
   0.270  0.6454E+01  0.3061E+02
   0.280  0.6583E+01  0.3068E+02
   0.290  0.6699E+01  0.3075E+02
   0.300  0.6799E+01  0.3081E+02
   0.310  0.6882E+01  0.3088E+02
   0.320  0.6948E+01  0.3095E+02
   0.330  0.6997E+01  0.3102E+02
   0.340  0.7031E+01  0.3109E+02
   0.350  0.7052E+01  0.3116E+02
   0.360  0.7064E+01  0.3123E+02
   0.370  0.7070E+01  0.3130E+02
   0.380  0.7075E+01  0.3137E+02
   0.390  0.7083E+01  0.3145E+02
   0.400  0.7097E+01  0.3152E+02
   0.410  0.7122E+01  0.3159E+02
   0.420  0.7160E+01  0.3166E+02
   0.430  0.7214E+01  0.3173E+02
   0.440  0.7285E+01  0.3180E+02
   0.450  0.7373E+01  0.3188E+02
   0.460  0.7478E+01  0.3195E+02
   0.470  0.7597E+01  0.3203E+02
   0.480  0.7727E+01  0.3211E+02
   0.490  0.7864E+01  0.3218E+02
   0.500  0.8002E+01  0.3226E+02
   0.510  0.8136E+01  0.3235E+02
   0.520  0.8260E+01  0.3243E+02
   0.530  0.8368E+01  0.3251E+02
   0.540  0.8453E+01  0.3260E+02
   0.550  0.8510E+01  0.3268E+02
   0.560  0.8536E+01  0.3277E+02
   0.570  0.8526E+01  0.3285E+02
   0.580  0.8479E+01  0.3294E+02
   0.590  0.8393E+01  0.3302E+02
   0.600  0.8269E+01  0.3310E+02
   0.610  0.8110E+01  0.3319E+02
   0.620  0.7919E+01  0.3326E+02
   0.630  0.7700E+01  0.3334E+02
   0.640  0.7459E+01  0.3342E+02
   0.650  0.7202E+01  0.3349E+02
   0.660  0.6937E+01  0.3356E+02
   0.670  0.6670E+01  0.3362E+02
   0.680  0.6409E+01  0.3369E+02
   0.690  0.6160E+01  0.3375E+02
   0.700  0.5929E+01  0.3381E+02
   0.710  0.5722E+01  0.3387E+02
   0.720  0.5543E+01  0.3392E+02
   0.730  0.5396E+01  0.3398E+02
   0.740  0.5283E+01  0.3403E+02
   0.750  0.5205E+01  0.3408E+02
   0.760  0.5163E+01  0.3413E+02
   0.770  0.5157E+01  0.3418E+02
   0.780  0.5184E+01  0.3424E+02
   0.790  0.5244E+01  0.3429E+02
   0.800  0.5334E+01  0.3434E+02
   0.810  0.5450E+01  0.3440E+02
   0.820  0.5591E+01  0.3445E+02
   0.830  0.5752E+01  0.3451E+02
   0.840  0.5931E+01  0.3457E+02
   0.850  0.6125E+01  0.3463E+02
   0.860  0.6330E+01  0.3469E+02
   0.870  0.6545E+01  0.3476E+02
   0.880  0.6766E+01  0.3483E+02
   0.890  0.6990E+01  0.3490E+02
   0.900  0.7217E+01  0.3497E+02
   0.910  0.7443E+01  0.3504E+02
   0.920  0.7666E+01  0.3512E+02
   0.930  0.7884E+01  0.3520E+02
   0.940  0.8097E+01  0.3528E+02
   0.950  0.8300E+01  0.3536E+02
   0.960  0.8493E+01  0.3545E+02
   0.970  0.8673E+01  0.3553E+02
   0.980  0.8839E+01  0.3562E+02
   0.990  0.8988E+01  0.3571E+02
   1.000  0.9119E+01  0.3580E+02
   1.010  0.9230E+01  0.3590E+02
   1.020  0.9319E+01  0.3599E+02
   1.030  0.9384E+01  0.3608E+02
   1.040  0.9425E+01  0.3618E+02
   1.050  0.9441E+01  0.3627E+02
   1.060  0.9432E+01  0.3637E+02
   1.070  0.9397E+01  0.3646E+02
   1.080  0.9338E+01  0.3655E+02
   1.090  0.9255E+01  0.3665E+02
   1.100  0.9151E+01  0.3674E+02
   1.110  0.9028E+01  0.3683E+02
   1.120  0.8889E+01  0.3692E+02
   1.130  0.8737E+01  0.3700E+02
   1.140  0.8577E+01  0.3709E+02
   1.150  0.8411E+01  0.3717E+02
   1.160  0.8245E+01  0.3726E+02
   1.170  0.8082E+01  0.3734E+02
   1.180  0.7927E+01  0.3742E+02
   1.190  0.7784E+01  0.3749E+02
   1.200  0.7656E+01  0.3757E+02
   1.210  0.7547E+01  0.3765E+02
   1.220  0.7458E+01  0.3772E+02
   1.230  0.7393E+01  0.3779E+02
   1.240  0.7352E+01  0.3787E+02
   1.250  0.7336E+01  0.3794E+02
   1.260  0.7345E+01  0.3801E+02
   1.270  0.7378E+01  0.3809E+02
   1.280  0.7432E+01  0.3816E+02
   1.290  0.7507E+01  0.3824E+02
   1.300  0.7599E+01  0.3831E+02
   1.310  0.7704E+01  0.3839E+02
   1.320  0.7821E+01  0.3847E+02
   1.330  0.7944E+01  0.3855E+02
   1.340  0.8070E+01  0.3863E+02
   1.350  0.8195E+01  0.3871E+02
   1.360  0.8317E+01  0.3879E+02
   1.370  0.8432E+01  0.3888E+02
   1.380  0.8538E+01  0.3896E+02
   1.390  0.8633E+01  0.3905E+02
   1.400  0.8715E+01  0.3914E+02
   1.410  0.8785E+01  0.3923E+02
   1.420  0.8842E+01  0.3931E+02
   1.430  0.8887E+01  0.3940E+02
   1.440  0.8920E+01  0.3949E+02
   1.450  0.8944E+01  0.3958E+02
   1.460  0.8960E+01  0.3967E+02
   1.470  0.8969E+01  0.3976E+02
   1.480  0.8974E+01  0.3985E+02
   1.490  0.8976E+01  0.3994E+02
   1.500  0.8975E+01  0.4003E+02
   1.510  0.8974E+01  0.4012E+02
   1.520  0.8971E+01  0.4021E+02
   1.530  0.8968E+01  0.4030E+02
   1.540  0.8963E+01  0.4039E+02
   1.550  0.8955E+01  0.4048E+02
   1.560  0.8943E+01  0.4057E+02
   1.570  0.8925E+01  0.4066E+02
   1.580  0.8901E+01  0.4075E+02
   1.590  0.8868E+01  0.4083E+02
   1.600  0.8825E+01  0.4092E+02
   1.610  0.8771E+01  0.4101E+02
   1.620  0.8707E+01  0.4110E+02
   1.630  0.8632E+01  0.4118E+02
   1.640  0.8546E+01  0.4127E+02
   1.650  0.8451E+01  0.4135E+02
   1.660  0.8349E+01  0.4144E+02
   1.670  0.8240E+01  0.4152E+02
   1.680  0.8129E+01  0.4160E+02
   1.690  0.8017E+01  0.4168E+02
   1.700  0.7906E+01  0.4176E+02
   1.710  0.7798E+01  0.4184E+02
   1.720  0.7697E+01  0.4192E+02
   1.730  0.7603E+01  0.4199E+02
   1.740  0.7517E+01  0.4207E+02
   1.750  0.7441E+01  0.4214E+02
   1.760  0.7373E+01  0.4221E+02
   1.770  0.7315E+01  0.4229E+02
   1.780  0.7264E+01  0.4236E+02
   1.790  0.7219E+01  0.4243E+02
   1.800  0.7180E+01  0.4250E+02
   1.810  0.7144E+01  0.4258E+02
   1.820  0.7108E+01  0.4265E+02
   1.830  0.7072E+01  0.4272E+02
   1.840  0.7034E+01  0.4279E+02
   1.850  0.6991E+01  0.4286E+02
   1.860  0.6943E+01  0.4293E+02
   1.870  0.6888E+01  0.4300E+02
   1.880  0.6827E+01  0.4306E+02
   1.890  0.6758E+01  0.4313E+02
   1.900  0.6682E+01  0.4320E+02
   1.910  0.6600E+01  0.4326E+02
   1.920  0.6512E+01  0.4333E+02
   1.930  0.6420E+01  0.4339E+02
   1.940  0.6324E+01  0.4346E+02
   1.950  0.6226E+01  0.4352E+02
   1.960  0.6128E+01  0.4358E+02
   1.970  0.6033E+01  0.4364E+02
   1.980  0.5940E+01  0.4370E+02
   1.990  0.5854E+01  0.4376E+02
   2.000  0.5775E+01  0.4382E+02
   2.010  0.5706E+01  0.4387E+02
   2.020  0.5647E+01  0.4393E+02
   2.030  0.5602E+01  0.4399E+02
   2.040  0.5571E+01  0.4404E+02
   2.050  0.5555E+01  0.4410E+02
   2.060  0.5556E+01  0.4415E+02
   2.070  0.5574E+01  0.4421E+02
   2.080  0.5610E+01  0.4427E+02
   2.090  0.5664E+01  0.4432E+02
   2.100  0.5735E+01  0.4438E+02
   2.110  0.5822E+01  0.4444E+02
   2.120  0.5925E+01  0.4450E+02
   2.130  0.6041E+01  0.4456E+02
   2.140  0.6169E+01  0.4462E+02
   2.150  0.6307E+01  0.4468E+02
   2.160  0.6451E+01  0.4475E+02
   2.170  0.6601E+01  0.4481E+02
   2.180  0.6752E+01  0.4488E+02
   2.190  0.6902E+01  0.4495E+02
   2.200  0.7048E+01  0.4502E+02
   2.210  0.7187E+01  0.4509E+02
   2.220  0.7319E+01  0.4516E+02
   2.230  0.7439E+01  0.4524E+02
   2.240  0.7548E+01  0.4531E+02
   2.250  0.7643E+01  0.4539E+02
   2.260  0.7725E+01  0.4547E+02
   2.270  0.7792E+01  0.4555E+02
   2.280  0.7846E+01  0.4562E+02
   2.290  0.7887E+01  0.4570E+02
   2.300  0.7915E+01  0.4578E+02
   2.310  0.7933E+01  0.4586E+02
   2.320  0.7942E+01  0.4594E+02
   2.330  0.7942E+01  0.4602E+02
   2.340  0.7936E+01  0.4610E+02
   2.350  0.7925E+01  0.4618E+02
   2.360  0.7909E+01  0.4626E+02
   2.370  0.7890E+01  0.4634E+02
   2.380  0.7866E+01  0.4642E+02
   2.390  0.7837E+01  0.4649E+02
   2.400  0.7802E+01  0.4657E+02
   2.410  0.7760E+01  0.4665E+02
   2.420  0.7708E+01  0.4673E+02
   2.430  0.7643E+01  0.4680E+02
   2.440  0.7563E+01  0.4688E+02
   2.450  0.7465E+01  0.4695E+02
   2.460  0.7346E+01  0.4703E+02
   2.470  0.7204E+01  0.4710E+02
   2.480  0.7037E+01  0.4717E+02
   2.490  0.6843E+01  0.4724E+02
   2.500  0.6622E+01  0.4730E+02
   2.510  0.6374E+01  0.4737E+02
   2.520  0.6101E+01  0.4743E+02
