#  E (eV)   dos(E)     Int dos(E) EFermi =   2.546 eV
 -17.180  0.1279E-03  0.1279E-05
 -17.170  0.1978E-03  0.3257E-05
 -17.160  0.3024E-03  0.6282E-05
 -17.150  0.4576E-03  0.1086E-04
 -17.140  0.6848E-03  0.1770E-04
 -17.130  0.1014E-02  0.2784E-04
 -17.120  0.1485E-02  0.4269E-04
 -17.110  0.2151E-02  0.6420E-04
 -17.100  0.3083E-02  0.9503E-04
 -17.090  0.4372E-02  0.1388E-03
 -17.080  0.6132E-02  0.2001E-03
 -17.070  0.8508E-02  0.2852E-03
 -17.060  0.1168E-01  0.4019E-03
 -17.050  0.1586E-01  0.5605E-03
 -17.040  0.2130E-01  0.7736E-03
 -17.030  0.2831E-01  0.1057E-02
 -17.020  0.3722E-01  0.1429E-02
 -17.010  0.4840E-01  0.1913E-02
 -17.000  0.6226E-01  0.2535E-02
 -16.990  0.7924E-01  0.3328E-02
 -16.980  0.9976E-01  0.4325E-02
 -16.970  0.1243E+00  0.5568E-02
 -16.960  0.1531E+00  0.7099E-02
 -16.950  0.1866E+00  0.8965E-02
 -16.940  0.2250E+00  0.1121E-01
 -16.930  0.2684E+00  0.1390E-01
 -16.920  0.3166E+00  0.1706E-01
 -16.910  0.3696E+00  0.2076E-01
 -16.900  0.4268E+00  0.2503E-01
 -16.890  0.4876E+00  0.2990E-01
 -16.880  0.5510E+00  0.3541E-01
 -16.870  0.6159E+00  0.4157E-01
 -16.860  0.6812E+00  0.4839E-01
 -16.850  0.7452E+00  0.5584E-01
 -16.840  0.8065E+00  0.6390E-01
 -16.830  0.8635E+00  0.7254E-01
 -16.820  0.9145E+00  0.8168E-01
 -16.810  0.9582E+00  0.9127E-01
 -16.800  0.9932E+00  0.1012E+00
 -16.790  0.1018E+01  0.1114E+00
 -16.780  0.1033E+01  0.1217E+00
 -16.770  0.1037E+01  0.1321E+00
 -16.760  0.1029E+01  0.1424E+00
 -16.750  0.1010E+01  0.1525E+00
 -16.740  0.9816E+00  0.1623E+00
 -16.730  0.9434E+00  0.1717E+00
 -16.720  0.8969E+00  0.1807E+00
 -16.710  0.8437E+00  0.1891E+00
 -16.700  0.7852E+00  0.1970E+00
 -16.690  0.7230E+00  0.2042E+00
 -16.680  0.6589E+00  0.2108E+00
 -16.670  0.5944E+00  0.2167E+00
 -16.660  0.5311E+00  0.2220E+00
 -16.650  0.4702E+00  0.2268E+00
 -16.640  0.4130E+00  0.2309E+00
 -16.630  0.3607E+00  0.2345E+00
 -16.620  0.3142E+00  0.2376E+00
 -16.610  0.2743E+00  0.2404E+00
 -16.600  0.2417E+00  0.2428E+00
 -16.590  0.2173E+00  0.2450E+00
 -16.580  0.2018E+00  0.2470E+00
 -16.570  0.1961E+00  0.2489E+00
 -16.560  0.2012E+00  0.2510E+00
 -16.550  0.2182E+00  0.2531E+00
 -16.540  0.2487E+00  0.2556E+00
 -16.530  0.2942E+00  0.2586E+00
 -16.520  0.3567E+00  0.2621E+00
 -16.510  0.4382E+00  0.2665E+00
 -16.500  0.5411E+00  0.2719E+00
 -16.490  0.6676E+00  0.2786E+00
 -16.480  0.8201E+00  0.2868E+00
 -16.470  0.1001E+01  0.2968E+00
 -16.460  0.1212E+01  0.3089E+00
 -16.450  0.1454E+01  0.3235E+00
 -16.440  0.1729E+01  0.3408E+00
 -16.430  0.2036E+01  0.3611E+00
 -16.420  0.2375E+01  0.3849E+00
 -16.410  0.2744E+01  0.4123E+00
 -16.400  0.3139E+01  0.4437E+00
 -16.390  0.3557E+01  0.4793E+00
 -16.380  0.3992E+01  0.5192E+00
 -16.370  0.4436E+01  0.5636E+00
 -16.360  0.4884E+01  0.6124E+00
 -16.350  0.5325E+01  0.6656E+00
 -16.340  0.5752E+01  0.7232E+00
 -16.330  0.6154E+01  0.7847E+00
 -16.320  0.6524E+01  0.8499E+00
 -16.310  0.6852E+01  0.9185E+00
 -16.300  0.7130E+01  0.9898E+00
 -16.290  0.7351E+01  0.1063E+01
 -16.280  0.7511E+01  0.1138E+01
 -16.270  0.7604E+01  0.1214E+01
 -16.260  0.7629E+01  0.1291E+01
 -16.250  0.7585E+01  0.1367E+01
 -16.240  0.7474E+01  0.1441E+01
 -16.230  0.7299E+01  0.1514E+01
 -16.220  0.7064E+01  0.1585E+01
 -16.210  0.6776E+01  0.1653E+01
 -16.200  0.6443E+01  0.1717E+01
 -16.190  0.6071E+01  0.1778E+01
 -16.180  0.5670E+01  0.1835E+01
 -16.170  0.5249E+01  0.1887E+01
 -16.160  0.4816E+01  0.1935E+01
 -16.150  0.4380E+01  0.1979E+01
 -16.140  0.3949E+01  0.2018E+01
 -16.130  0.3530E+01  0.2054E+01
 -16.120  0.3129E+01  0.2085E+01
 -16.110  0.2752E+01  0.2113E+01
 -16.100  0.2402E+01  0.2137E+01
 -16.090  0.2084E+01  0.2157E+01
 -16.080  0.1800E+01  0.2175E+01
 -16.070  0.1551E+01  0.2191E+01
 -16.060  0.1340E+01  0.2204E+01
 -16.050  0.1166E+01  0.2216E+01
 -16.040  0.1030E+01  0.2226E+01
 -16.030  0.9316E+00  0.2236E+01
 -16.020  0.8716E+00  0.2244E+01
 -16.010  0.8497E+00  0.2253E+01
 -16.000  0.8659E+00  0.2262E+01
 -15.990  0.9201E+00  0.2271E+01
 -15.980  0.1012E+01  0.2281E+01
 -15.970  0.1143E+01  0.2292E+01
 -15.960  0.1310E+01  0.2305E+01
 -15.950  0.1515E+01  0.2321E+01
 -15.940  0.1754E+01  0.2338E+01
 -15.930  0.2027E+01  0.2358E+01
 -15.920  0.2331E+01  0.2382E+01
 -15.910  0.2660E+01  0.2408E+01
 -15.900  0.3012E+01  0.2438E+01
 -15.890  0.3378E+01  0.2472E+01
 -15.880  0.3753E+01  0.2510E+01
 -15.870  0.4129E+01  0.2551E+01
 -15.860  0.4496E+01  0.2596E+01
 -15.850  0.4846E+01  0.2644E+01
 -15.840  0.5169E+01  0.2696E+01
 -15.830  0.5457E+01  0.2751E+01
 -15.820  0.5702E+01  0.2808E+01
 -15.810  0.5896E+01  0.2867E+01
 -15.800  0.6032E+01  0.2927E+01
 -15.790  0.6108E+01  0.2988E+01
 -15.780  0.6121E+01  0.3049E+01
 -15.770  0.6069E+01  0.3110E+01
 -15.760  0.5956E+01  0.3169E+01
 -15.750  0.5783E+01  0.3227E+01
 -15.740  0.5558E+01  0.3283E+01
 -15.730  0.5285E+01  0.3336E+01
 -15.720  0.4974E+01  0.3385E+01
 -15.710  0.4632E+01  0.3432E+01
 -15.700  0.4269E+01  0.3474E+01
 -15.690  0.3894E+01  0.3513E+01
 -15.680  0.3515E+01  0.3549E+01
 -15.670  0.3141E+01  0.3580E+01
 -15.660  0.2777E+01  0.3608E+01
 -15.650  0.2432E+01  0.3632E+01
 -15.640  0.2109E+01  0.3653E+01
 -15.630  0.1812E+01  0.3671E+01
 -15.620  0.1544E+01  0.3687E+01
 -15.610  0.1307E+01  0.3700E+01
 -15.600  0.1101E+01  0.3711E+01
 -15.590  0.9259E+00  0.3720E+01
 -15.580  0.7821E+00  0.3728E+01
 -15.570  0.6683E+00  0.3735E+01
 -15.560  0.5838E+00  0.3740E+01
 -15.550  0.5274E+00  0.3746E+01
 -15.540  0.4984E+00  0.3751E+01
 -15.530  0.4960E+00  0.3756E+01
 -15.520  0.5197E+00  0.3761E+01
 -15.510  0.5693E+00  0.3767E+01
 -15.500  0.6447E+00  0.3773E+01
 -15.490  0.7461E+00  0.3780E+01
 -15.480  0.8737E+00  0.3789E+01
 -15.470  0.1028E+01  0.3799E+01
 -15.460  0.1208E+01  0.3812E+01
 -15.450  0.1414E+01  0.3826E+01
 -15.440  0.1646E+01  0.3842E+01
 -15.430  0.1903E+01  0.3861E+01
 -15.420  0.2183E+01  0.3883E+01
 -15.410  0.2483E+01  0.3908E+01
 -15.400  0.2803E+01  0.3936E+01
 -15.390  0.3137E+01  0.3967E+01
 -15.380  0.3483E+01  0.4002E+01
 -15.370  0.3837E+01  0.4040E+01
 -15.360  0.4193E+01  0.4082E+01
 -15.350  0.4546E+01  0.4128E+01
 -15.340  0.4892E+01  0.4177E+01
 -15.330  0.5226E+01  0.4229E+01
 -15.320  0.5542E+01  0.4284E+01
 -15.310  0.5834E+01  0.4343E+01
 -15.300  0.6099E+01  0.4404E+01
 -15.290  0.6331E+01  0.4467E+01
 -15.280  0.6527E+01  0.4532E+01
 -15.270  0.6683E+01  0.4599E+01
 -15.260  0.6796E+01  0.4667E+01
 -15.250  0.6864E+01  0.4736E+01
 -15.240  0.6885E+01  0.4805E+01
 -15.230  0.6858E+01  0.4873E+01
 -15.220  0.6783E+01  0.4941E+01
 -15.210  0.6662E+01  0.5008E+01
 -15.200  0.6495E+01  0.5073E+01
 -15.190  0.6286E+01  0.5135E+01
 -15.180  0.6038E+01  0.5196E+01
 -15.170  0.5756E+01  0.5253E+01
 -15.160  0.5444E+01  0.5308E+01
 -15.150  0.5108E+01  0.5359E+01
 -15.140  0.4754E+01  0.5406E+01
 -15.130  0.4388E+01  0.5450E+01
 -15.120  0.4016E+01  0.5490E+01
 -15.110  0.3643E+01  0.5527E+01
 -15.100  0.3277E+01  0.5560E+01
 -15.090  0.2921E+01  0.5589E+01
 -15.080  0.2580E+01  0.5615E+01
 -15.070  0.2259E+01  0.5637E+01
 -15.060  0.1959E+01  0.5657E+01
 -15.050  0.1684E+01  0.5674E+01
 -15.040  0.1434E+01  0.5688E+01
 -15.030  0.1210E+01  0.5700E+01
 -15.020  0.1013E+01  0.5710E+01
 -15.010  0.8415E+00  0.5719E+01
 -15.000  0.6949E+00  0.5726E+01
 -14.990  0.5721E+00  0.5731E+01
 -14.980  0.4719E+00  0.5736E+01
 -14.970  0.3932E+00  0.5740E+01
 -14.960  0.3350E+00  0.5743E+01
 -14.950  0.2966E+00  0.5746E+01
 -14.940  0.2779E+00  0.5749E+01
 -14.930  0.2792E+00  0.5752E+01
 -14.920  0.3017E+00  0.5755E+01
 -14.910  0.3470E+00  0.5758E+01
 -14.900  0.4178E+00  0.5763E+01
 -14.890  0.5173E+00  0.5768E+01
 -14.880  0.6497E+00  0.5774E+01
 -14.870  0.8201E+00  0.5782E+01
 -14.860  0.1034E+01  0.5793E+01
 -14.850  0.1298E+01  0.5806E+01
 -14.840  0.1619E+01  0.5822E+01
 -14.830  0.2004E+01  0.5842E+01
 -14.820  0.2460E+01  0.5867E+01
 -14.810  0.2994E+01  0.5897E+01
 -14.800  0.3611E+01  0.5933E+01
 -14.790  0.4318E+01  0.5976E+01
 -14.780  0.5118E+01  0.6027E+01
 -14.770  0.6012E+01  0.6087E+01
 -14.760  0.7000E+01  0.6157E+01
 -14.750  0.8078E+01  0.6238E+01
 -14.740  0.9239E+01  0.6330E+01
 -14.730  0.1047E+02  0.6435E+01
 -14.720  0.1177E+02  0.6553E+01
 -14.710  0.1311E+02  0.6684E+01
 -14.700  0.1448E+02  0.6829E+01
 -14.690  0.1584E+02  0.6987E+01
 -14.680  0.1718E+02  0.7159E+01
 -14.670  0.1847E+02  0.7344E+01
 -14.660  0.1968E+02  0.7540E+01
 -14.650  0.2078E+02  0.7748E+01
 -14.640  0.2175E+02  0.7966E+01
 -14.630  0.2255E+02  0.8191E+01
 -14.620  0.2318E+02  0.8423E+01
 -14.610  0.2361E+02  0.8659E+01
 -14.600  0.2384E+02  0.8897E+01
 -14.590  0.2384E+02  0.9136E+01
 -14.580  0.2363E+02  0.9372E+01
 -14.570  0.2320E+02  0.9604E+01
 -14.560  0.2258E+02  0.9830E+01
 -14.550  0.2176E+02  0.1005E+02
 -14.540  0.2078E+02  0.1026E+02
 -14.530  0.1967E+02  0.1045E+02
 -14.520  0.1843E+02  0.1064E+02
 -14.510  0.1712E+02  0.1081E+02
 -14.500  0.1575E+02  0.1096E+02
 -14.490  0.1435E+02  0.1111E+02
 -14.480  0.1295E+02  0.1124E+02
 -14.470  0.1158E+02  0.1135E+02
 -14.460  0.1025E+02  0.1146E+02
 -14.450  0.8994E+01  0.1155E+02
 -14.440  0.7814E+01  0.1162E+02
 -14.430  0.6724E+01  0.1169E+02
 -14.420  0.5730E+01  0.1175E+02
 -14.410  0.4837E+01  0.1180E+02
 -14.400  0.4043E+01  0.1184E+02
 -14.390  0.3348E+01  0.1187E+02
 -14.380  0.2745E+01  0.1190E+02
 -14.370  0.2229E+01  0.1192E+02
 -14.360  0.1793E+01  0.1194E+02
 -14.350  0.1428E+01  0.1195E+02
 -14.340  0.1126E+01  0.1196E+02
 -14.330  0.8797E+00  0.1197E+02
 -14.320  0.6805E+00  0.1198E+02
 -14.310  0.5213E+00  0.1199E+02
 -14.300  0.3955E+00  0.1199E+02
 -14.290  0.2971E+00  0.1199E+02
 -14.280  0.2210E+00  0.1199E+02
 -14.270  0.1628E+00  0.1200E+02
 -14.260  0.1188E+00  0.1200E+02
 -14.250  0.8584E-01  0.1200E+02
 -14.240  0.6141E-01  0.1200E+02
 -14.230  0.4351E-01  0.1200E+02
 -14.220  0.3052E-01  0.1200E+02
 -14.210  0.2120E-01  0.1200E+02
 -14.200  0.1459E-01  0.1200E+02
 -14.190  0.9936E-02  0.1200E+02
 -14.180  0.6702E-02  0.1200E+02
 -14.170  0.4476E-02  0.1200E+02
 -14.160  0.2961E-02  0.1200E+02
 -14.150  0.1939E-02  0.1200E+02
 -14.140  0.1257E-02  0.1200E+02
 -14.130  0.8070E-03  0.1200E+02
 -14.120  0.5130E-03  0.1200E+02
 -14.110  0.3229E-03  0.1200E+02
 -14.100  0.2012E-03  0.1200E+02
 -14.090  0.1242E-03  0.1200E+02
 -14.080  0.7584E-04  0.1200E+02
 -14.070  0.4587E-04  0.1200E+02
 -14.060  0.2746E-04  0.1200E+02
 -14.050  0.1628E-04  0.1200E+02
 -14.040  0.9555E-05  0.1200E+02
 -14.030  0.5552E-05  0.1200E+02
 -14.020  0.3193E-05  0.1200E+02
 -14.010  0.1818E-05  0.1200E+02
 -14.000  0.1025E-05  0.1200E+02
 -13.990  0.5719E-06  0.1200E+02
 -13.980  0.3159E-06  0.1200E+02
 -13.970  0.1727E-06  0.1200E+02
 -13.960  0.9348E-07  0.1200E+02
 -13.950  0.5008E-07  0.1200E+02
 -13.940  0.2656E-07  0.1200E+02
 -13.930  0.1394E-07  0.1200E+02
 -13.920  0.7243E-08  0.1200E+02
 -13.910  0.3725E-08  0.1200E+02
 -13.900  0.1896E-08  0.1200E+02
 -13.890  0.9550E-09  0.1200E+02
 -13.880  0.4762E-09  0.1200E+02
 -13.870  0.2350E-09  0.1200E+02
 -13.860  0.1148E-09  0.1200E+02
 -13.850  0.5547E-10  0.1200E+02
 -13.840  0.2653E-10  0.1200E+02
 -13.830  0.1256E-10  0.1200E+02
 -13.820  0.5886E-11  0.1200E+02
 -13.810  0.2729E-11  0.1200E+02
 -13.800  0.1252E-11  0.1200E+02
 -13.790  0.5686E-12  0.1200E+02
 -13.780  0.2555E-12  0.1200E+02
 -13.770  0.1136E-12  0.1200E+02
 -13.760  0.4999E-13  0.1200E+02
 -13.750  0.2177E-13  0.1200E+02
 -13.740  0.9380E-14  0.1200E+02
 -13.730  0.4000E-14  0.1200E+02
 -13.720  0.1688E-14  0.1200E+02
 -13.710  0.7046E-15  0.1200E+02
 -13.700  0.2911E-15  0.1200E+02
 -13.690  0.1190E-15  0.1200E+02
 -13.680  0.4813E-16  0.1200E+02
 -13.670  0.1926E-16  0.1200E+02
 -13.660  0.7628E-17  0.1200E+02
 -13.650  0.2989E-17  0.1200E+02
 -13.640  0.1159E-17  0.1200E+02
 -13.630  0.4446E-18  0.1200E+02
 -13.620  0.1688E-18  0.1200E+02
 -13.610  0.6338E-19  0.1200E+02
 -13.600  0.2355E-19  0.1200E+02
 -13.590  0.8660E-20  0.1200E+02
 -13.580  0.3150E-20  0.1200E+02
 -13.570  0.1134E-20  0.1200E+02
 -13.560  0.4038E-21  0.1200E+02
 -13.550  0.1423E-21  0.1200E+02
 -13.540  0.4960E-22  0.1200E+02
 -13.530  0.1711E-22  0.1200E+02
 -13.520  0.5837E-23  0.1200E+02
 -13.510  0.1971E-23  0.1200E+02
 -13.500  0.6583E-24  0.1200E+02
 -13.490  0.2176E-24  0.1200E+02
 -13.480  0.7114E-25  0.1200E+02
 -13.470  0.2301E-25  0.1200E+02
 -13.460  0.7365E-26  0.1200E+02
 -13.450  0.2332E-26  0.1200E+02
 -13.440  0.7306E-27  0.1200E+02
 -13.430  0.2264E-27  0.1200E+02
 -13.420  0.6943E-28  0.1200E+02
 -13.410  0.2106E-28  0.1200E+02
 -13.400  0.6322E-29  0.1200E+02
 -13.390  0.1877E-29  0.1200E+02
 -13.380  0.5514E-30  0.1200E+02
 -13.370  0.1603E-30  0.1200E+02
 -13.360  0.4608E-31  0.1200E+02
 -13.350  0.1311E-31  0.1200E+02
 -13.340  0.3689E-32  0.1200E+02
 -13.330  0.1027E-32  0.1200E+02
 -13.320  0.2829E-33  0.1200E+02
 -13.310  0.7709E-34  0.1200E+02
 -13.300  0.2078E-34  0.1200E+02
 -13.290  0.5542E-35  0.1200E+02
 -13.280  0.1462E-35  0.1200E+02
 -13.270  0.3817E-36  0.1200E+02
 -13.260  0.9858E-37  0.1200E+02
 -13.250  0.2519E-37  0.1200E+02
 -13.240  0.6366E-38  0.1200E+02
 -13.230  0.1592E-38  0.1200E+02
 -13.220  0.3937E-39  0.1200E+02
 -13.210  0.9635E-40  0.1200E+02
 -13.200  0.2333E-40  0.1200E+02
 -13.190  0.5587E-41  0.1200E+02
 -13.180  0.1324E-41  0.1200E+02
 -13.170  0.3103E-42  0.1200E+02
 -13.160  0.7196E-43  0.1200E+02
 -13.150  0.1651E-43  0.1200E+02
 -13.140  0.3747E-44  0.1200E+02
 -13.130  0.8413E-45  0.1200E+02
 -13.120  0.1869E-45  0.1200E+02
 -13.110  0.4106E-46  0.1200E+02
 -13.100  0.8926E-47  0.1200E+02
 -13.090  0.1920E-47  0.1200E+02
 -13.080  0.4084E-48  0.1200E+02
 -13.070  0.8596E-49  0.1200E+02
 -13.060  0.1790E-49  0.1200E+02
 -13.050  0.3687E-50  0.1200E+02
 -13.040  0.7512E-51  0.1200E+02
 -13.030  0.1514E-51  0.1200E+02
 -13.020  0.3020E-52  0.1200E+02
 -13.010  0.5959E-53  0.1200E+02
 -13.000  0.1163E-53  0.1200E+02
 -12.990  0.2246E-54  0.1200E+02
 -12.980  0.4289E-55  0.1200E+02
 -12.970  0.8105E-56  0.1200E+02
 -12.960  0.1515E-56  0.1200E+02
 -12.950  0.2802E-57  0.1200E+02
 -12.940  0.5126E-58  0.1200E+02
 -12.930  0.9277E-59  0.1200E+02
 -12.920  0.1661E-59  0.1200E+02
 -12.910  0.2942E-60  0.1200E+02
 -12.900  0.5155E-61  0.1200E+02
 -12.890  0.8936E-62  0.1200E+02
 -12.880  0.1532E-62  0.1200E+02
 -12.870  0.2599E-63  0.1200E+02
 -12.860  0.4362E-64  0.1200E+02
 -12.850  0.7242E-65  0.1200E+02
 -12.840  0.1189E-65  0.1200E+02
 -12.830  0.1933E-66  0.1200E+02
 -12.820  0.3106E-67  0.1200E+02
 -12.810  0.4939E-68  0.1200E+02
 -12.800  0.7769E-69  0.1200E+02
 -12.790  0.1209E-69  0.1200E+02
 -12.780  0.1861E-70  0.1200E+02
 -12.770  0.2834E-71  0.1200E+02
 -12.760  0.4270E-72  0.1200E+02
 -12.750  0.6363E-73  0.1200E+02
 -12.740  0.9382E-74  0.1200E+02
 -12.730  0.1368E-74  0.1200E+02
 -12.720  0.1974E-75  0.1200E+02
 -12.710  0.2818E-76  0.1200E+02
 -12.700  0.3979E-77  0.1200E+02
 -12.690  0.5558E-78  0.1200E+02
 -12.680  0.7681E-79  0.1200E+02
 -12.670  0.1050E-79  0.1200E+02
 -12.660  0.1420E-80  0.1200E+02
 -12.650  0.1902E-81  0.1200E+02
 -12.640  0.2541E-82  0.1200E+02
 -12.630  0.3563E-83  0.1200E+02
 -12.620  0.6975E-84  0.1200E+02
 -12.610  0.3282E-84  0.1200E+02
 -12.600  0.2809E-84  0.1200E+02
 -12.590  0.2755E-84  0.1200E+02
 -12.580  0.2755E-84  0.1200E+02
 -12.570  0.2755E-84  0.1200E+02
 -12.560  0.2755E-84  0.1200E+02
 -12.550  0.2755E-84  0.1200E+02
 -12.540  0.2755E-84  0.1200E+02
 -12.530  0.2755E-84  0.1200E+02
 -12.520  0.2755E-84  0.1200E+02
 -12.510  0.2755E-84  0.1200E+02
 -12.500  0.2755E-84  0.1200E+02
 -12.490  0.2755E-84  0.1200E+02
 -12.480  0.2755E-84  0.1200E+02
 -12.470  0.2755E-84  0.1200E+02
 -12.460  0.2755E-84  0.1200E+02
 -12.450  0.2755E-84  0.1200E+02
 -12.440  0.2755E-84  0.1200E+02
 -12.430  0.2755E-84  0.1200E+02
 -12.420  0.2755E-84  0.1200E+02
 -12.410  0.2755E-84  0.1200E+02
 -12.400  0.2755E-84  0.1200E+02
 -12.390  0.2755E-84  0.1200E+02
 -12.380  0.2755E-84  0.1200E+02
 -12.370  0.2755E-84  0.1200E+02
 -12.360  0.2755E-84  0.1200E+02
 -12.350  0.2755E-84  0.1200E+02
 -12.340  0.2755E-84  0.1200E+02
 -12.330  0.2755E-84  0.1200E+02
 -12.320  0.2755E-84  0.1200E+02
 -12.310  0.2755E-84  0.1200E+02
 -12.300  0.2755E-84  0.1200E+02
 -12.290  0.2755E-84  0.1200E+02
 -12.280  0.2755E-84  0.1200E+02
 -12.270  0.2755E-84  0.1200E+02
 -12.260  0.2755E-84  0.1200E+02
 -12.250  0.2755E-84  0.1200E+02
 -12.240  0.2755E-84  0.1200E+02
 -12.230  0.2755E-84  0.1200E+02
 -12.220  0.2755E-84  0.1200E+02
 -12.210  0.2755E-84  0.1200E+02
 -12.200  0.2755E-84  0.1200E+02
 -12.190  0.2755E-84  0.1200E+02
 -12.180  0.2755E-84  0.1200E+02
 -12.170  0.2755E-84  0.1200E+02
 -12.160  0.2755E-84  0.1200E+02
 -12.150  0.2755E-84  0.1200E+02
 -12.140  0.2755E-84  0.1200E+02
 -12.130  0.2755E-84  0.1200E+02
 -12.120  0.2755E-84  0.1200E+02
 -12.110  0.2755E-84  0.1200E+02
 -12.100  0.2755E-84  0.1200E+02
 -12.090  0.2755E-84  0.1200E+02
 -12.080  0.2755E-84  0.1200E+02
 -12.070  0.2755E-84  0.1200E+02
 -12.060  0.2755E-84  0.1200E+02
 -12.050  0.2755E-84  0.1200E+02
 -12.040  0.2755E-84  0.1200E+02
 -12.030  0.2755E-84  0.1200E+02
 -12.020  0.2755E-84  0.1200E+02
 -12.010  0.2755E-84  0.1200E+02
 -12.000  0.2755E-84  0.1200E+02
 -11.990  0.2755E-84  0.1200E+02
 -11.980  0.2755E-84  0.1200E+02
 -11.970  0.2755E-84  0.1200E+02
 -11.960  0.2755E-84  0.1200E+02
 -11.950  0.2755E-84  0.1200E+02
 -11.940  0.2755E-84  0.1200E+02
 -11.930  0.2755E-84  0.1200E+02
 -11.920  0.2755E-84  0.1200E+02
 -11.910  0.2755E-84  0.1200E+02
 -11.900  0.2755E-84  0.1200E+02
 -11.890  0.2755E-84  0.1200E+02
 -11.880  0.2755E-84  0.1200E+02
 -11.870  0.2755E-84  0.1200E+02
 -11.860  0.2755E-84  0.1200E+02
 -11.850  0.2755E-84  0.1200E+02
 -11.840  0.2755E-84  0.1200E+02
 -11.830  0.2755E-84  0.1200E+02
 -11.820  0.2755E-84  0.1200E+02
 -11.810  0.2755E-84  0.1200E+02
 -11.800  0.2755E-84  0.1200E+02
 -11.790  0.2755E-84  0.1200E+02
 -11.780  0.2755E-84  0.1200E+02
 -11.770  0.2755E-84  0.1200E+02
 -11.760  0.2755E-84  0.1200E+02
 -11.750  0.2755E-84  0.1200E+02
 -11.740  0.2755E-84  0.1200E+02
 -11.730  0.2755E-84  0.1200E+02
 -11.720  0.2755E-84  0.1200E+02
 -11.710  0.2755E-84  0.1200E+02
 -11.700  0.2755E-84  0.1200E+02
 -11.690  0.2755E-84  0.1200E+02
 -11.680  0.2755E-84  0.1200E+02
 -11.670  0.2755E-84  0.1200E+02
 -11.660  0.2755E-84  0.1200E+02
 -11.650  0.2755E-84  0.1200E+02
 -11.640  0.2755E-84  0.1200E+02
 -11.630  0.2755E-84  0.1200E+02
 -11.620  0.2755E-84  0.1200E+02
 -11.610  0.2755E-84  0.1200E+02
 -11.600  0.2755E-84  0.1200E+02
 -11.590  0.2755E-84  0.1200E+02
 -11.580  0.2755E-84  0.1200E+02
 -11.570  0.2755E-84  0.1200E+02
 -11.560  0.2755E-84  0.1200E+02
 -11.550  0.2755E-84  0.1200E+02
 -11.540  0.2755E-84  0.1200E+02
 -11.530  0.2755E-84  0.1200E+02
 -11.520  0.2755E-84  0.1200E+02
 -11.510  0.2755E-84  0.1200E+02
 -11.500  0.2755E-84  0.1200E+02
 -11.490  0.2755E-84  0.1200E+02
 -11.480  0.2755E-84  0.1200E+02
 -11.470  0.2755E-84  0.1200E+02
 -11.460  0.2755E-84  0.1200E+02
 -11.450  0.2755E-84  0.1200E+02
 -11.440  0.2755E-84  0.1200E+02
 -11.430  0.2755E-84  0.1200E+02
 -11.420  0.2755E-84  0.1200E+02
 -11.410  0.2755E-84  0.1200E+02
 -11.400  0.2755E-84  0.1200E+02
 -11.390  0.2755E-84  0.1200E+02
 -11.380  0.2755E-84  0.1200E+02
 -11.370  0.2755E-84  0.1200E+02
 -11.360  0.2755E-84  0.1200E+02
 -11.350  0.2755E-84  0.1200E+02
 -11.340  0.2755E-84  0.1200E+02
 -11.330  0.2755E-84  0.1200E+02
 -11.320  0.2755E-84  0.1200E+02
 -11.310  0.2755E-84  0.1200E+02
 -11.300  0.2755E-84  0.1200E+02
 -11.290  0.2755E-84  0.1200E+02
 -11.280  0.2755E-84  0.1200E+02
 -11.270  0.2755E-84  0.1200E+02
 -11.260  0.2755E-84  0.1200E+02
 -11.250  0.2755E-84  0.1200E+02
 -11.240  0.2755E-84  0.1200E+02
 -11.230  0.2755E-84  0.1200E+02
 -11.220  0.2755E-84  0.1200E+02
 -11.210  0.2755E-84  0.1200E+02
 -11.200  0.2755E-84  0.1200E+02
 -11.190  0.2755E-84  0.1200E+02
 -11.180  0.2755E-84  0.1200E+02
 -11.170  0.2755E-84  0.1200E+02
 -11.160  0.2755E-84  0.1200E+02
 -11.150  0.2755E-84  0.1200E+02
 -11.140  0.2755E-84  0.1200E+02
 -11.130  0.2755E-84  0.1200E+02
 -11.120  0.2755E-84  0.1200E+02
 -11.110  0.2755E-84  0.1200E+02
 -11.100  0.2755E-84  0.1200E+02
 -11.090  0.2755E-84  0.1200E+02
 -11.080  0.2755E-84  0.1200E+02
 -11.070  0.2755E-84  0.1200E+02
 -11.060  0.2755E-84  0.1200E+02
 -11.050  0.2755E-84  0.1200E+02
 -11.040  0.2755E-84  0.1200E+02
 -11.030  0.2755E-84  0.1200E+02
 -11.020  0.2755E-84  0.1200E+02
 -11.010  0.2755E-84  0.1200E+02
 -11.000  0.2755E-84  0.1200E+02
 -10.990  0.2755E-84  0.1200E+02
 -10.980  0.2755E-84  0.1200E+02
 -10.970  0.2755E-84  0.1200E+02
 -10.960  0.2755E-84  0.1200E+02
 -10.950  0.2755E-84  0.1200E+02
 -10.940  0.2755E-84  0.1200E+02
 -10.930  0.2755E-84  0.1200E+02
 -10.920  0.2755E-84  0.1200E+02
 -10.910  0.2755E-84  0.1200E+02
 -10.900  0.2755E-84  0.1200E+02
 -10.890  0.2755E-84  0.1200E+02
 -10.880  0.2755E-84  0.1200E+02
 -10.870  0.2755E-84  0.1200E+02
 -10.860  0.2755E-84  0.1200E+02
 -10.850  0.2755E-84  0.1200E+02
 -10.840  0.2755E-84  0.1200E+02
 -10.830  0.2755E-84  0.1200E+02
 -10.820  0.2755E-84  0.1200E+02
 -10.810  0.2755E-84  0.1200E+02
 -10.800  0.2755E-84  0.1200E+02
 -10.790  0.2755E-84  0.1200E+02
 -10.780  0.2755E-84  0.1200E+02
 -10.770  0.2755E-84  0.1200E+02
 -10.760  0.2755E-84  0.1200E+02
 -10.750  0.2755E-84  0.1200E+02
 -10.740  0.2755E-84  0.1200E+02
 -10.730  0.2755E-84  0.1200E+02
 -10.720  0.2755E-84  0.1200E+02
 -10.710  0.2755E-84  0.1200E+02
 -10.700  0.2755E-84  0.1200E+02
 -10.690  0.2755E-84  0.1200E+02
 -10.680  0.2755E-84  0.1200E+02
 -10.670  0.2755E-84  0.1200E+02
 -10.660  0.2755E-84  0.1200E+02
 -10.650  0.2755E-84  0.1200E+02
 -10.640  0.2755E-84  0.1200E+02
 -10.630  0.2755E-84  0.1200E+02
 -10.620  0.2755E-84  0.1200E+02
 -10.610  0.2755E-84  0.1200E+02
 -10.600  0.2755E-84  0.1200E+02
 -10.590  0.2755E-84  0.1200E+02
 -10.580  0.2755E-84  0.1200E+02
 -10.570  0.2755E-84  0.1200E+02
 -10.560  0.2755E-84  0.1200E+02
 -10.550  0.2755E-84  0.1200E+02
 -10.540  0.2755E-84  0.1200E+02
 -10.530  0.2755E-84  0.1200E+02
 -10.520  0.2755E-84  0.1200E+02
 -10.510  0.2755E-84  0.1200E+02
 -10.500  0.2755E-84  0.1200E+02
 -10.490  0.2755E-84  0.1200E+02
 -10.480  0.2755E-84  0.1200E+02
 -10.470  0.2755E-84  0.1200E+02
 -10.460  0.2755E-84  0.1200E+02
 -10.450  0.2755E-84  0.1200E+02
 -10.440  0.2755E-84  0.1200E+02
 -10.430  0.2755E-84  0.1200E+02
 -10.420  0.2755E-84  0.1200E+02
 -10.410  0.2755E-84  0.1200E+02
 -10.400  0.2755E-84  0.1200E+02
 -10.390  0.2755E-84  0.1200E+02
 -10.380  0.2755E-84  0.1200E+02
 -10.370  0.2755E-84  0.1200E+02
 -10.360  0.2755E-84  0.1200E+02
 -10.350  0.2755E-84  0.1200E+02
 -10.340  0.2755E-84  0.1200E+02
 -10.330  0.2755E-84  0.1200E+02
 -10.320  0.2755E-84  0.1200E+02
 -10.310  0.2755E-84  0.1200E+02
 -10.300  0.2755E-84  0.1200E+02
 -10.290  0.2755E-84  0.1200E+02
 -10.280  0.2755E-84  0.1200E+02
 -10.270  0.2755E-84  0.1200E+02
 -10.260  0.2755E-84  0.1200E+02
 -10.250  0.2755E-84  0.1200E+02
 -10.240  0.2755E-84  0.1200E+02
 -10.230  0.2755E-84  0.1200E+02
 -10.220  0.2755E-84  0.1200E+02
 -10.210  0.2755E-84  0.1200E+02
 -10.200  0.2755E-84  0.1200E+02
 -10.190  0.2755E-84  0.1200E+02
 -10.180  0.2755E-84  0.1200E+02
 -10.170  0.2755E-84  0.1200E+02
 -10.160  0.2755E-84  0.1200E+02
 -10.150  0.2755E-84  0.1200E+02
 -10.140  0.2755E-84  0.1200E+02
 -10.130  0.2755E-84  0.1200E+02
 -10.120  0.2755E-84  0.1200E+02
 -10.110  0.2755E-84  0.1200E+02
 -10.100  0.2755E-84  0.1200E+02
 -10.090  0.2755E-84  0.1200E+02
 -10.080  0.2755E-84  0.1200E+02
 -10.070  0.2755E-84  0.1200E+02
 -10.060  0.2755E-84  0.1200E+02
 -10.050  0.2755E-84  0.1200E+02
 -10.040  0.2755E-84  0.1200E+02
 -10.030  0.2755E-84  0.1200E+02
 -10.020  0.2755E-84  0.1200E+02
 -10.010  0.2755E-84  0.1200E+02
 -10.000  0.2755E-84  0.1200E+02
  -9.990  0.2755E-84  0.1200E+02
  -9.980  0.2755E-84  0.1200E+02
  -9.970  0.2755E-84  0.1200E+02
  -9.960  0.2755E-84  0.1200E+02
  -9.950  0.2755E-84  0.1200E+02
  -9.940  0.2755E-84  0.1200E+02
  -9.930  0.2755E-84  0.1200E+02
  -9.920  0.2755E-84  0.1200E+02
  -9.910  0.2755E-84  0.1200E+02
  -9.900  0.2755E-84  0.1200E+02
  -9.890  0.2755E-84  0.1200E+02
  -9.880  0.2755E-84  0.1200E+02
  -9.870  0.2755E-84  0.1200E+02
  -9.860  0.2755E-84  0.1200E+02
  -9.850  0.2755E-84  0.1200E+02
  -9.840  0.2755E-84  0.1200E+02
  -9.830  0.2755E-84  0.1200E+02
  -9.820  0.2755E-84  0.1200E+02
  -9.810  0.2755E-84  0.1200E+02
  -9.800  0.2755E-84  0.1200E+02
  -9.790  0.2755E-84  0.1200E+02
  -9.780  0.2755E-84  0.1200E+02
  -9.770  0.2755E-84  0.1200E+02
  -9.760  0.2755E-84  0.1200E+02
  -9.750  0.2755E-84  0.1200E+02
  -9.740  0.2755E-84  0.1200E+02
  -9.730  0.2755E-84  0.1200E+02
  -9.720  0.2755E-84  0.1200E+02
  -9.710  0.2755E-84  0.1200E+02
  -9.700  0.2755E-84  0.1200E+02
  -9.690  0.2755E-84  0.1200E+02
  -9.680  0.2755E-84  0.1200E+02
  -9.670  0.2755E-84  0.1200E+02
  -9.660  0.2755E-84  0.1200E+02
  -9.650  0.2755E-84  0.1200E+02
  -9.640  0.2755E-84  0.1200E+02
  -9.630  0.2755E-84  0.1200E+02
  -9.620  0.2755E-84  0.1200E+02
  -9.610  0.2755E-84  0.1200E+02
  -9.600  0.2755E-84  0.1200E+02
  -9.590  0.2755E-84  0.1200E+02
  -9.580  0.2755E-84  0.1200E+02
  -9.570  0.2755E-84  0.1200E+02
  -9.560  0.2755E-84  0.1200E+02
  -9.550  0.2755E-84  0.1200E+02
  -9.540  0.2755E-84  0.1200E+02
  -9.530  0.2755E-84  0.1200E+02
  -9.520  0.2755E-84  0.1200E+02
  -9.510  0.2755E-84  0.1200E+02
  -9.500  0.2755E-84  0.1200E+02
  -9.490  0.2755E-84  0.1200E+02
  -9.480  0.2755E-84  0.1200E+02
  -9.470  0.2755E-84  0.1200E+02
  -9.460  0.2755E-84  0.1200E+02
  -9.450  0.2755E-84  0.1200E+02
  -9.440  0.2755E-84  0.1200E+02
  -9.430  0.2755E-84  0.1200E+02
  -9.420  0.2755E-84  0.1200E+02
  -9.410  0.2755E-84  0.1200E+02
  -9.400  0.2755E-84  0.1200E+02
  -9.390  0.2755E-84  0.1200E+02
  -9.380  0.2755E-84  0.1200E+02
  -9.370  0.2755E-84  0.1200E+02
  -9.360  0.2755E-84  0.1200E+02
  -9.350  0.2755E-84  0.1200E+02
  -9.340  0.2755E-84  0.1200E+02
  -9.330  0.2755E-84  0.1200E+02
  -9.320  0.2755E-84  0.1200E+02
  -9.310  0.2755E-84  0.1200E+02
  -9.300  0.2755E-84  0.1200E+02
  -9.290  0.2755E-84  0.1200E+02
  -9.280  0.2755E-84  0.1200E+02
  -9.270  0.2755E-84  0.1200E+02
  -9.260  0.2755E-84  0.1200E+02
  -9.250  0.2755E-84  0.1200E+02
  -9.240  0.2755E-84  0.1200E+02
  -9.230  0.2755E-84  0.1200E+02
  -9.220  0.2755E-84  0.1200E+02
  -9.210  0.2755E-84  0.1200E+02
  -9.200  0.2755E-84  0.1200E+02
  -9.190  0.2755E-84  0.1200E+02
  -9.180  0.2755E-84  0.1200E+02
  -9.170  0.2755E-84  0.1200E+02
  -9.160  0.2755E-84  0.1200E+02
  -9.150  0.2755E-84  0.1200E+02
  -9.140  0.2755E-84  0.1200E+02
  -9.130  0.2755E-84  0.1200E+02
  -9.120  0.2755E-84  0.1200E+02
  -9.110  0.2755E-84  0.1200E+02
  -9.100  0.2755E-84  0.1200E+02
  -9.090  0.2755E-84  0.1200E+02
  -9.080  0.2755E-84  0.1200E+02
  -9.070  0.2755E-84  0.1200E+02
  -9.060  0.2755E-84  0.1200E+02
  -9.050  0.2755E-84  0.1200E+02
  -9.040  0.2755E-84  0.1200E+02
  -9.030  0.2755E-84  0.1200E+02
  -9.020  0.2755E-84  0.1200E+02
  -9.010  0.2755E-84  0.1200E+02
  -9.000  0.2755E-84  0.1200E+02
  -8.990  0.2755E-84  0.1200E+02
  -8.980  0.2755E-84  0.1200E+02
  -8.970  0.2755E-84  0.1200E+02
  -8.960  0.2755E-84  0.1200E+02
  -8.950  0.2755E-84  0.1200E+02
  -8.940  0.2755E-84  0.1200E+02
  -8.930  0.2755E-84  0.1200E+02
  -8.920  0.2755E-84  0.1200E+02
  -8.910  0.2755E-84  0.1200E+02
  -8.900  0.2755E-84  0.1200E+02
  -8.890  0.2755E-84  0.1200E+02
  -8.880  0.2755E-84  0.1200E+02
  -8.870  0.2755E-84  0.1200E+02
  -8.860  0.2755E-84  0.1200E+02
  -8.850  0.2755E-84  0.1200E+02
  -8.840  0.2755E-84  0.1200E+02
  -8.830  0.2755E-84  0.1200E+02
  -8.820  0.2755E-84  0.1200E+02
  -8.810  0.2755E-84  0.1200E+02
  -8.800  0.2755E-84  0.1200E+02
  -8.790  0.2755E-84  0.1200E+02
  -8.780  0.2755E-84  0.1200E+02
  -8.770  0.2755E-84  0.1200E+02
  -8.760  0.2755E-84  0.1200E+02
  -8.750  0.2755E-84  0.1200E+02
  -8.740  0.2755E-84  0.1200E+02
  -8.730  0.2755E-84  0.1200E+02
  -8.720  0.2755E-84  0.1200E+02
  -8.710  0.2755E-84  0.1200E+02
  -8.700  0.2782E-84  0.1200E+02
  -8.690  0.3075E-84  0.1200E+02
  -8.680  0.5356E-84  0.1200E+02
  -8.670  0.2298E-83  0.1200E+02
  -8.660  0.1577E-82  0.1200E+02
  -8.650  0.1176E-81  0.1200E+02
  -8.640  0.8794E-81  0.1200E+02
  -8.630  0.6516E-80  0.1200E+02
  -8.620  0.4777E-79  0.1200E+02
  -8.610  0.3465E-78  0.1200E+02
  -8.600  0.2486E-77  0.1200E+02
  -8.590  0.1764E-76  0.1200E+02
  -8.580  0.1239E-75  0.1200E+02
  -8.570  0.8605E-75  0.1200E+02
  -8.560  0.5913E-74  0.1200E+02
  -8.550  0.4019E-73  0.1200E+02
  -8.540  0.2703E-72  0.1200E+02
  -8.530  0.1798E-71  0.1200E+02
  -8.520  0.1183E-70  0.1200E+02
  -8.510  0.7703E-70  0.1200E+02
  -8.500  0.4961E-69  0.1200E+02
  -8.490  0.3161E-68  0.1200E+02
  -8.480  0.1992E-67  0.1200E+02
  -8.470  0.1242E-66  0.1200E+02
  -8.460  0.7660E-66  0.1200E+02
  -8.450  0.4674E-65  0.1200E+02
  -8.440  0.2821E-64  0.1200E+02
  -8.430  0.1684E-63  0.1200E+02
  -8.420  0.9950E-63  0.1200E+02
  -8.410  0.5814E-62  0.1200E+02
  -8.400  0.3361E-61  0.1200E+02
  -8.390  0.1922E-60  0.1200E+02
  -8.380  0.1087E-59  0.1200E+02
  -8.370  0.6084E-59  0.1200E+02
  -8.360  0.3368E-58  0.1200E+02
  -8.350  0.1845E-57  0.1200E+02
  -8.340  0.9994E-57  0.1200E+02
  -8.330  0.5357E-56  0.1200E+02
  -8.320  0.2840E-55  0.1200E+02
  -8.310  0.1490E-54  0.1200E+02
  -8.300  0.7729E-54  0.1200E+02
  -8.290  0.3967E-53  0.1200E+02
  -8.280  0.2014E-52  0.1200E+02
  -8.270  0.1012E-51  0.1200E+02
  -8.260  0.5028E-51  0.1200E+02
  -8.250  0.2472E-50  0.1200E+02
  -8.240  0.1202E-49  0.1200E+02
  -8.230  0.5782E-49  0.1200E+02
  -8.220  0.2752E-48  0.1200E+02
  -8.210  0.1296E-47  0.1200E+02
  -8.200  0.6034E-47  0.1200E+02
  -8.190  0.2780E-46  0.1200E+02
  -8.180  0.1267E-45  0.1200E+02
  -8.170  0.5712E-45  0.1200E+02
  -8.160  0.2548E-44  0.1200E+02
  -8.150  0.1124E-43  0.1200E+02
  -8.140  0.4907E-43  0.1200E+02
  -8.130  0.2119E-42  0.1200E+02
  -8.120  0.9051E-42  0.1200E+02
  -8.110  0.3825E-41  0.1200E+02
  -8.100  0.1599E-40  0.1200E+02
  -8.090  0.6612E-40  0.1200E+02
  -8.080  0.2705E-39  0.1200E+02
  -8.070  0.1095E-38  0.1200E+02
  -8.060  0.4383E-38  0.1200E+02
  -8.050  0.1736E-37  0.1200E+02
  -8.040  0.6800E-37  0.1200E+02
  -8.030  0.2636E-36  0.1200E+02
  -8.020  0.1011E-35  0.1200E+02
  -8.010  0.3833E-35  0.1200E+02
  -8.000  0.1438E-34  0.1200E+02
  -7.990  0.5339E-34  0.1200E+02
  -7.980  0.1960E-33  0.1200E+02
  -7.970  0.7121E-33  0.1200E+02
  -7.960  0.2559E-32  0.1200E+02
  -7.950  0.9097E-32  0.1200E+02
  -7.940  0.3199E-31  0.1200E+02
  -7.930  0.1113E-30  0.1200E+02
  -7.920  0.3830E-30  0.1200E+02
  -7.910  0.1304E-29  0.1200E+02
  -7.900  0.4392E-29  0.1200E+02
  -7.890  0.1463E-28  0.1200E+02
  -7.880  0.4823E-28  0.1200E+02
  -7.870  0.1572E-27  0.1200E+02
  -7.860  0.5072E-27  0.1200E+02
  -7.850  0.1618E-26  0.1200E+02
  -7.840  0.5109E-26  0.1200E+02
  -7.830  0.1595E-25  0.1200E+02
  -7.820  0.4928E-25  0.1200E+02
  -7.810  0.1506E-24  0.1200E+02
  -7.800  0.4552E-24  0.1200E+02
  -7.790  0.1361E-23  0.1200E+02
  -7.780  0.4028E-23  0.1200E+02
  -7.770  0.1179E-22  0.1200E+02
  -7.760  0.3413E-22  0.1200E+02
  -7.750  0.9774E-22  0.1200E+02
  -7.740  0.2769E-21  0.1200E+02
  -7.730  0.7762E-21  0.1200E+02
  -7.720  0.2152E-20  0.1200E+02
  -7.710  0.5903E-20  0.1200E+02
  -7.700  0.1602E-19  0.1200E+02
  -7.690  0.4300E-19  0.1200E+02
  -7.680  0.1142E-18  0.1200E+02
  -7.670  0.2999E-18  0.1200E+02
  -7.660  0.7794E-18  0.1200E+02
  -7.650  0.2004E-17  0.1200E+02
  -7.640  0.5096E-17  0.1200E+02
  -7.630  0.1282E-16  0.1200E+02
  -7.620  0.3191E-16  0.1200E+02
  -7.610  0.7855E-16  0.1200E+02
  -7.600  0.1913E-15  0.1200E+02
  -7.590  0.4610E-15  0.1200E+02
  -7.580  0.1099E-14  0.1200E+02
  -7.570  0.2591E-14  0.1200E+02
  -7.560  0.6043E-14  0.1200E+02
  -7.550  0.1394E-13  0.1200E+02
  -7.540  0.3183E-13  0.1200E+02
  -7.530  0.7188E-13  0.1200E+02
  -7.520  0.1606E-12  0.1200E+02
  -7.510  0.3548E-12  0.1200E+02
  -7.500  0.7757E-12  0.1200E+02
  -7.490  0.1678E-11  0.1200E+02
  -7.480  0.3589E-11  0.1200E+02
  -7.470  0.7596E-11  0.1200E+02
  -7.460  0.1590E-10  0.1200E+02
  -7.450  0.3294E-10  0.1200E+02
  -7.440  0.6749E-10  0.1200E+02
  -7.430  0.1368E-09  0.1200E+02
  -7.420  0.2743E-09  0.1200E+02
  -7.410  0.5441E-09  0.1200E+02
  -7.400  0.1068E-08  0.1200E+02
  -7.390  0.2073E-08  0.1200E+02
  -7.380  0.3980E-08  0.1200E+02
  -7.370  0.7560E-08  0.1200E+02
  -7.360  0.1421E-07  0.1200E+02
  -7.350  0.2641E-07  0.1200E+02
  -7.340  0.4858E-07  0.1200E+02
  -7.330  0.8838E-07  0.1200E+02
  -7.320  0.1591E-06  0.1200E+02
  -7.310  0.2832E-06  0.1200E+02
  -7.300  0.4988E-06  0.1200E+02
  -7.290  0.8691E-06  0.1200E+02
  -7.280  0.1498E-05  0.1200E+02
  -7.270  0.2554E-05  0.1200E+02
  -7.260  0.4309E-05  0.1200E+02
  -7.250  0.7190E-05  0.1200E+02
  -7.240  0.1187E-04  0.1200E+02
  -7.230  0.1938E-04  0.1200E+02
  -7.220  0.3131E-04  0.1200E+02
  -7.210  0.5004E-04  0.1200E+02
  -7.200  0.7911E-04  0.1200E+02
  -7.190  0.1237E-03  0.1200E+02
  -7.180  0.1914E-03  0.1200E+02
  -7.170  0.2930E-03  0.1200E+02
  -7.160  0.4436E-03  0.1200E+02
  -7.150  0.6644E-03  0.1200E+02
  -7.140  0.9844E-03  0.1200E+02
  -7.130  0.1443E-02  0.1200E+02
  -7.120  0.2092E-02  0.1200E+02
  -7.110  0.3001E-02  0.1200E+02
  -7.100  0.4259E-02  0.1200E+02
  -7.090  0.5979E-02  0.1200E+02
  -7.080  0.8303E-02  0.1200E+02
  -7.070  0.1141E-01  0.1200E+02
  -7.060  0.1550E-01  0.1200E+02
  -7.050  0.2084E-01  0.1200E+02
  -7.040  0.2772E-01  0.1200E+02
  -7.030  0.3647E-01  0.1200E+02
  -7.020  0.4746E-01  0.1200E+02
  -7.010  0.6111E-01  0.1200E+02
  -7.000  0.7783E-01  0.1200E+02
  -6.990  0.9807E-01  0.1200E+02
  -6.980  0.1222E+00  0.1201E+02
  -6.970  0.1507E+00  0.1201E+02
  -6.960  0.1839E+00  0.1201E+02
  -6.950  0.2219E+00  0.1201E+02
  -6.940  0.2649E+00  0.1201E+02
  -6.930  0.3128E+00  0.1202E+02
  -6.920  0.3654E+00  0.1202E+02
  -6.910  0.4223E+00  0.1202E+02
  -6.900  0.4828E+00  0.1203E+02
  -6.890  0.5461E+00  0.1203E+02
  -6.880  0.6110E+00  0.1204E+02
  -6.870  0.6762E+00  0.1205E+02
  -6.860  0.7404E+00  0.1206E+02
  -6.850  0.8020E+00  0.1206E+02
  -6.840  0.8594E+00  0.1207E+02
  -6.830  0.9109E+00  0.1208E+02
  -6.820  0.9552E+00  0.1209E+02
  -6.810  0.9909E+00  0.1210E+02
  -6.800  0.1017E+01  0.1211E+02
  -6.790  0.1032E+01  0.1212E+02
  -6.780  0.1037E+01  0.1213E+02
  -6.770  0.1030E+01  0.1214E+02
  -6.760  0.1012E+01  0.1215E+02
  -6.750  0.9840E+00  0.1216E+02
  -6.740  0.9464E+00  0.1217E+02
  -6.730  0.9004E+00  0.1218E+02
  -6.720  0.8475E+00  0.1219E+02
  -6.710  0.7891E+00  0.1220E+02
  -6.700  0.7269E+00  0.1220E+02
  -6.690  0.6623E+00  0.1221E+02
  -6.680  0.5970E+00  0.1222E+02
  -6.670  0.5324E+00  0.1222E+02
  -6.660  0.4696E+00  0.1223E+02
  -6.650  0.4098E+00  0.1223E+02
  -6.640  0.3538E+00  0.1223E+02
  -6.630  0.3021E+00  0.1224E+02
  -6.620  0.2553E+00  0.1224E+02
  -6.610  0.2133E+00  0.1224E+02
  -6.600  0.1764E+00  0.1224E+02
  -6.590  0.1443E+00  0.1224E+02
  -6.580  0.1167E+00  0.1225E+02
  -6.570  0.9342E-01  0.1225E+02
  -6.560  0.7397E-01  0.1225E+02
  -6.550  0.5794E-01  0.1225E+02
  -6.540  0.4490E-01  0.1225E+02
  -6.530  0.3442E-01  0.1225E+02
  -6.520  0.2610E-01  0.1225E+02
  -6.510  0.1958E-01  0.1225E+02
  -6.500  0.1453E-01  0.1225E+02
  -6.490  0.1067E-01  0.1225E+02
  -6.480  0.7746E-02  0.1225E+02
  -6.470  0.5565E-02  0.1225E+02
  -6.460  0.3955E-02  0.1225E+02
  -6.450  0.2781E-02  0.1225E+02
  -6.440  0.1934E-02  0.1225E+02
  -6.430  0.1331E-02  0.1225E+02
  -6.420  0.9058E-03  0.1225E+02
  -6.410  0.6099E-03  0.1225E+02
  -6.400  0.4063E-03  0.1225E+02
  -6.390  0.2678E-03  0.1225E+02
  -6.380  0.1748E-03  0.1225E+02
  -6.370  0.1130E-03  0.1225E+02
  -6.360  0.7265E-04  0.1225E+02
  -6.350  0.4683E-04  0.1225E+02
  -6.340  0.3095E-04  0.1225E+02
  -6.330  0.2206E-04  0.1225E+02
  -6.320  0.1849E-04  0.1225E+02
  -6.310  0.1964E-04  0.1225E+02
  -6.300  0.2586E-04  0.1225E+02
  -6.290  0.3859E-04  0.1225E+02
  -6.280  0.6061E-04  0.1225E+02
  -6.270  0.9650E-04  0.1225E+02
  -6.260  0.1534E-03  0.1225E+02
  -6.250  0.2420E-03  0.1225E+02
  -6.240  0.3780E-03  0.1225E+02
  -6.230  0.5846E-03  0.1225E+02
  -6.220  0.8944E-03  0.1225E+02
  -6.210  0.1354E-02  0.1225E+02
  -6.200  0.2028E-02  0.1225E+02
  -6.190  0.3004E-02  0.1225E+02
  -6.180  0.4403E-02  0.1225E+02
  -6.170  0.6384E-02  0.1225E+02
  -6.160  0.9158E-02  0.1225E+02
  -6.150  0.1300E-01  0.1225E+02
  -6.140  0.1825E-01  0.1225E+02
  -6.130  0.2535E-01  0.1225E+02
  -6.120  0.3484E-01  0.1225E+02
  -6.110  0.4738E-01  0.1225E+02
  -6.100  0.6375E-01  0.1225E+02
  -6.090  0.8486E-01  0.1225E+02
  -6.080  0.1118E+00  0.1225E+02
  -6.070  0.1457E+00  0.1226E+02
  -6.060  0.1879E+00  0.1226E+02
  -6.050  0.2399E+00  0.1226E+02
  -6.040  0.3030E+00  0.1226E+02
  -6.030  0.3789E+00  0.1227E+02
  -6.020  0.4689E+00  0.1227E+02
  -6.010  0.5745E+00  0.1228E+02
  -6.000  0.6967E+00  0.1228E+02
  -5.990  0.8367E+00  0.1229E+02
  -5.980  0.9949E+00  0.1230E+02
  -5.970  0.1172E+01  0.1231E+02
  -5.960  0.1367E+01  0.1233E+02
  -5.950  0.1580E+01  0.1234E+02
  -5.940  0.1810E+01  0.1236E+02
  -5.930  0.2055E+01  0.1238E+02
  -5.920  0.2314E+01  0.1241E+02
  -5.910  0.2584E+01  0.1243E+02
  -5.900  0.2862E+01  0.1246E+02
  -5.890  0.3147E+01  0.1249E+02
  -5.880  0.3435E+01  0.1253E+02
  -5.870  0.3723E+01  0.1256E+02
  -5.860  0.4009E+01  0.1260E+02
  -5.850  0.4291E+01  0.1265E+02
  -5.840  0.4566E+01  0.1269E+02
  -5.830  0.4832E+01  0.1274E+02
  -5.820  0.5087E+01  0.1279E+02
  -5.810  0.5328E+01  0.1284E+02
  -5.800  0.5554E+01  0.1290E+02
  -5.790  0.5762E+01  0.1296E+02
  -5.780  0.5949E+01  0.1302E+02
  -5.770  0.6113E+01  0.1308E+02
  -5.760  0.6251E+01  0.1314E+02
  -5.750  0.6359E+01  0.1320E+02
  -5.740  0.6435E+01  0.1327E+02
  -5.730  0.6475E+01  0.1333E+02
  -5.720  0.6477E+01  0.1340E+02
  -5.710  0.6438E+01  0.1346E+02
  -5.700  0.6357E+01  0.1353E+02
  -5.690  0.6233E+01  0.1359E+02
  -5.680  0.6067E+01  0.1365E+02
  -5.670  0.5860E+01  0.1371E+02
  -5.660  0.5614E+01  0.1376E+02
  -5.650  0.5334E+01  0.1382E+02
  -5.640  0.5024E+01  0.1387E+02
  -5.630  0.4691E+01  0.1391E+02
  -5.620  0.4340E+01  0.1396E+02
  -5.610  0.3977E+01  0.1400E+02
  -5.600  0.3611E+01  0.1403E+02
  -5.590  0.3247E+01  0.1407E+02
  -5.580  0.2890E+01  0.1409E+02
  -5.570  0.2548E+01  0.1412E+02
  -5.560  0.2223E+01  0.1414E+02
  -5.550  0.1921E+01  0.1416E+02
  -5.540  0.1642E+01  0.1418E+02
  -5.530  0.1390E+01  0.1419E+02
  -5.520  0.1164E+01  0.1420E+02
  -5.510  0.9644E+00  0.1421E+02
  -5.500  0.7909E+00  0.1422E+02
  -5.490  0.6418E+00  0.1423E+02
  -5.480  0.5154E+00  0.1423E+02
  -5.470  0.4095E+00  0.1424E+02
  -5.460  0.3219E+00  0.1424E+02
  -5.450  0.2503E+00  0.1424E+02
  -5.440  0.1926E+00  0.1424E+02
  -5.430  0.1467E+00  0.1425E+02
  -5.420  0.1105E+00  0.1425E+02
  -5.410  0.8231E-01  0.1425E+02
  -5.400  0.6068E-01  0.1425E+02
  -5.390  0.4426E-01  0.1425E+02
  -5.380  0.3193E-01  0.1425E+02
  -5.370  0.2280E-01  0.1425E+02
  -5.360  0.1610E-01  0.1425E+02
  -5.350  0.1125E-01  0.1425E+02
  -5.340  0.7775E-02  0.1425E+02
  -5.330  0.5319E-02  0.1425E+02
  -5.320  0.3602E-02  0.1425E+02
  -5.310  0.2417E-02  0.1425E+02
  -5.300  0.1612E-02  0.1425E+02
  -5.290  0.1076E-02  0.1425E+02
  -5.280  0.7290E-03  0.1425E+02
  -5.270  0.5194E-03  0.1425E+02
  -5.260  0.4129E-03  0.1425E+02
  -5.250  0.3914E-03  0.1425E+02
  -5.240  0.4504E-03  0.1425E+02
  -5.230  0.5984E-03  0.1425E+02
  -5.220  0.8573E-03  0.1425E+02
  -5.210  0.1265E-02  0.1425E+02
  -5.200  0.1877E-02  0.1425E+02
  -5.190  0.2776E-02  0.1425E+02
  -5.180  0.4072E-02  0.1425E+02
  -5.170  0.5917E-02  0.1425E+02
  -5.160  0.8510E-02  0.1425E+02
  -5.150  0.1211E-01  0.1425E+02
  -5.140  0.1705E-01  0.1425E+02
  -5.130  0.2376E-01  0.1425E+02
  -5.120  0.3275E-01  0.1425E+02
  -5.110  0.4467E-01  0.1425E+02
  -5.100  0.6029E-01  0.1425E+02
  -5.090  0.8052E-01  0.1425E+02
  -5.080  0.1064E+00  0.1425E+02
  -5.070  0.1391E+00  0.1426E+02
  -5.060  0.1801E+00  0.1426E+02
  -5.050  0.2306E+00  0.1426E+02
  -5.040  0.2923E+00  0.1426E+02
  -5.030  0.3667E+00  0.1427E+02
  -5.020  0.4554E+00  0.1427E+02
  -5.010  0.5598E+00  0.1428E+02
  -5.000  0.6812E+00  0.1428E+02
  -4.990  0.8207E+00  0.1429E+02
  -4.980  0.9791E+00  0.1430E+02
  -4.970  0.1157E+01  0.1431E+02
  -4.960  0.1353E+01  0.1433E+02
  -4.950  0.1568E+01  0.1434E+02
  -4.940  0.1800E+01  0.1436E+02
  -4.930  0.2047E+01  0.1438E+02
  -4.920  0.2306E+01  0.1440E+02
  -4.910  0.2576E+01  0.1443E+02
  -4.900  0.2852E+01  0.1446E+02
  -4.890  0.3130E+01  0.1449E+02
  -4.880  0.3406E+01  0.1452E+02
  -4.870  0.3676E+01  0.1456E+02
  -4.860  0.3936E+01  0.1460E+02
  -4.850  0.4181E+01  0.1464E+02
  -4.840  0.4407E+01  0.1469E+02
  -4.830  0.4610E+01  0.1473E+02
  -4.820  0.4787E+01  0.1478E+02
  -4.810  0.4936E+01  0.1483E+02
  -4.800  0.5052E+01  0.1488E+02
  -4.790  0.5135E+01  0.1493E+02
  -4.780  0.5183E+01  0.1498E+02
  -4.770  0.5195E+01  0.1503E+02
  -4.760  0.5172E+01  0.1509E+02
  -4.750  0.5113E+01  0.1514E+02
  -4.740  0.5019E+01  0.1519E+02
  -4.730  0.4893E+01  0.1524E+02
  -4.720  0.4736E+01  0.1528E+02
  -4.710  0.4550E+01  0.1533E+02
  -4.700  0.4339E+01  0.1537E+02
  -4.690  0.4107E+01  0.1541E+02
  -4.680  0.3857E+01  0.1545E+02
  -4.670  0.3594E+01  0.1549E+02
  -4.660  0.3321E+01  0.1552E+02
  -4.650  0.3044E+01  0.1555E+02
  -4.640  0.2766E+01  0.1558E+02
  -4.630  0.2492E+01  0.1560E+02
  -4.620  0.2225E+01  0.1563E+02
  -4.610  0.1969E+01  0.1565E+02
  -4.600  0.1726E+01  0.1566E+02
  -4.590  0.1499E+01  0.1568E+02
  -4.580  0.1290E+01  0.1569E+02
  -4.570  0.1099E+01  0.1570E+02
  -4.560  0.9280E+00  0.1571E+02
  -4.550  0.7755E+00  0.1572E+02
  -4.540  0.6417E+00  0.1573E+02
  -4.530  0.5257E+00  0.1573E+02
  -4.520  0.4263E+00  0.1574E+02
  -4.510  0.3422E+00  0.1574E+02
  -4.500  0.2719E+00  0.1574E+02
  -4.490  0.2138E+00  0.1574E+02
  -4.480  0.1664E+00  0.1575E+02
  -4.470  0.1282E+00  0.1575E+02
  -4.460  0.9771E-01  0.1575E+02
  -4.450  0.7370E-01  0.1575E+02
  -4.440  0.5500E-01  0.1575E+02
  -4.430  0.4062E-01  0.1575E+02
  -4.420  0.2968E-01  0.1575E+02
  -4.410  0.2146E-01  0.1575E+02
  -4.400  0.1535E-01  0.1575E+02
  -4.390  0.1087E-01  0.1575E+02
  -4.380  0.7611E-02  0.1575E+02
  -4.370  0.5274E-02  0.1575E+02
  -4.360  0.3617E-02  0.1575E+02
  -4.350  0.2457E-02  0.1575E+02
  -4.340  0.1654E-02  0.1575E+02
  -4.330  0.1108E-02  0.1575E+02
  -4.320  0.7439E-03  0.1575E+02
  -4.310  0.5102E-03  0.1575E+02
  -4.300  0.3718E-03  0.1575E+02
  -4.290  0.3068E-03  0.1575E+02
  -4.280  0.3051E-03  0.1575E+02
  -4.270  0.3662E-03  0.1575E+02
  -4.260  0.4999E-03  0.1575E+02
  -4.250  0.7270E-03  0.1575E+02
  -4.240  0.1082E-02  0.1575E+02
  -4.230  0.1615E-02  0.1575E+02
  -4.220  0.2398E-02  0.1575E+02
  -4.210  0.3532E-02  0.1575E+02
  -4.200  0.5150E-02  0.1575E+02
  -4.190  0.7431E-02  0.1575E+02
  -4.180  0.1061E-01  0.1575E+02
  -4.170  0.1499E-01  0.1575E+02
  -4.160  0.2095E-01  0.1575E+02
  -4.150  0.2897E-01  0.1575E+02
  -4.140  0.3962E-01  0.1575E+02
  -4.130  0.5363E-01  0.1575E+02
  -4.120  0.7181E-01  0.1575E+02
  -4.110  0.9514E-01  0.1575E+02
  -4.100  0.1247E+00  0.1575E+02
  -4.090  0.1617E+00  0.1576E+02
  -4.080  0.2075E+00  0.1576E+02
  -4.070  0.2635E+00  0.1576E+02
  -4.060  0.3311E+00  0.1576E+02
  -4.050  0.4117E+00  0.1577E+02
  -4.040  0.5065E+00  0.1577E+02
  -4.030  0.6167E+00  0.1578E+02
  -4.020  0.7432E+00  0.1579E+02
  -4.010  0.8865E+00  0.1580E+02
  -4.000  0.1047E+01  0.1581E+02
  -3.990  0.1223E+01  0.1582E+02
  -3.980  0.1415E+01  0.1583E+02
  -3.970  0.1621E+01  0.1585E+02
  -3.960  0.1839E+01  0.1587E+02
  -3.950  0.2066E+01  0.1589E+02
  -3.940  0.2299E+01  0.1591E+02
  -3.930  0.2534E+01  0.1594E+02
  -3.920  0.2768E+01  0.1596E+02
  -3.910  0.2996E+01  0.1599E+02
  -3.900  0.3214E+01  0.1603E+02
  -3.890  0.3418E+01  0.1606E+02
  -3.880  0.3605E+01  0.1610E+02
  -3.870  0.3771E+01  0.1613E+02
  -3.860  0.3913E+01  0.1617E+02
  -3.850  0.4030E+01  0.1621E+02
  -3.840  0.4119E+01  0.1625E+02
  -3.830  0.4180E+01  0.1630E+02
  -3.820  0.4213E+01  0.1634E+02
  -3.810  0.4218E+01  0.1638E+02
  -3.800  0.4195E+01  0.1642E+02
  -3.790  0.4146E+01  0.1646E+02
  -3.780  0.4073E+01  0.1651E+02
  -3.770  0.3976E+01  0.1654E+02
  -3.760  0.3858E+01  0.1658E+02
  -3.750  0.3722E+01  0.1662E+02
  -3.740  0.3568E+01  0.1666E+02
  -3.730  0.3400E+01  0.1669E+02
  -3.720  0.3220E+01  0.1672E+02
  -3.710  0.3031E+01  0.1675E+02
  -3.700  0.2835E+01  0.1678E+02
  -3.690  0.2634E+01  0.1681E+02
  -3.680  0.2432E+01  0.1683E+02
  -3.670  0.2231E+01  0.1685E+02
  -3.660  0.2034E+01  0.1687E+02
  -3.650  0.1843E+01  0.1689E+02
  -3.640  0.1662E+01  0.1691E+02
  -3.630  0.1492E+01  0.1692E+02
  -3.620  0.1338E+01  0.1694E+02
  -3.610  0.1199E+01  0.1695E+02
  -3.600  0.1080E+01  0.1696E+02
  -3.590  0.9808E+00  0.1697E+02
  -3.580  0.9039E+00  0.1698E+02
  -3.570  0.8504E+00  0.1699E+02
  -3.560  0.8214E+00  0.1700E+02
  -3.550  0.8175E+00  0.1700E+02
  -3.540  0.8389E+00  0.1701E+02
  -3.530  0.8857E+00  0.1702E+02
  -3.520  0.9572E+00  0.1703E+02
  -3.510  0.1052E+01  0.1704E+02
  -3.500  0.1170E+01  0.1705E+02
  -3.490  0.1307E+01  0.1707E+02
  -3.480  0.1462E+01  0.1708E+02
  -3.470  0.1631E+01  0.1710E+02
  -3.460  0.1810E+01  0.1712E+02
  -3.450  0.1995E+01  0.1714E+02
  -3.440  0.2182E+01  0.1716E+02
  -3.430  0.2364E+01  0.1718E+02
  -3.420  0.2537E+01  0.1721E+02
  -3.410  0.2696E+01  0.1723E+02
  -3.400  0.2836E+01  0.1726E+02
  -3.390  0.2954E+01  0.1729E+02
  -3.380  0.3045E+01  0.1732E+02
  -3.370  0.3107E+01  0.1735E+02
  -3.360  0.3138E+01  0.1738E+02
  -3.350  0.3139E+01  0.1742E+02
  -3.340  0.3109E+01  0.1745E+02
  -3.330  0.3051E+01  0.1748E+02
  -3.320  0.2968E+01  0.1751E+02
  -3.310  0.2863E+01  0.1754E+02
  -3.300  0.2743E+01  0.1756E+02
  -3.290  0.2611E+01  0.1759E+02
  -3.280  0.2474E+01  0.1761E+02
  -3.270  0.2338E+01  0.1764E+02
  -3.260  0.2208E+01  0.1766E+02
  -3.250  0.2089E+01  0.1768E+02
  -3.240  0.1987E+01  0.1770E+02
  -3.230  0.1904E+01  0.1772E+02
  -3.220  0.1845E+01  0.1774E+02
  -3.210  0.1811E+01  0.1776E+02
  -3.200  0.1804E+01  0.1777E+02
  -3.190  0.1824E+01  0.1779E+02
  -3.180  0.1873E+01  0.1781E+02
  -3.170  0.1948E+01  0.1783E+02
  -3.160  0.2050E+01  0.1785E+02
  -3.150  0.2176E+01  0.1787E+02
  -3.140  0.2327E+01  0.1790E+02
  -3.130  0.2500E+01  0.1792E+02
  -3.120  0.2695E+01  0.1795E+02
  -3.110  0.2912E+01  0.1798E+02
  -3.100  0.3151E+01  0.1801E+02
  -3.090  0.3412E+01  0.1804E+02
  -3.080  0.3696E+01  0.1808E+02
  -3.070  0.4004E+01  0.1812E+02
  -3.060  0.4336E+01  0.1816E+02
  -3.050  0.4694E+01  0.1821E+02
  -3.040  0.5078E+01  0.1826E+02
  -3.030  0.5486E+01  0.1832E+02
  -3.020  0.5917E+01  0.1837E+02
  -3.010  0.6369E+01  0.1844E+02
  -3.000  0.6836E+01  0.1851E+02
  -2.990  0.7314E+01  0.1858E+02
  -2.980  0.7795E+01  0.1866E+02
  -2.970  0.8272E+01  0.1874E+02
  -2.960  0.8735E+01  0.1883E+02
  -2.950  0.9176E+01  0.1892E+02
  -2.940  0.9585E+01  0.1902E+02
  -2.930  0.9953E+01  0.1911E+02
  -2.920  0.1027E+02  0.1922E+02
  -2.910  0.1053E+02  0.1932E+02
  -2.900  0.1074E+02  0.1943E+02
  -2.890  0.1087E+02  0.1954E+02
  -2.880  0.1094E+02  0.1965E+02
  -2.870  0.1094E+02  0.1976E+02
  -2.860  0.1087E+02  0.1987E+02
  -2.850  0.1074E+02  0.1997E+02
  -2.840  0.1056E+02  0.2008E+02
  -2.830  0.1032E+02  0.2018E+02
  -2.820  0.1003E+02  0.2028E+02
  -2.810  0.9708E+01  0.2038E+02
  -2.800  0.9353E+01  0.2047E+02
  -2.790  0.8976E+01  0.2056E+02
  -2.780  0.8583E+01  0.2065E+02
  -2.770  0.8182E+01  0.2073E+02
  -2.760  0.7779E+01  0.2081E+02
  -2.750  0.7380E+01  0.2088E+02
  -2.740  0.6993E+01  0.2095E+02
  -2.730  0.6620E+01  0.2102E+02
  -2.720  0.6269E+01  0.2108E+02
  -2.710  0.5942E+01  0.2114E+02
  -2.700  0.5643E+01  0.2120E+02
  -2.690  0.5377E+01  0.2125E+02
  -2.680  0.5145E+01  0.2130E+02
  -2.670  0.4949E+01  0.2135E+02
  -2.660  0.4791E+01  0.2140E+02
  -2.650  0.4670E+01  0.2145E+02
  -2.640  0.4587E+01  0.2149E+02
  -2.630  0.4540E+01  0.2154E+02
  -2.620  0.4526E+01  0.2158E+02
  -2.610  0.4543E+01  0.2163E+02
  -2.600  0.4587E+01  0.2167E+02
  -2.590  0.4653E+01  0.2172E+02
  -2.580  0.4736E+01  0.2177E+02
  -2.570  0.4831E+01  0.2182E+02
  -2.560  0.4932E+01  0.2187E+02
  -2.550  0.5034E+01  0.2192E+02
  -2.540  0.5131E+01  0.2197E+02
  -2.530  0.5217E+01  0.2202E+02
  -2.520  0.5289E+01  0.2207E+02
  -2.510  0.5341E+01  0.2213E+02
  -2.500  0.5371E+01  0.2218E+02
  -2.490  0.5375E+01  0.2223E+02
  -2.480  0.5351E+01  0.2229E+02
  -2.470  0.5298E+01  0.2234E+02
  -2.460  0.5216E+01  0.2239E+02
  -2.450  0.5104E+01  0.2244E+02
  -2.440  0.4965E+01  0.2249E+02
  -2.430  0.4800E+01  0.2254E+02
  -2.420  0.4612E+01  0.2259E+02
  -2.410  0.4404E+01  0.2263E+02
  -2.400  0.4182E+01  0.2267E+02
  -2.390  0.3950E+01  0.2271E+02
  -2.380  0.3713E+01  0.2275E+02
  -2.370  0.3476E+01  0.2278E+02
  -2.360  0.3247E+01  0.2282E+02
  -2.350  0.3030E+01  0.2285E+02
  -2.340  0.2831E+01  0.2288E+02
  -2.330  0.2656E+01  0.2290E+02
  -2.320  0.2509E+01  0.2293E+02
  -2.310  0.2394E+01  0.2295E+02
  -2.300  0.2314E+01  0.2297E+02
  -2.290  0.2271E+01  0.2300E+02
  -2.280  0.2266E+01  0.2302E+02
  -2.270  0.2299E+01  0.2304E+02
  -2.260  0.2367E+01  0.2307E+02
  -2.250  0.2469E+01  0.2309E+02
  -2.240  0.2599E+01  0.2312E+02
  -2.230  0.2753E+01  0.2314E+02
  -2.220  0.2926E+01  0.2317E+02
  -2.210  0.3109E+01  0.2320E+02
  -2.200  0.3296E+01  0.2324E+02
  -2.190  0.3479E+01  0.2327E+02
  -2.180  0.3650E+01  0.2331E+02
  -2.170  0.3803E+01  0.2335E+02
  -2.160  0.3931E+01  0.2339E+02
  -2.150  0.4029E+01  0.2343E+02
  -2.140  0.4091E+01  0.2347E+02
  -2.130  0.4115E+01  0.2351E+02
  -2.120  0.4098E+01  0.2355E+02
  -2.110  0.4041E+01  0.2359E+02
  -2.100  0.3945E+01  0.2363E+02
  -2.090  0.3811E+01  0.2367E+02
  -2.080  0.3645E+01  0.2370E+02
  -2.070  0.3449E+01  0.2374E+02
  -2.060  0.3231E+01  0.2377E+02
  -2.050  0.2994E+01  0.2380E+02
  -2.040  0.2746E+01  0.2383E+02
  -2.030  0.2492E+01  0.2385E+02
  -2.020  0.2238E+01  0.2388E+02
  -2.010  0.1989E+01  0.2390E+02
  -2.000  0.1748E+01  0.2391E+02
  -1.990  0.1521E+01  0.2393E+02
  -1.980  0.1310E+01  0.2394E+02
  -1.970  0.1115E+01  0.2395E+02
  -1.960  0.9401E+00  0.2396E+02
  -1.950  0.7840E+00  0.2397E+02
  -1.940  0.6469E+00  0.2398E+02
  -1.930  0.5281E+00  0.2398E+02
  -1.920  0.4266E+00  0.2399E+02
  -1.910  0.3410E+00  0.2399E+02
  -1.900  0.2696E+00  0.2399E+02
  -1.890  0.2110E+00  0.2399E+02
  -1.880  0.1633E+00  0.2400E+02
  -1.870  0.1251E+00  0.2400E+02
  -1.860  0.9479E-01  0.2400E+02
  -1.850  0.7107E-01  0.2400E+02
  -1.840  0.5272E-01  0.2400E+02
  -1.830  0.3870E-01  0.2400E+02
  -1.820  0.2810E-01  0.2400E+02
  -1.810  0.2019E-01  0.2400E+02
  -1.800  0.1435E-01  0.2400E+02
  -1.790  0.1009E-01  0.2400E+02
  -1.780  0.7022E-02  0.2400E+02
  -1.770  0.4834E-02  0.2400E+02
  -1.760  0.3292E-02  0.2400E+02
  -1.750  0.2218E-02  0.2400E+02
  -1.740  0.1479E-02  0.2400E+02
  -1.730  0.9753E-03  0.2400E+02
  -1.720  0.6364E-03  0.2400E+02
  -1.710  0.4108E-03  0.2400E+02
  -1.700  0.2624E-03  0.2400E+02
  -1.690  0.1658E-03  0.2400E+02
  -1.680  0.1036E-03  0.2400E+02
  -1.670  0.6410E-04  0.2400E+02
  -1.660  0.3922E-04  0.2400E+02
  -1.650  0.2374E-04  0.2400E+02
  -1.640  0.1422E-04  0.2400E+02
  -1.630  0.8423E-05  0.2400E+02
  -1.620  0.4937E-05  0.2400E+02
  -1.610  0.2863E-05  0.2400E+02
  -1.600  0.1642E-05  0.2400E+02
  -1.590  0.9321E-06  0.2400E+02
  -1.580  0.5234E-06  0.2400E+02
  -1.570  0.2907E-06  0.2400E+02
  -1.560  0.1598E-06  0.2400E+02
  -1.550  0.8685E-07  0.2400E+02
  -1.540  0.4671E-07  0.2400E+02
  -1.530  0.2486E-07  0.2400E+02
  -1.520  0.1308E-07  0.2400E+02
  -1.510  0.6813E-08  0.2400E+02
  -1.500  0.3510E-08  0.2400E+02
  -1.490  0.1789E-08  0.2400E+02
  -1.480  0.9020E-09  0.2400E+02
  -1.470  0.4499E-09  0.2400E+02
  -1.460  0.2220E-09  0.2400E+02
  -1.450  0.1084E-09  0.2400E+02
  -1.440  0.5235E-10  0.2400E+02
  -1.430  0.2501E-10  0.2400E+02
  -1.420  0.1182E-10  0.2400E+02
  -1.410  0.5529E-11  0.2400E+02
  -1.400  0.2561E-11  0.2400E+02
  -1.390  0.1181E-11  0.2400E+02
  -1.380  0.5557E-12  0.2400E+02
  -1.370  0.2974E-12  0.2400E+02
  -1.360  0.2428E-12  0.2400E+02
  -1.350  0.3577E-12  0.2400E+02
  -1.340  0.7176E-12  0.2400E+02
  -1.330  0.1553E-11  0.2400E+02
  -1.320  0.3388E-11  0.2400E+02
  -1.310  0.7338E-11  0.2400E+02
  -1.300  0.1573E-10  0.2400E+02
  -1.290  0.3337E-10  0.2400E+02
  -1.280  0.7004E-10  0.2400E+02
  -1.270  0.1454E-09  0.2400E+02
  -1.260  0.2987E-09  0.2400E+02
  -1.250  0.6070E-09  0.2400E+02
  -1.240  0.1220E-08  0.2400E+02
  -1.230  0.2427E-08  0.2400E+02
  -1.220  0.4776E-08  0.2400E+02
  -1.210  0.9296E-08  0.2400E+02
  -1.200  0.1790E-07  0.2400E+02
  -1.190  0.3411E-07  0.2400E+02
  -1.180  0.6428E-07  0.2400E+02
  -1.170  0.1199E-06  0.2400E+02
  -1.160  0.2211E-06  0.2400E+02
  -1.150  0.4035E-06  0.2400E+02
  -1.140  0.7286E-06  0.2400E+02
  -1.130  0.1301E-05  0.2400E+02
  -1.120  0.2300E-05  0.2400E+02
  -1.110  0.4021E-05  0.2400E+02
  -1.100  0.6954E-05  0.2400E+02
  -1.090  0.1190E-04  0.2400E+02
  -1.080  0.2014E-04  0.2400E+02
  -1.070  0.3373E-04  0.2400E+02
  -1.060  0.5589E-04  0.2400E+02
  -1.050  0.9161E-04  0.2400E+02
  -1.040  0.1486E-03  0.2400E+02
  -1.030  0.2383E-03  0.2400E+02
  -1.020  0.3783E-03  0.2400E+02
  -1.010  0.5941E-03  0.2400E+02
  -1.000  0.9229E-03  0.2400E+02
  -0.990  0.1418E-02  0.2400E+02
  -0.980  0.2157E-02  0.2400E+02
  -0.970  0.3244E-02  0.2400E+02
  -0.960  0.4829E-02  0.2400E+02
  -0.950  0.7110E-02  0.2400E+02
  -0.940  0.1036E-01  0.2400E+02
  -0.930  0.1493E-01  0.2400E+02
  -0.920  0.2129E-01  0.2400E+02
  -0.910  0.3003E-01  0.2400E+02
  -0.900  0.4192E-01  0.2400E+02
  -0.890  0.5788E-01  0.2400E+02
  -0.880  0.7909E-01  0.2400E+02
  -0.870  0.1069E+00  0.2400E+02
  -0.860  0.1430E+00  0.2401E+02
  -0.850  0.1892E+00  0.2401E+02
  -0.840  0.2478E+00  0.2401E+02
  -0.830  0.3210E+00  0.2401E+02
  -0.820  0.4115E+00  0.2402E+02
  -0.810  0.5221E+00  0.2402E+02
  -0.800  0.6553E+00  0.2403E+02
  -0.790  0.8140E+00  0.2404E+02
  -0.780  0.1001E+01  0.2405E+02
  -0.770  0.1217E+01  0.2406E+02
  -0.760  0.1465E+01  0.2407E+02
  -0.750  0.1746E+01  0.2409E+02
  -0.740  0.2059E+01  0.2411E+02
  -0.730  0.2404E+01  0.2414E+02
  -0.720  0.2779E+01  0.2416E+02
  -0.710  0.3179E+01  0.2420E+02
  -0.700  0.3602E+01  0.2423E+02
  -0.690  0.4041E+01  0.2427E+02
  -0.680  0.4489E+01  0.2432E+02
  -0.670  0.4940E+01  0.2437E+02
  -0.660  0.5386E+01  0.2442E+02
  -0.650  0.5819E+01  0.2448E+02
  -0.640  0.6230E+01  0.2454E+02
  -0.630  0.6612E+01  0.2461E+02
  -0.620  0.6959E+01  0.2468E+02
  -0.610  0.7265E+01  0.2475E+02
  -0.600  0.7525E+01  0.2482E+02
  -0.590  0.7738E+01  0.2490E+02
  -0.580  0.7901E+01  0.2498E+02
  -0.570  0.8015E+01  0.2506E+02
  -0.560  0.8083E+01  0.2514E+02
  -0.550  0.8107E+01  0.2522E+02
  -0.540  0.8093E+01  0.2530E+02
  -0.530  0.8046E+01  0.2538E+02
  -0.520  0.7972E+01  0.2546E+02
  -0.510  0.7878E+01  0.2554E+02
  -0.500  0.7770E+01  0.2562E+02
  -0.490  0.7655E+01  0.2570E+02
  -0.480  0.7537E+01  0.2577E+02
  -0.470  0.7423E+01  0.2585E+02
  -0.460  0.7315E+01  0.2592E+02
  -0.450  0.7217E+01  0.2599E+02
  -0.440  0.7131E+01  0.2606E+02
  -0.430  0.7058E+01  0.2613E+02
  -0.420  0.6996E+01  0.2620E+02
  -0.410  0.6945E+01  0.2627E+02
  -0.400  0.6903E+01  0.2634E+02
  -0.390  0.6867E+01  0.2641E+02
  -0.380  0.6833E+01  0.2648E+02
  -0.370  0.6800E+01  0.2655E+02
  -0.360  0.6764E+01  0.2661E+02
  -0.350  0.6723E+01  0.2668E+02
  -0.340  0.6675E+01  0.2675E+02
  -0.330  0.6619E+01  0.2681E+02
  -0.320  0.6556E+01  0.2688E+02
  -0.310  0.6487E+01  0.2695E+02
  -0.300  0.6415E+01  0.2701E+02
  -0.290  0.6343E+01  0.2707E+02
  -0.280  0.6277E+01  0.2714E+02
  -0.270  0.6220E+01  0.2720E+02
  -0.260  0.6178E+01  0.2726E+02
  -0.250  0.6156E+01  0.2732E+02
  -0.240  0.6158E+01  0.2738E+02
  -0.230  0.6186E+01  0.2744E+02
  -0.220  0.6244E+01  0.2751E+02
  -0.210  0.6330E+01  0.2757E+02
  -0.200  0.6443E+01  0.2763E+02
  -0.190  0.6579E+01  0.2770E+02
  -0.180  0.6733E+01  0.2777E+02
  -0.170  0.6898E+01  0.2784E+02
  -0.160  0.7066E+01  0.2791E+02
  -0.150  0.7226E+01  0.2798E+02
  -0.140  0.7371E+01  0.2805E+02
  -0.130  0.7492E+01  0.2813E+02
  -0.120  0.7579E+01  0.2820E+02
  -0.110  0.7627E+01  0.2828E+02
  -0.100  0.7630E+01  0.2836E+02
  -0.090  0.7585E+01  0.2843E+02
  -0.080  0.7493E+01  0.2851E+02
  -0.070  0.7355E+01  0.2858E+02
  -0.060  0.7175E+01  0.2865E+02
  -0.050  0.6959E+01  0.2872E+02
  -0.040  0.6716E+01  0.2879E+02
  -0.030  0.6455E+01  0.2885E+02
  -0.020  0.6187E+01  0.2892E+02
  -0.010  0.5920E+01  0.2898E+02
  -0.000  0.5666E+01  0.2903E+02
   0.010  0.5433E+01  0.2909E+02
   0.020  0.5230E+01  0.2914E+02
   0.030  0.5062E+01  0.2919E+02
   0.040  0.4934E+01  0.2924E+02
   0.050  0.4849E+01  0.2929E+02
   0.060  0.4805E+01  0.2933E+02
   0.070  0.4803E+01  0.2938E+02
   0.080  0.4838E+01  0.2943E+02
   0.090  0.4905E+01  0.2948E+02
   0.100  0.4999E+01  0.2953E+02
   0.110  0.5112E+01  0.2958E+02
   0.120  0.5239E+01  0.2963E+02
   0.130  0.5370E+01  0.2969E+02
   0.140  0.5501E+01  0.2974E+02
   0.150  0.5625E+01  0.2980E+02
   0.160  0.5736E+01  0.2986E+02
   0.170  0.5831E+01  0.2991E+02
   0.180  0.5907E+01  0.2997E+02
   0.190  0.5963E+01  0.3003E+02
   0.200  0.5997E+01  0.3009E+02
   0.210  0.6010E+01  0.3015E+02
   0.220  0.6006E+01  0.3021E+02
   0.230  0.5985E+01  0.3027E+02
   0.240  0.5952E+01  0.3033E+02
   0.250  0.5912E+01  0.3039E+02
   0.260  0.5869E+01  0.3045E+02
   0.270  0.5829E+01  0.3051E+02
   0.280  0.5799E+01  0.3057E+02
   0.290  0.5784E+01  0.3062E+02
   0.300  0.5791E+01  0.3068E+02
   0.310  0.5827E+01  0.3074E+02
   0.320  0.5897E+01  0.3080E+02
   0.330  0.6005E+01  0.3086E+02
   0.340  0.6156E+01  0.3092E+02
   0.350  0.6352E+01  0.3098E+02
   0.360  0.6595E+01  0.3105E+02
   0.370  0.6882E+01  0.3112E+02
   0.380  0.7211E+01  0.3119E+02
   0.390  0.7577E+01  0.3127E+02
   0.400  0.7971E+01  0.3135E+02
   0.410  0.8384E+01  0.3143E+02
   0.420  0.8806E+01  0.3152E+02
   0.430  0.9223E+01  0.3161E+02
   0.440  0.9622E+01  0.3171E+02
   0.450  0.9990E+01  0.3181E+02
   0.460  0.1031E+02  0.3191E+02
   0.470  0.1058E+02  0.3202E+02
   0.480  0.1078E+02  0.3212E+02
   0.490  0.1091E+02  0.3223E+02
   0.500  0.1095E+02  0.3234E+02
   0.510  0.1091E+02  0.3245E+02
   0.520  0.1079E+02  0.3256E+02
   0.530  0.1059E+02  0.3267E+02
   0.540  0.1031E+02  0.3277E+02
   0.550  0.9970E+01  0.3287E+02
   0.560  0.9574E+01  0.3296E+02
   0.570  0.9134E+01  0.3306E+02
   0.580  0.8664E+01  0.3314E+02
   0.590  0.8177E+01  0.3322E+02
   0.600  0.7689E+01  0.3330E+02
   0.610  0.7210E+01  0.3337E+02
   0.620  0.6754E+01  0.3344E+02
   0.630  0.6331E+01  0.3350E+02
   0.640  0.5950E+01  0.3356E+02
   0.650  0.5618E+01  0.3362E+02
   0.660  0.5341E+01  0.3367E+02
   0.670  0.5122E+01  0.3372E+02
   0.680  0.4961E+01  0.3377E+02
   0.690  0.4859E+01  0.3382E+02
   0.700  0.4815E+01  0.3387E+02
   0.710  0.4823E+01  0.3392E+02
   0.720  0.4880E+01  0.3397E+02
   0.730  0.4981E+01  0.3402E+02
   0.740  0.5119E+01  0.3407E+02
   0.750  0.5289E+01  0.3412E+02
   0.760  0.5483E+01  0.3418E+02
   0.770  0.5695E+01  0.3423E+02
   0.780  0.5919E+01  0.3429E+02
   0.790  0.6150E+01  0.3435E+02
   0.800  0.6383E+01  0.3442E+02
   0.810  0.6612E+01  0.3448E+02
   0.820  0.6835E+01  0.3455E+02
   0.830  0.7049E+01  0.3462E+02
   0.840  0.7251E+01  0.3470E+02
   0.850  0.7441E+01  0.3477E+02
   0.860  0.7618E+01  0.3485E+02
   0.870  0.7782E+01  0.3492E+02
   0.880  0.7934E+01  0.3500E+02
   0.890  0.8074E+01  0.3508E+02
   0.900  0.8204E+01  0.3517E+02
   0.910  0.8325E+01  0.3525E+02
   0.920  0.8439E+01  0.3533E+02
   0.930  0.8545E+01  0.3542E+02
   0.940  0.8644E+01  0.3551E+02
   0.950  0.8735E+01  0.3559E+02
   0.960  0.8817E+01  0.3568E+02
   0.970  0.8889E+01  0.3577E+02
   0.980  0.8948E+01  0.3586E+02
   0.990  0.8989E+01  0.3595E+02
   1.000  0.9011E+01  0.3604E+02
   1.010  0.9008E+01  0.3613E+02
   1.020  0.8977E+01  0.3622E+02
   1.030  0.8915E+01  0.3631E+02
   1.040  0.8818E+01  0.3640E+02
   1.050  0.8685E+01  0.3648E+02
   1.060  0.8514E+01  0.3657E+02
   1.070  0.8306E+01  0.3665E+02
   1.080  0.8063E+01  0.3673E+02
   1.090  0.7789E+01  0.3681E+02
   1.100  0.7487E+01  0.3688E+02
   1.110  0.7165E+01  0.3696E+02
   1.120  0.6830E+01  0.3702E+02
   1.130  0.6490E+01  0.3709E+02
   1.140  0.6154E+01  0.3715E+02
   1.150  0.5830E+01  0.3721E+02
   1.160  0.5527E+01  0.3726E+02
   1.170  0.5255E+01  0.3732E+02
   1.180  0.5019E+01  0.3737E+02
   1.190  0.4826E+01  0.3742E+02
   1.200  0.4681E+01  0.3746E+02
   1.210  0.4587E+01  0.3751E+02
   1.220  0.4546E+01  0.3755E+02
   1.230  0.4558E+01  0.3760E+02
   1.240  0.4623E+01  0.3765E+02
   1.250  0.4738E+01  0.3769E+02
   1.260  0.4899E+01  0.3774E+02
   1.270  0.5103E+01  0.3779E+02
   1.280  0.5345E+01  0.3785E+02
   1.290  0.5620E+01  0.3790E+02
   1.300  0.5923E+01  0.3796E+02
   1.310  0.6249E+01  0.3802E+02
   1.320  0.6592E+01  0.3809E+02
   1.330  0.6947E+01  0.3816E+02
   1.340  0.7312E+01  0.3823E+02
   1.350  0.7679E+01  0.3831E+02
   1.360  0.8047E+01  0.3839E+02
   1.370  0.8410E+01  0.3847E+02
   1.380  0.8766E+01  0.3856E+02
   1.390  0.9109E+01  0.3865E+02
   1.400  0.9436E+01  0.3875E+02
   1.410  0.9744E+01  0.3884E+02
   1.420  0.1003E+02  0.3895E+02
   1.430  0.1029E+02  0.3905E+02
   1.440  0.1051E+02  0.3915E+02
   1.450  0.1071E+02  0.3926E+02
   1.460  0.1087E+02  0.3937E+02
   1.470  0.1099E+02  0.3948E+02
   1.480  0.1107E+02  0.3959E+02
   1.490  0.1112E+02  0.3970E+02
   1.500  0.1113E+02  0.3981E+02
   1.510  0.1110E+02  0.3992E+02
   1.520  0.1104E+02  0.4003E+02
   1.530  0.1096E+02  0.4014E+02
   1.540  0.1085E+02  0.4025E+02
   1.550  0.1072E+02  0.4036E+02
   1.560  0.1059E+02  0.4046E+02
   1.570  0.1044E+02  0.4057E+02
   1.580  0.1030E+02  0.4067E+02
   1.590  0.1017E+02  0.4077E+02
   1.600  0.1005E+02  0.4087E+02
   1.610  0.9954E+01  0.4097E+02
   1.620  0.9875E+01  0.4107E+02
   1.630  0.9820E+01  0.4117E+02
   1.640  0.9790E+01  0.4127E+02
   1.650  0.9783E+01  0.4137E+02
   1.660  0.9797E+01  0.4146E+02
   1.670  0.9829E+01  0.4156E+02
   1.680  0.9873E+01  0.4166E+02
   1.690  0.9923E+01  0.4176E+02
   1.700  0.9973E+01  0.4186E+02
   1.710  0.1002E+02  0.4196E+02
   1.720  0.1004E+02  0.4206E+02
   1.730  0.1005E+02  0.4216E+02
   1.740  0.1003E+02  0.4226E+02
   1.750  0.9980E+01  0.4236E+02
   1.760  0.9895E+01  0.4246E+02
   1.770  0.9775E+01  0.4256E+02
   1.780  0.9619E+01  0.4265E+02
   1.790  0.9429E+01  0.4275E+02
   1.800  0.9208E+01  0.4284E+02
   1.810  0.8961E+01  0.4293E+02
   1.820  0.8693E+01  0.4302E+02
   1.830  0.8409E+01  0.4310E+02
   1.840  0.8117E+01  0.4318E+02
   1.850  0.7821E+01  0.4326E+02
   1.860  0.7527E+01  0.4334E+02
   1.870  0.7239E+01  0.4341E+02
   1.880  0.6962E+01  0.4348E+02
   1.890  0.6697E+01  0.4355E+02
   1.900  0.6445E+01  0.4361E+02
   1.910  0.6206E+01  0.4367E+02
   1.920  0.5980E+01  0.4373E+02
   1.930  0.5763E+01  0.4379E+02
   1.940  0.5553E+01  0.4384E+02
   1.950  0.5348E+01  0.4390E+02
   1.960  0.5145E+01  0.4395E+02
   1.970  0.4939E+01  0.4400E+02
   1.980  0.4731E+01  0.4405E+02
   1.990  0.4517E+01  0.4409E+02
   2.000  0.4298E+01  0.4413E+02
   2.010  0.4075E+01  0.4418E+02
   2.020  0.3849E+01  0.4421E+02
   2.030  0.3624E+01  0.4425E+02
   2.040  0.3402E+01  0.4428E+02
   2.050  0.3189E+01  0.4432E+02
   2.060  0.2990E+01  0.4435E+02
   2.070  0.2810E+01  0.4437E+02
   2.080  0.2656E+01  0.4440E+02
   2.090  0.2532E+01  0.4443E+02
   2.100  0.2445E+01  0.4445E+02
   2.110  0.2400E+01  0.4447E+02
   2.120  0.2400E+01  0.4450E+02
   2.130  0.2449E+01  0.4452E+02
   2.140  0.2551E+01  0.4455E+02
   2.150  0.2705E+01  0.4458E+02
   2.160  0.2913E+01  0.4460E+02
   2.170  0.3173E+01  0.4464E+02
   2.180  0.3483E+01  0.4467E+02
   2.190  0.3840E+01  0.4471E+02
   2.200  0.4239E+01  0.4475E+02
   2.210  0.4674E+01  0.4480E+02
   2.220  0.5137E+01  0.4485E+02
   2.230  0.5622E+01  0.4491E+02
   2.240  0.6120E+01  0.4497E+02
   2.250  0.6620E+01  0.4503E+02
   2.260  0.7115E+01  0.4510E+02
   2.270  0.7594E+01  0.4518E+02
   2.280  0.8048E+01  0.4526E+02
   2.290  0.8469E+01  0.4535E+02
   2.300  0.8849E+01  0.4543E+02
   2.310  0.9181E+01  0.4553E+02
   2.320  0.9460E+01  0.4562E+02
   2.330  0.9681E+01  0.4572E+02
   2.340  0.9843E+01  0.4582E+02
   2.350  0.9945E+01  0.4592E+02
   2.360  0.9987E+01  0.4602E+02
   2.370  0.9973E+01  0.4611E+02
   2.380  0.9905E+01  0.4621E+02
   2.390  0.9789E+01  0.4631E+02
   2.400  0.9630E+01  0.4641E+02
   2.410  0.9435E+01  0.4650E+02
   2.420  0.9209E+01  0.4659E+02
   2.430  0.8960E+01  0.4668E+02
   2.440  0.8692E+01  0.4677E+02
   2.450  0.8410E+01  0.4686E+02
   2.460  0.8120E+01  0.4694E+02
   2.470  0.7824E+01  0.4701E+02
   2.480  0.7524E+01  0.4709E+02
   2.490  0.7223E+01  0.4716E+02
   2.500  0.6919E+01  0.4723E+02
   2.510  0.6613E+01  0.4730E+02
   2.520  0.6305E+01  0.4736E+02
   2.530  0.5994E+01  0.4742E+02
   2.540  0.5678E+01  0.4748E+02
   2.550  0.5359E+01  0.4753E+02
   2.560  0.5034E+01  0.4758E+02
   2.570  0.4706E+01  0.4763E+02
   2.580  0.4375E+01  0.4767E+02
   2.590  0.4042E+01  0.4771E+02
   2.600  0.3710E+01  0.4775E+02
   2.610  0.3381E+01  0.4778E+02
   2.620  0.3058E+01  0.4781E+02
   2.630  0.2744E+01  0.4784E+02
   2.640  0.2443E+01  0.4787E+02
   2.650  0.2155E+01  0.4789E+02
   2.660  0.1885E+01  0.4791E+02
   2.670  0.1634E+01  0.4792E+02
